M/Z,Intensity
800.0,110.0
800.32,127.0
800.64014,51.0
800.9604,178.0
801.28076,180.0
801.60126,57.0
801.9219,117.0
802.2426,136.0
802.56354,62.0
802.8846,324.0
803.20575,180.0
803.52704,58.0
803.84845,131.0
804.17,146.0
804.49164,60.0
804.8134,56.0
805.1353,124.0
805.4574,92.0
805.7796,54.0
806.1019,94.0
806.4244,89.0
806.74695,42.0
807.06964,90.0
807.39246,92.0
807.7154,39.0
808.03845,83.0
808.3617,115.0
808.68506,51.0
809.00854,83.0
809.33215,164.0
809.6559,28.0
809.97974,70.0
810.3037,129.0
810.6278,41.0
810.9521,84.0
811.2765,127.0
811.601,54.0
811.92566,60.0
812.2504,139.0
812.5753,55.0
812.9003,84.0
813.22546,118.0
813.5508,65.0
813.8762,58.0
814.2018,120.0
814.52747,67.0
814.8533,65.0
815.1792,127.0
815.50525,69.0
815.8314,50.0
816.1578,117.0
816.48425,83.0
816.81085,126.0
817.1376,227.0
817.4644,96.0
817.7914,66.0
818.11847,168.0
818.44574,82.0
818.77313,82.0
819.10065,123.0
819.4283,90.0
819.75604,52.0
820.0839,90.0
820.412,89.0
820.7402,56.0
821.0685,126.0
821.3969,97.0
821.72546,52.0
822.05414,94.0
822.38293,87.0
822.7119,58.0
823.041,233.0
823.37024,113.0
823.6996,72.0
824.02905,195.0
824.35864,146.0
824.6884,317.0
825.0183,4005.0
825.3483,209.0
825.67847,158.0
826.0087,1820.0
826.3391,155.0
826.6696,59.0
827.0003,556.0
827.3311,142.0
827.66205,54.0
827.9931,181.0
828.3243,121.0
828.65564,45.0
828.9871,84.0
829.3187,119.0
829.65045,37.0
829.9823,76.0
830.3143,137.0
830.6464,36.0
830.9787,59.0
831.3111,124.0
831.6436,45.0
831.97626,75.0
832.309,113.0
832.64197,33.0
832.97504,92.0
833.3082,137.0
833.64154,43.0
833.975,82.0
834.3086,115.0
834.64233,63.0
834.9762,92.0
835.3102,123.0
835.6443,40.0
835.9785,78.0
836.3129,105.0
836.64746,45.0
836.9821,136.0
837.3169,122.0
837.6518,58.0
837.9869,88.0
838.3221,108.0
838.6574,89.0
838.99286,553.0
839.3284,119.0
839.6642,54.0
840.00006,274.0
840.33606,125.0
840.6722,148.0
841.0084,782.0
841.34485,133.0
841.6814,85.0
842.01807,342.0
842.35486,146.0
842.6918,78.0
843.0289,245.0
843.3661,128.0
843.7034,52.0
844.0409,109.0
844.37854,108.0
844.7163,139.0
845.0542,465.0
845.3922,177.0
845.73035,72.0
846.06866,279.0
846.4071,127.0
846.74567,94.0
847.08435,220.0
847.42316,92.0
847.76215,65.0
848.10126,141.0
848.4405,101.0
848.77985,49.0
849.1194,105.0
849.45905,100.0
849.7988,55.0
850.13873,83.0
850.47876,86.0
850.819,52.0
851.1593,125.0
851.49976,76.0
851.84033,66.0
852.1811,118.0
852.522,58.0
852.863,66.0
853.2041,106.0
853.5454,63.0
853.88684,77.0
854.2284,103.0
854.57007,69.0
854.9119,396.0
855.2539,126.0
855.596,59.0
855.93823,240.0
856.2806,117.0
856.6231,62.0
856.96576,212.0
857.30853,119.0
857.6514,52.0
857.9945,145.0
858.3377,115.0
858.681,53.0
859.0245,162.0
859.3681,109.0
859.71185,41.0
860.0557,102.0
860.3997,90.0
860.7439,682.0
861.0882,1022.0
861.4326,117.0
861.77716,442.0
862.1219,371.0
862.46674,106.0
862.8117,264.0
863.15686,150.0
863.50214,81.0
863.84753,144.0
864.19305,136.0
864.53876,61.0
864.8846,117.0
865.2305,109.0
865.5766,67.0
865.92285,86.0
866.2692,103.0
866.6157,71.0
866.96234,215.0
867.30914,121.0
867.65607,51.0
868.0031,134.0
868.35034,100.0
868.6977,54.0
869.04517,113.0
869.39276,98.0
869.74054,47.0
870.08844,87.0
870.43646,78.0
870.7846,58.0
871.13293,76.0
871.4814,62.0
871.82996,52.0
872.1787,99.0
872.5276,66.0
872.8766,103.0
873.2257,131.0
873.575,57.0
873.92444,75.0
874.274,128.0
874.6237,54.0
874.9736,80.0
875.32355,116.0
875.6737,55.0
876.024,76.0
876.3744,141.0
876.7249,180.0
877.0756,275.0
877.42645,117.0
877.7774,172.0
878.12854,124.0
878.4798,64.0
878.8312,119.0
879.18274,121.0
879.5344,65.0
879.8862,79.0
880.23816,150.0
880.5903,55.0
880.9425,90.0
881.29486,100.0
881.6474,55.0
882.00006,68.0
882.35284,102.0
882.7058,74.0
883.0589,125.0
883.4121,108.0
883.7655,60.0
884.119,106.0
884.47266,86.0
884.8264,75.0
885.18036,108.0
885.5344,76.0
885.8886,48.0
886.243,102.0
886.5975,54.0
886.9521,88.0
887.3069,91.0
887.6618,32.0
888.01685,68.0
888.3721,100.0
888.7274,51.0
889.0829,103.0
889.43854,132.0
889.7943,61.0
890.1502,109.0
890.5063,91.0
890.8625,63.0
891.2188,100.0
891.5753,63.0
891.93195,56.0
892.2887,117.0
892.6456,62.0
893.0027,92.0
893.35986,137.0
893.7172,45.0
894.0747,79.0
894.4323,85.0
894.7901,55.0
895.148,111.0
895.50604,77.0
895.86426,50.0
896.2226,89.0
896.58105,63.0
896.9397,67.0
897.29846,134.0
897.6574,38.0
898.0165,67.0
898.3757,100.0
898.73505,75.0
899.09454,93.0
899.45416,94.0
899.81396,51.0
900.1739,121.0
900.53394,66.0
900.89417,63.0
901.2545,89.0
901.615,43.0
901.97565,73.0
902.3364,107.0
902.6974,34.0
903.0585,64.0
903.4197,97.0
903.78107,49.0
904.1426,75.0
904.5042,88.0
904.866,75.0
905.22797,114.0
905.5901,66.0
905.95233,70.0
906.3147,122.0
906.67725,53.0
907.0399,65.0
907.4027,98.0
907.7657,46.0
908.1288,85.0
908.49207,87.0
908.85547,50.0
909.219,97.0
909.5827,48.0
909.94653,62.0
910.3105,91.0
910.6746,46.0
911.0389,81.0
911.4033,110.0
911.7679,44.0
912.13257,89.0
912.49744,65.0
912.8624,51.0
913.2276,99.0
913.5929,62.0
913.9583,59.0
914.3239,80.0
914.68964,48.0
915.05554,73.0
915.4216,94.0
915.7877,53.0
916.15405,83.0
916.5205,72.0
916.88715,54.0
917.2539,120.0
917.6208,52.0
917.98785,67.0
918.35504,110.0
918.7224,48.0
919.0899,91.0
919.4575,76.0
919.8253,51.0
920.19324,131.0
920.56134,59.0
920.92957,58.0
921.2979,126.0
921.66644,50.0
922.0351,77.0
922.40393,101.0
922.7729,51.0
923.14197,92.0
923.5112,82.0
923.8806,58.0
924.2502,96.0
924.6199,51.0
924.98975,71.0
925.35974,92.0
925.72986,48.0
926.10016,88.0
926.4706,84.0
926.8412,71.0
927.2119,98.0
927.5828,50.0
927.95386,63.0
928.325,103.0
928.69635,51.0
929.0678,68.0
929.43945,102.0
929.8112,53.0
930.18317,96.0
930.55524,81.0
930.9274,47.0
931.2998,85.0
931.6723,47.0
932.045,72.0
932.4178,88.0
932.7908,46.0
933.1639,92.0
933.5372,102.0
933.9106,44.0
934.2841,111.0
934.65784,51.0
935.0317,62.0
935.4057,96.0
935.77985,60.0
936.1542,90.0
936.5286,59.0
936.90326,56.0
937.278,122.0
937.65295,42.0
938.028,57.0
938.4032,102.0
938.77856,52.0
939.15405,85.0
939.5297,73.0
939.9055,64.0
940.2815,87.0
940.6576,46.0
941.0339,57.0
941.4103,89.0
941.78687,39.0
942.1636,81.0
942.54047,65.0
942.9175,65.0
943.2947,82.0
943.672,51.0
944.04944,75.0
944.42706,93.0
944.8048,42.0
945.18274,90.0
945.5608,74.0
945.939,65.0
946.3174,110.0
946.6959,52.0
947.0746,68.0
947.4534,71.0
947.8324,57.0
948.21155,117.0
948.5908,60.0
948.9703,53.0
949.34985,99.0
949.7296,45.0
950.1095,72.0
950.48956,66.0
950.86975,41.0
951.2501,102.0
951.6306,61.0
952.0113,59.0
952.3921,88.0
952.7731,43.0
953.1542,76.0
953.53546,67.0
953.9169,60.0
954.29846,106.0
954.6802,52.0
955.0621,64.0
955.4441,105.0
955.8263,44.0
956.2086,109.0
956.5911,65.0
956.97375,59.0
957.35657,87.0
957.7395,40.0
958.1226,56.0
958.50586,81.0
958.8893,54.0
959.2728,89.0
959.65656,40.0
960.0404,47.0
960.42444,98.0
960.8086,40.0
961.19293,116.0
961.5774,68.0
961.96204,71.0
962.3468,96.0
962.73175,38.0
963.1168,80.0
963.5021,68.0
963.88745,67.0
964.273,95.0
964.6587,42.0
965.04456,74.0
965.4306,98.0
965.8168,47.0
966.2031,86.0
966.5896,49.0
966.97626,72.0
967.36304,83.0
967.75,51.0
968.1371,90.0
968.52435,81.0
968.91174,68.0
969.2993,113.0
969.687,42.0
970.0749,157.0
970.4629,97.0
970.8511,81.0
971.23944,92.0
971.6279,49.0
972.0166,73.0
972.4054,96.0
972.7944,51.0
973.1835,96.0
973.57275,78.0
973.96216,39.0
974.35175,104.0
974.7415,43.0
975.1314,82.0
975.5215,72.0
975.9117,52.0
976.30206,72.0
976.69257,38.0
977.08325,71.0
977.47406,110.0
977.86505,54.0
978.2562,81.0
978.6475,54.0
979.039,68.0
979.4306,94.0
979.8224,56.0
980.2143,90.0
980.6064,47.0
980.99866,64.0
981.39105,69.0
981.7836,59.0
982.17633,94.0
982.5692,65.0
982.9622,54.0
983.3554,110.0
983.7488,73.0
984.1423,95.0
984.53595,66.0
984.92975,71.0
985.3237,109.0
985.71783,73.0
986.1121,90.0
986.5066,80.0
986.9012,58.0
987.29596,109.0
987.69086,56.0
988.08594,88.0
988.4812,73.0
988.8766,58.0
989.27216,70.0
989.66785,53.0
990.0637,86.0
990.4597,81.0
990.8559,66.0
991.25226,99.0
991.64874,65.0
992.0454,122.0
992.4422,93.0
992.8392,83.0
993.2363,85.0
993.6336,50.0
994.03107,102.0
994.42865,76.0
994.8264,75.0
995.22437,121.0
995.62244,53.0
996.0207,91.0
996.4191,92.0
996.8177,53.0
997.21643,79.0
997.6153,50.0
998.01434,65.0
998.4136,87.0
998.8129,51.0
999.21246,84.0
999.6121,57.0
1000.01196,52.0
1000.412,96.0
1000.81213,44.0
1001.21246,103.0
1001.613,79.0
1002.0136,65.0
1002.4144,83.0
1002.81537,42.0
1003.2165,81.0
1003.6178,56.0
1004.0192,77.0
1004.42084,84.0
1004.82263,42.0
1005.22455,121.0
1005.62665,69.0
1006.0289,143.0
1006.4313,113.0
1006.83386,78.0
1007.2366,108.0
1007.63947,83.0
1008.04254,160.0
1008.44574,91.0
1008.8491,84.0
1009.2527,112.0
1009.6564,53.0
1010.06024,103.0
1010.4643,75.0
1010.86847,66.0
1011.2728,96.0
1011.6773,69.0
1012.082,110.0
1012.4868,80.0
1012.8918,71.0
1013.29694,98.0
1013.7023,73.0
1014.1077,270.0
1014.51337,85.0
1014.9192,165.0
1015.32513,98.0
1015.73126,81.0
1016.1376,115.0
1016.544,79.0
1016.9506,73.0
1017.3574,109.0
1017.76434,51.0
1018.17145,85.0
1018.57874,71.0
1018.98615,73.0
1019.39374,103.0
1019.8015,44.0
1020.2094,78.0
1020.6175,53.0
1021.02576,72.0
1021.43414,136.0
1021.8427,59.0
1022.25146,105.0
1022.66034,78.0
1023.0694,80.0
1023.47864,109.0
1023.888,58.0
1024.2976,74.0
1024.7073,41.0
1025.1172,78.0
1025.5272,72.0
1025.9374,70.0
1026.3478,94.0
1026.7583,59.0
1027.169,83.0
1027.5798,74.0
1027.9908,145.0
1028.4021,96.0
1028.8135,105.0
1029.225,107.0
1029.6367,90.0
1030.0486,336.0
1030.4606,99.0
1030.8728,187.0
1031.2852,99.0
1031.6976,70.0
1032.1104,110.0
1032.5232,82.0
1032.9362,78.0
1033.3494,87.0
1033.7627,82.0
1034.1761,110.0
1034.5898,61.0
1035.0037,89.0
1035.4177,80.0
1035.8319,129.0
1036.2462,84.0
1036.6608,65.0
1037.0754,89.0
1037.4902,76.0
1037.9053,91.0
1038.3204,99.0
1038.7357,65.0
1039.1512,69.0
1039.5669,79.0
1039.9827,61.0
1040.3987,96.0
1040.8148,30.0
1041.2312,102.0
1041.6477,86.0
1042.0643,71.0
1042.4812,89.0
1042.8982,42.0
1043.3153,88.0
1043.7327,86.0
1044.1501,94.0
1044.5677,76.0
1044.9856,74.0
1045.4036,82.0
1045.8218,109.0
1046.2401,89.0
1046.6586,59.0
1047.0773,70.0
1047.4961,111.0
1047.915,77.0
1048.3342,106.0
1048.7535,57.0
1049.1731,85.0
1049.5928,99.0
1050.0126,346.0
1050.4326,112.0
1050.8528,238.0
1051.2731,104.0
1051.6936,117.0
1052.1143,202.0
1052.5352,73.0
1052.9562,114.0
1053.3773,106.0
1053.7987,118.0
1054.2202,84.0
1054.6418,55.0
1055.0637,81.0
1055.4857,100.0
1055.908,87.0
1056.3303,103.0
1056.7528,78.0
1057.1755,103.0
1057.5984,97.0
1058.0215,72.0
1058.4447,108.0
1058.868,71.0
1059.2916,103.0
1059.7153,66.0
1060.1392,110.0
1060.5632,134.0
1060.9874,88.0
1061.4119,97.0
1061.8364,60.0
1062.2611,114.0
1062.686,53.0
1063.1111,83.0
1063.5364,83.0
1063.9618,68.0
1064.3873,94.0
1064.8131,42.0
1065.239,95.0
1065.6652,167.0
1066.0914,284.0
1066.5178,94.0
1066.9445,231.0
1067.3712,119.0
1067.7982,144.0
1068.2253,86.0
1068.6526,67.0
1069.0801,110.0
1069.5077,94.0
1069.9355,87.0
1070.3635,103.0
1070.7916,63.0
1071.22,83.0
1071.6484,88.0
1072.0771,197.0
1072.506,93.0
1072.9349,138.0
1073.3641,102.0
1073.7935,85.0
1074.223,105.0
1074.6527,73.0
1075.0825,76.0
1075.5126,76.0
1075.9427,86.0
1076.3732,102.0
1076.8037,53.0
1077.2344,72.0
1077.6653,78.0
1078.0963,128.0
1078.5276,79.0
1078.959,86.0
1079.3906,96.0
1079.8224,95.0
1080.2543,88.0
1080.6864,64.0
1081.1187,80.0
1081.5511,80.0
1081.9838,105.0
1082.4165,99.0
1082.8495,69.0
1083.2826,90.0
1083.716,72.0
1084.1494,73.0
1084.5831,77.0
1085.017,65.0
1085.4509,87.0
1085.8851,79.0
1086.3195,77.0
1086.754,54.0
1087.1887,81.0
1087.6235,82.0
1088.0586,107.0
1088.4938,94.0
1088.9292,83.0
1089.3647,88.0
1089.8005,70.0
1090.2365,99.0
1090.6725,60.0
1091.1088,80.0
1091.5452,97.0
1091.9818,77.0
1092.4186,93.0
1092.8556,70.0
1093.2927,104.0
1093.7301,72.0
1094.1676,99.0
1094.6052,71.0
1095.0431,67.0
1095.4811,101.0
1095.9193,76.0
1096.3577,88.0
1096.7963,61.0
1097.235,69.0
1097.6738,75.0
1098.1129,76.0
1098.5521,83.0
1098.9916,63.0
1099.4312,82.0
1099.871,75.0
1100.3109,93.0
1100.751,69.0
1101.1913,82.0
1101.6317,77.0
1102.0724,59.0
1102.5132,84.0
1102.9542,58.0
1103.3954,90.0
1103.8368,59.0
1104.2783,75.0
1104.72,55.0
1105.1619,73.0
1105.6039,64.0
1106.0461,70.0
1106.4885,100.0
1106.9312,53.0
1107.3739,83.0
1107.8169,64.0
1108.26,113.0
1108.7034,50.0
1109.1469,64.0
1109.5905,83.0
1110.0343,66.0
1110.4783,70.0
1110.9225,52.0
1111.3668,89.0
1111.8114,53.0
1112.2561,92.0
1112.701,59.0
1113.1461,66.0
1113.5914,87.0
1114.0369,80.0
1114.4824,82.0
1114.9282,52.0
1115.3741,75.0
1115.8203,58.0
1116.2666,84.0
1116.7131,68.0
1117.1598,81.0
1117.6067,72.0
1118.0537,71.0
1118.501,89.0
1118.9484,59.0
1119.396,86.0
1119.8438,54.0
1120.2917,90.0
1120.7399,62.0
1121.1881,74.0
1121.6366,61.0
1122.0852,76.0
1122.534,114.0
1122.983,56.0
1123.4323,69.0
1123.8816,49.0
1124.3312,88.0
1124.7809,51.0
1125.2308,72.0
1125.6809,60.0
1126.1312,67.0
1126.5817,71.0
1127.0323,53.0
1127.4832,73.0
1127.9342,46.0
1128.3854,92.0
1128.8367,45.0
1129.2882,73.0
1129.7399,46.0
1130.1918,66.0
1130.6438,70.0
1131.0961,76.0
1131.5485,80.0
1132.0011,67.0
1132.4539,77.0
1132.9069,64.0
1133.36,87.0
1133.8134,58.0
1134.2668,88.0
1134.7206,68.0
1135.1744,78.0
1135.6285,71.0
1136.0828,69.0
1136.5372,85.0
1136.9918,70.0
1137.4467,95.0
1137.9016,60.0
1138.3568,81.0
1138.8121,63.0
1139.2677,82.0
1139.7234,57.0
1140.1793,64.0
1140.6354,66.0
1141.0917,49.0
1141.5481,96.0
1142.0048,55.0
1142.4615,93.0
1142.9186,68.0
1143.3757,83.0
1143.8331,53.0
1144.2906,75.0
1144.7484,52.0
1145.2063,87.0
1145.6644,55.0
1146.1227,65.0
1146.5812,77.0
1147.0398,54.0
1147.4987,84.0
1147.9576,53.0
1148.4169,95.0
1148.8762,59.0
1149.3358,82.0
1149.7955,60.0
1150.2555,74.0
1150.7156,63.0
1151.1759,67.0
1151.6364,78.0
1152.097,74.0
1152.5579,73.0
1153.0189,66.0
1153.4801,75.0
1153.9415,68.0
1154.4031,89.0
1154.8649,60.0
1155.3268,84.0
1155.789,52.0
1156.2512,92.0
1156.7137,55.0
1157.1764,72.0
1157.6393,76.0
1158.1023,66.0
1158.5656,70.0
1159.0289,70.0
1159.4926,82.0
1159.9563,51.0
1160.4203,98.0
1160.8844,48.0
1161.3488,90.0
1161.8134,38.0
1162.2781,58.0
1162.743,56.0
1163.2081,78.0
1163.6735,60.0
1164.1389,72.0
1164.6046,64.0
1165.0704,55.0
1165.5365,92.0
1166.0027,59.0
1166.4691,97.0
1166.9357,48.0
1167.4025,97.0
1167.8694,44.0
1168.3365,100.0
1168.8038,48.0
1169.2714,85.0
1169.739,53.0
1170.2069,70.0
1170.675,78.0
1171.1433,76.0
1171.6118,77.0
1172.0804,48.0
1172.5493,64.0
1173.0183,73.0
1173.4875,89.0
1173.9569,58.0
1174.4265,100.0
1174.8962,66.0
1175.3662,86.0
1175.8363,63.0
1176.3066,75.0
1176.7772,56.0
1177.2479,95.0
1177.7189,64.0
1178.19,76.0
1178.6613,69.0
1179.1327,62.0
1179.6044,78.0
1180.0762,52.0
1180.5482,94.0
1181.0204,87.0
1181.4928,91.0
1181.9655,70.0
1182.4382,90.0
1182.9113,67.0
1183.3844,71.0
1183.8578,71.0
1184.3313,81.0
1184.805,70.0
1185.2789,94.0
1185.753,60.0
1186.2273,77.0
1186.7018,71.0
1187.1765,58.0
1187.6514,76.0
1188.1265,63.0
1188.6017,90.0
1189.0771,62.0
1189.5527,82.0
1190.0286,64.0
1190.5045,91.0
1190.9807,67.0
1191.4572,81.0
1191.9337,59.0
1192.4105,103.0
1192.8875,67.0
1193.3646,102.0
1193.8419,56.0
1194.3195,77.0
1194.7972,69.0
1195.2751,92.0
1195.7533,65.0
1196.2316,81.0
1196.7101,79.0
1197.1887,88.0
1197.6676,80.0
1198.1467,85.0
1198.626,75.0
1199.1055,57.0
1199.5851,90.0
1200.065,63.0
1200.5449,86.0
1201.0251,68.0
1201.5056,88.0
1201.9862,65.0
1202.467,90.0
1202.948,69.0
1203.4292,88.0
1203.9105,59.0
1204.3921,90.0
1204.8739,80.0
1205.3558,70.0
1205.838,52.0
1206.3203,80.0
1206.8029,56.0
1207.2855,100.0
1207.7684,71.0
1208.2516,75.0
1208.7349,60.0
1209.2184,82.0
1209.702,51.0
1210.1859,84.0
1210.67,84.0
1211.1543,70.0
1211.6388,91.0
1212.1234,67.0
1212.6083,86.0
1213.0933,70.0
1213.5785,69.0
1214.064,42.0
1214.5496,95.0
1215.0354,53.0
1215.5214,81.0
1216.0076,64.0
1216.494,78.0
1216.9806,62.0
1217.4674,73.0
1217.9543,64.0
1218.4415,90.0
1218.929,107.0
1219.4165,93.0
1219.9043,84.0
1220.3922,76.0
1220.8804,64.0
1221.3688,85.0
1221.8573,58.0
1222.3461,101.0
1222.835,74.0
1223.3241,95.0
1223.8135,69.0
1224.303,81.0
1224.7927,62.0
1225.2826,79.0
1225.7727,80.0
1226.2631,85.0
1226.7535,82.0
1227.2443,81.0
1227.7351,59.0
1228.2262,79.0
1228.7175,84.0
1229.209,85.0
1229.7007,72.0
1230.1925,62.0
1230.6846,82.0
1231.1769,68.0
1231.6693,60.0
1232.162,66.0
1232.6549,72.0
1233.148,79.0
1233.6412,79.0
1234.1346,62.0
1234.6283,81.0
1235.1222,93.0
1235.6162,76.0
1236.1105,63.0
1236.6049,73.0
1237.0995,83.0
1237.5944,61.0
1238.0894,68.0
1238.5846,80.0
1239.0801,78.0
1239.5757,75.0
1240.0715,81.0
1240.5675,108.0
1241.0637,97.0
1241.5602,77.0
1242.0568,108.0
1242.5536,84.0
1243.0507,70.0
1243.5479,100.0
1244.0453,88.0
1244.5428,104.0
1245.0406,83.0
1245.5387,86.0
1246.0369,81.0
1246.5353,98.0
1247.0339,84.0
1247.5327,101.0
1248.0317,73.0
1248.531,86.0
1249.0304,86.0
1249.53,91.0
1250.0298,70.0
1250.5298,82.0
1251.03,62.0
1251.5304,94.0
1252.031,63.0
1252.5319,74.0
1253.0328,57.0
1253.534,68.0
1254.0355,59.0
1254.5371,72.0
1255.039,100.0
1255.541,74.0
1256.0432,113.0
1256.5457,87.0
1257.0482,80.0
1257.551,66.0
1258.0541,69.0
1258.5573,84.0
1259.0607,70.0
1259.5643,69.0
1260.0681,59.0
1260.5721,88.0
1261.0764,119.0
1261.5808,93.0
1262.0854,110.0
1262.5903,76.0
1263.0953,118.0
1263.6006,99.0
1264.1061,91.0
1264.6117,99.0
1265.1176,86.0
1265.6237,77.0
1266.1299,78.0
1266.6364,88.0
1267.1431,90.0
1267.6499,89.0
1268.157,66.0
1268.6642,93.0
1269.1716,72.0
1269.6793,82.0
1270.1871,78.0
1270.6952,88.0
1271.2035,61.0
1271.7119,86.0
1272.2206,85.0
1272.7295,62.0
1273.2385,57.0
1273.7478,68.0
1274.2573,67.0
1274.767,57.0
1275.2769,64.0
1275.787,59.0
1276.2972,82.0
1276.8077,151.0
1277.3185,103.0
1277.8295,117.0
1278.3406,84.0
1278.8519,105.0
1279.3635,78.0
1279.8752,74.0
1280.3872,99.0
1280.8994,70.0
1281.4117,70.0
1281.9243,67.0
1282.4371,77.0
1282.9501,120.0
1283.4633,102.0
1283.9767,92.0
1284.4902,87.0
1285.004,111.0
1285.5181,86.0
1286.0322,66.0
1286.5466,83.0
1287.0613,62.0
1287.576,98.0
1288.0911,50.0
1288.6063,134.0
1289.1218,87.0
1289.6375,101.0
1290.1533,91.0
1290.6694,83.0
1291.1857,79.0
1291.7021,77.0
1292.2189,79.0
1292.7357,108.0
1293.2528,89.0
1293.7701,98.0
1294.2876,69.0
1294.8053,67.0
1295.3232,77.0
1295.8414,66.0
1296.3597,66.0
1296.8783,69.0
1297.3971,79.0
1297.916,47.0
1298.4352,67.0
1298.9546,69.0
1299.4741,86.0
1299.9939,61.0
1300.5139,86.0
1301.0342,88.0
1301.5546,95.0
1302.0752,65.0
1302.5961,87.0
1303.1171,72.0
1303.6383,99.0
1304.1598,80.0
1304.6814,98.0
1305.2032,70.0
1305.7253,74.0
1306.2477,76.0
1306.7701,73.0
1307.2928,84.0
1307.8158,82.0
1308.3389,77.0
1308.8622,63.0
1309.3857,70.0
1309.9095,57.0
1310.4335,67.0
1310.9576,66.0
1311.482,106.0
1312.0066,65.0
1312.5314,85.0
1313.0564,71.0
1313.5817,100.0
1314.107,68.0
1314.6327,76.0
1315.1586,76.0
1315.6847,72.0
1316.2109,81.0
1316.7374,75.0
1317.2642,68.0
1317.791,80.0
1318.3181,74.0
1318.8455,50.0
1319.373,72.0
1319.9008,57.0
1320.4287,73.0
1320.9569,48.0
1321.4854,85.0
1322.0139,61.0
1322.5427,75.0
1323.0718,56.0
1323.601,80.0
1324.1304,61.0
1324.66,85.0
1325.19,61.0
1325.72,80.0
1326.2502,76.0
1326.7808,74.0
1327.3115,68.0
1327.8424,57.0
1328.3735,81.0
1328.9049,51.0
1329.4365,83.0
1329.9683,54.0
1330.5002,77.0
1331.0325,67.0
1331.565,122.0
1332.0975,62.0
1332.6304,83.0
1333.1635,69.0
1333.6968,78.0
1334.2302,67.0
1334.7639,80.0
1335.2979,62.0
1335.832,55.0
1336.3663,80.0
1336.9009,78.0
1337.4357,90.0
1337.9707,52.0
1338.5059,86.0
1339.0413,55.0
1339.5769,86.0
1340.1128,54.0
1340.6488,85.0
1341.185,60.0
1341.7216,79.0
1342.2583,75.0
1342.7952,79.0
1343.3323,82.0
1343.8696,62.0
1344.4072,81.0
1344.945,62.0
1345.4829,80.0
1346.0211,53.0
1346.5596,80.0
1347.0981,46.0
1347.637,86.0
1348.176,59.0
1348.7153,77.0
1349.2548,66.0
1349.7944,73.0
1350.3344,68.0
1350.8745,54.0
1351.4149,79.0
1351.9554,47.0
1352.4962,59.0
1353.0372,50.0
1353.5785,65.0
1354.1199,62.0
1354.6615,68.0
1355.2034,54.0
1355.7455,89.0
1356.2878,60.0
1356.8303,58.0
1357.373,71.0
1357.916,59.0
1358.4592,70.0
1359.0026,50.0
1359.5461,81.0
1360.09,54.0
1360.634,64.0
1361.1783,63.0
1361.7228,69.0
1362.2675,69.0
1362.8124,72.0
1363.3575,72.0
1363.9028,57.0
1364.4484,78.0
1364.9941,73.0
1365.5402,98.0
1366.0864,71.0
1366.6328,87.0
1367.1794,62.0
1367.7263,78.0
1368.2734,79.0
1368.8208,76.0
1369.3683,83.0
1369.916,68.0
1370.464,97.0
1371.0122,55.0
1371.5607,86.0
1372.1093,74.0
1372.6581,74.0
1373.2072,61.0
1373.7565,68.0
1374.306,87.0
1374.8557,73.0
1375.4056,131.0
1375.9558,59.0
1376.5062,119.0
1377.0569,68.0
1377.6077,94.0
1378.1587,78.0
1378.71,91.0
1379.2615,82.0
1379.8132,84.0
1380.3651,92.0
1380.9172,61.0
1381.4696,86.0
1382.0222,65.0
1382.5751,74.0
1383.128,83.0
1383.6813,122.0
1384.2347,76.0
1384.7885,102.0
1385.3424,79.0
1385.8965,75.0
1386.4508,90.0
1387.0054,60.0
1387.5602,82.0
1388.1152,73.0
1388.6705,82.0
1389.226,66.0
1389.7816,83.0
1390.3375,65.0
1390.8937,65.0
1391.4501,105.0
1392.0067,69.0
1392.5635,77.0
1393.1205,75.0
1393.6777,82.0
1394.2352,62.0
1394.793,58.0
1395.3508,85.0
1395.9089,79.0
1396.4673,87.0
1397.0259,70.0
1397.5847,92.0
1398.1438,67.0
1398.703,111.0
1399.2625,78.0
1399.8221,82.0
1400.3821,82.0
1400.9423,76.0
1401.5027,89.0
1402.0632,42.0
1402.624,69.0
1403.185,79.0
1403.7463,86.0
1404.3079,80.0
1404.8696,81.0
1405.4315,109.0
1405.9937,62.0
1406.556,86.0
1407.1187,74.0
1407.6815,95.0
1408.2446,96.0
1408.808,74.0
1409.3715,73.0
1409.9352,80.0
1410.4991,91.0
1411.0634,76.0
1411.6278,92.0
1412.1925,82.0
1412.7573,89.0
1413.3224,74.0
1413.8877,85.0
1414.4532,106.0
1415.019,72.0
1415.5851,99.0
1416.1514,71.0
1416.7178,91.0
1417.2844,69.0
1417.8513,80.0
1418.4185,85.0
1418.9858,66.0
1419.5535,105.0
1420.1213,71.0
1420.6893,109.0
1421.2576,85.0
1421.826,81.0
1422.3948,96.0
1422.9637,77.0
1423.533,91.0
1424.1024,81.0
1424.672,105.0
1425.2418,88.0
1425.8119,80.0
1426.3822,81.0
1426.9528,80.0
1427.5236,87.0
1428.0946,78.0
1428.6659,88.0
1429.2373,97.0
1429.809,88.0
1430.3809,100.0
1430.953,73.0
1431.5254,111.0
1432.098,98.0
1432.6709,109.0
1433.244,89.0
1433.8173,110.0
1434.3907,116.0
1434.9645,77.0
1435.5385,100.0
1436.1127,104.0
1436.6871,111.0
1437.2618,115.0
1437.8368,107.0
1438.412,104.0
1438.9873,81.0
1439.5629,95.0
1440.1387,93.0
1440.7147,75.0
1441.291,87.0
1441.8676,77.0
1442.4443,101.0
1443.0214,76.0
1443.5985,112.0
1444.1759,86.0
1444.7535,93.0
1445.3314,93.0
1445.9095,71.0
1446.4879,93.0
1447.0665,82.0
1447.6454,94.0
1448.2245,88.0
1448.8038,91.0
1449.3833,96.0
1449.963,93.0
1450.543,108.0
1451.1232,78.0
1451.7036,116.0
1452.2843,83.0
1452.8652,76.0
1453.4464,87.0
1454.0278,80.0
1454.6095,93.0
1455.1913,92.0
1455.7733,103.0
1456.3556,79.0
1456.9381,83.0
1457.5209,94.0
1458.1039,75.0
1458.6871,90.0
1459.2706,89.0
1459.8544,79.0
1460.4384,87.0
1461.0226,69.0
1461.6069,103.0
1462.1915,83.0
1462.7764,96.0
1463.3615,90.0
1463.9468,89.0
1464.5323,96.0
1465.1182,77.0
1465.7042,99.0
1466.2905,95.0
1466.8771,84.0
1467.4639,79.0
1468.0509,63.0
1468.6382,103.0
1469.2256,61.0
1469.8132,89.0
1470.4011,93.0
1470.9893,62.0
1471.5776,89.0
1472.1663,67.0
1472.7551,97.0
1473.3442,96.0
1473.9336,79.0
1474.5232,113.0
1475.113,83.0
1475.7031,111.0
1476.2935,92.0
1476.884,88.0
1477.4747,91.0
1478.0657,91.0
1478.6569,79.0
1479.2483,74.0
1479.84,95.0
1480.4319,101.0
1481.024,86.0
1481.6165,117.0
1482.2091,63.0
1482.802,92.0
1483.3951,73.0
1483.9885,70.0
1484.5822,84.0
1485.176,76.0
1485.7701,83.0
1486.3645,95.0
1486.9591,70.0
1487.5538,92.0
1488.1488,86.0
1488.744,95.0
1489.3395,80.0
1489.9352,84.0
1490.5311,98.0
1491.1273,64.0
1491.7238,94.0
1492.3204,86.0
1492.9174,59.0
1493.5145,81.0
1494.1119,68.0
1494.7096,91.0
1495.3075,60.0
1495.9056,69.0
1496.504,93.0
1497.1027,63.0
1497.7015,95.0
1498.3007,91.0
1498.9,89.0
1499.4996,91.0
1500.0995,74.0
1500.6996,66.0
1501.2998,63.0
1501.9003,72.0
1502.501,82.0
1503.1019,54.0
1503.7031,90.0
1504.3046,85.0
1504.9062,60.0
1505.5082,93.0
1506.1104,70.0
1506.7128,88.0
1507.3154,81.0
1507.9183,86.0
1508.5215,102.0
1509.1249,70.0
1509.7285,95.0
1510.3324,72.0
1510.9365,78.0
1511.5409,80.0
1512.1455,69.0
1512.7504,114.0
1513.3555,96.0
1513.9608,75.0
1514.5664,94.0
1515.1722,69.0
1515.7783,90.0
1516.3846,74.0
1516.9912,75.0
1517.598,70.0
1518.2051,66.0
1518.8124,72.0
1519.4199,82.0
1520.0277,78.0
1520.6357,82.0
1521.244,66.0
1521.8525,88.0
1522.4613,78.0
1523.0703,66.0
1523.6796,82.0
1524.2891,70.0
1524.8988,67.0
1525.5088,85.0
1526.119,66.0
1526.7295,93.0
1527.3402,75.0
1527.9512,81.0
1528.5624,83.0
1529.1738,55.0
1529.7855,97.0
1530.3975,62.0
1531.0096,69.0
1531.6221,86.0
1532.2347,60.0
1532.8477,90.0
1533.4608,89.0
1534.0742,57.0
1534.6879,84.0
1535.3018,72.0
1535.9159,72.0
1536.5303,81.0
1537.1449,61.0
1537.7598,74.0
1538.3749,58.0
1538.9902,73.0
1539.6058,92.0
1540.2217,62.0
1540.8378,76.0
1541.4541,78.0
1542.0707,60.0
1542.6875,90.0
1543.3046,65.0
1543.9219,73.0
1544.5394,102.0
1545.1572,72.0
1545.7753,68.0
1546.3936,71.0
1547.0121,68.0
1547.6309,67.0
1548.2499,66.0
1548.8691,51.0
1549.4886,101.0
1550.1084,63.0
1550.7284,94.0
1551.3486,89.0
1551.9691,86.0
1552.5898,90.0
1553.2109,84.0
1553.8323,88.0
1554.4539,73.0
1555.0757,61.0
1555.6978,72.0
1556.3201,71.0
1556.9426,71.0
1557.5654,84.0
1558.1885,59.0
1558.8118,103.0
1559.4353,92.0
1560.0591,74.0
1560.6831,89.0
1561.3074,63.0
1561.9319,72.0
1562.5566,76.0
1563.1816,63.0
1563.8069,87.0
1564.4324,66.0
1565.0581,75.0
1565.6841,83.0
1566.3103,76.0
1566.9368,51.0
1567.5636,78.0
1568.1907,77.0
1568.818,85.0
1569.4456,74.0
1570.0734,66.0
1570.7014,82.0
1571.3297,68.0
1571.9583,69.0
1572.587,78.0
1573.2161,68.0
1573.8453,67.0
1574.4749,84.0
1575.1046,66.0
1575.7346,106.0
1576.3649,68.0
1576.9954,66.0
1577.6261,76.0
1578.2572,61.0
1578.8885,59.0
1579.5201,89.0
1580.152,66.0
1580.784,69.0
1581.4164,66.0
1582.049,77.0
1582.6818,85.0
1583.3148,75.0
1583.9481,60.0
1584.5817,80.0
1585.2155,62.0
1585.8495,76.0
1586.4839,92.0
1587.1185,65.0
1587.7534,91.0
1588.3885,87.0
1589.0239,64.0
1589.6595,96.0
1590.2954,63.0
1590.9315,58.0
1591.5679,77.0
1592.2045,71.0
1592.8413,77.0
1593.4784,83.0
1594.1158,60.0
1594.7535,78.0
1595.3915,68.0
1596.0297,72.0
1596.6681,99.0
1597.3068,98.0
1597.9457,78.0
1598.5848,74.0
1599.2242,65.0
1599.8639,61.0
1600.5038,87.0
1601.144,66.0
1601.7845,80.0
1602.4253,89.0
1603.0663,82.0
1603.7075,77.0
1604.349,79.0
1604.9907,83.0
1605.6327,73.0
1606.2749,67.0
1606.9174,88.0
1607.5602,92.0
1608.2032,60.0
1608.8466,89.0
1609.4901,76.0
1610.1339,73.0
1610.778,75.0
1611.4222,85.0
1612.0668,65.0
1612.7115,88.0
1613.3567,82.0
1614.0021,68.0
1614.6477,80.0
1615.2936,64.0
1615.9397,73.0
1616.586,81.0
1617.2327,79.0
1617.8795,81.0
1618.5266,109.0
1619.1741,59.0
1619.8218,84.0
1620.4697,94.0
1621.1179,65.0
1621.7664,111.0
1622.415,79.0
1623.064,70.0
1623.7131,97.0
1624.3627,73.0
1625.0125,100.0
1625.6625,90.0
1626.3127,90.0
1626.9633,75.0
1627.614,96.0
1628.265,68.0
1628.9163,85.0
1629.5679,97.0
1630.2197,73.0
1630.8718,93.0
1631.5242,78.0
1632.1768,80.0
1632.8296,84.0
1633.4827,86.0
1634.1361,71.0
1634.7898,89.0
1635.4437,72.0
1636.0979,50.0
1636.7523,81.0
1637.407,82.0
1638.0619,70.0
1638.7172,78.0
1639.3727,103.0
1640.0284,86.0
1640.6844,94.0
1641.3407,76.0
1641.9972,66.0
1642.6539,88.0
1643.311,80.0
1643.9684,82.0
1644.626,93.0
1645.2838,95.0
1645.9419,80.0
1646.6002,123.0
1647.2589,82.0
1647.9178,86.0
1648.577,88.0
1649.2365,73.0
1649.8961,81.0
1650.556,76.0
1651.2163,71.0
1651.8768,84.0
1652.5376,97.0
1653.1986,68.0
1653.8599,78.0
1654.5214,68.0
1655.1832,67.0
1655.8453,87.0
1656.5077,84.0
1657.1703,59.0
1657.8331,90.0
1658.4962,92.0
1659.1597,56.0
1659.8234,80.0
1660.4873,76.0
1661.1515,61.0
1661.8159,78.0
1662.4806,94.0
1663.1456,76.0
1663.8109,99.0
1664.4764,94.0
1665.1422,73.0
1665.8082,83.0
1666.4746,65.0
1667.1412,60.0
1667.8081,90.0
1668.4752,89.0
1669.1426,75.0
1669.8102,87.0
1670.4781,97.0
1671.1464,80.0
1671.8148,64.0
1672.4835,87.0
1673.1525,67.0
1673.8218,89.0
1674.4913,83.0
1675.1611,63.0
1675.8312,74.0
1676.5015,95.0
1677.1721,62.0
1677.843,81.0
1678.5142,76.0
1679.1855,65.0
1679.8572,55.0
1680.5292,75.0
1681.2014,56.0
1681.8739,68.0
1682.5466,83.0
1683.2196,62.0
1683.893,76.0
1684.5665,87.0
1685.2404,65.0
1685.9144,78.0
1686.5887,92.0
1687.2634,64.0
1687.9384,71.0
1688.6135,84.0
1689.289,75.0
1689.9646,70.0
1690.6406,81.0
1691.3169,71.0
1691.9934,52.0
1692.6702,72.0
1693.3473,67.0
1694.0247,61.0
1694.7023,62.0
1695.3801,81.0
1696.0582,56.0
1696.7367,84.0
1697.4154,81.0
1698.0944,53.0
1698.7736,66.0
1699.4531,82.0
1700.1329,68.0
1700.813,87.0
1701.4933,91.0
1702.1738,87.0
1702.8547,105.0
1703.5359,89.0
1704.2173,67.0
1704.8989,82.0
1705.5809,90.0
1706.2632,57.0
1706.9457,78.0
1707.6284,78.0
1708.3115,60.0
1708.9949,70.0
1709.6785,72.0
1710.3623,69.0
1711.0465,64.0
1711.731,76.0
1712.4156,51.0
1713.1006,64.0
1713.7858,85.0
1714.4713,83.0
1715.1571,79.0
1715.8431,81.0
1716.5294,75.0
1717.2161,60.0
1717.903,86.0
1718.5901,80.0
1719.2775,53.0
1719.9652,66.0
1720.6532,81.0
1721.3414,68.0
1722.0299,57.0
1722.7188,84.0
1723.4078,71.0
1724.0972,52.0
1724.7869,82.0
1725.4768,72.0
1726.167,64.0
1726.8574,82.0
1727.5482,77.0
1728.2393,73.0
1728.9305,76.0
1729.6221,82.0
1730.314,63.0
1731.0061,54.0
1731.6985,79.0
1732.3911,67.0
1733.0841,64.0
1733.7773,73.0
1734.4708,66.0
1735.1647,49.0
1735.8588,66.0
1736.5531,70.0
1737.2477,49.0
1737.9426,62.0
1738.6378,71.0
1739.3333,61.0
1740.0289,55.0
1740.725,82.0
1741.4213,91.0
1742.1178,58.0
1742.8147,78.0
1743.5118,60.0
1744.2092,43.0
1744.9069,67.0
1745.6049,70.0
1746.3031,68.0
1747.0016,50.0
1747.7004,86.0
1748.3995,72.0
1749.0989,53.0
1749.7985,85.0
1750.4984,72.0
1751.1986,45.0
1751.899,63.0
1752.5999,55.0
1753.3009,53.0
1754.0022,50.0
1754.7039,57.0
1755.4058,72.0
1756.1079,60.0
1756.8103,49.0
1757.5131,88.0
1758.2161,49.0
1758.9193,67.0
1759.6229,86.0
1760.3268,62.0
1761.0309,64.0
1761.7354,67.0
1762.4401,70.0
1763.145,44.0
1763.8502,75.0
1764.5558,63.0
1765.2616,76.0
1765.9677,66.0
1766.6741,75.0
1767.3807,72.0
1768.0876,54.0
1768.7949,49.0
1769.5024,70.0
1770.2102,35.0
1770.9183,66.0
1771.6267,91.0
1772.3353,65.0
1773.0443,50.0
1773.7535,78.0
1774.463,61.0
1775.1729,51.0
1775.8829,76.0
1776.5933,56.0
1777.304,56.0
1778.0149,59.0
1778.7261,55.0
1779.4376,72.0
1780.1494,56.0
1780.8615,62.0
1781.5739,79.0
1782.2865,60.0
1782.9994,64.0
1783.7126,62.0
1784.4261,77.0
1785.1399,60.0
1785.854,67.0
1786.5684,60.0
1787.283,70.0
1787.9979,74.0
1788.7131,68.0
1789.4286,67.0
1790.1444,66.0
1790.8605,55.0
1791.5768,73.0
1792.2935,68.0
1793.0104,62.0
1793.7275,73.0
1794.4451,73.0
1795.1628,60.0
1795.8809,38.0
1796.5992,69.0
1797.3179,67.0
1798.0367,71.0
1798.756,67.0
1799.4755,78.0
1800.1953,56.0
1800.9154,70.0
1801.6357,62.0
1802.3564,57.0
1803.0774,49.0
1803.7986,65.0
1804.5201,77.0
1805.242,71.0
1805.964,80.0
1806.6864,107.0
1807.409,77.0
1808.1321,51.0
1808.8553,73.0
1809.5789,84.0
1810.3027,64.0
1811.0269,87.0
1811.7512,74.0
1812.476,77.0
1813.2009,49.0
1813.9261,70.0
1814.6517,80.0
1815.3776,65.0
1816.1038,55.0
1816.8302,63.0
1817.5569,54.0
1818.2839,63.0
1819.0112,57.0
1819.7389,76.0
1820.4668,63.0
1821.195,57.0
1821.9235,54.0
1822.6522,67.0
1823.3812,60.0
1824.1106,53.0
1824.8402,56.0
1825.5702,73.0
1826.3004,72.0
1827.0309,75.0
1827.7617,92.0
1828.4928,77.0
1829.2242,57.0
1829.9559,60.0
1830.6879,66.0
1831.4202,86.0
1832.1527,55.0
1832.8856,78.0
1833.6188,74.0
1834.3522,57.0
1835.0859,56.0
1835.82,61.0
1836.5543,63.0
1837.289,72.0
1838.0238,81.0
1838.759,84.0
1839.4945,72.0
1840.2303,54.0
1840.9664,70.0
1841.7028,68.0
1842.4395,71.0
1843.1764,76.0
1843.9137,81.0
1844.6512,70.0
1845.3892,60.0
1846.1273,54.0
1846.8657,70.0
1847.6045,79.0
1848.3435,47.0
1849.0829,63.0
1849.8225,68.0
1850.5624,77.0
1851.3026,44.0
1852.0431,75.0
1852.7839,101.0
1853.525,74.0
1854.2665,51.0
1855.0082,70.0
1855.7501,63.0
1856.4924,68.0
1857.235,62.0
1857.9779,114.0
1858.7211,107.0
1859.4646,87.0
1860.2084,45.0
1860.9525,86.0
1861.6969,63.0
1862.4415,67.0
1863.1865,45.0
1863.9318,61.0
1864.6774,64.0
1865.4232,42.0
1866.1694,58.0
1866.9159,55.0
1867.6627,65.0
1868.4098,65.0
1869.1571,45.0
1869.9048,55.0
1870.6527,73.0
1871.401,53.0
1872.1495,57.0
1872.8984,82.0
1873.6476,93.0
1874.3971,75.0
1875.1469,85.0
1875.8969,104.0
1876.6472,111.0
1877.3978,93.0
1878.1488,59.0
1878.9,76.0
1879.6516,69.0
1880.4034,68.0
1881.1556,61.0
1881.9081,61.0
1882.6609,67.0
1883.414,66.0
1884.1674,77.0
1884.921,127.0
1885.675,119.0
1886.4293,100.0
1887.1838,78.0
1887.9387,77.0
1888.6938,65.0
1889.4493,56.0
1890.2051,67.0
1890.9612,67.0
1891.7175,64.0
1892.4742,71.0
1893.2312,59.0
1893.9885,64.0
1894.7461,57.0
1895.504,71.0
1896.2622,58.0
1897.0208,94.0
1897.7795,87.0
1898.5387,69.0
1899.2981,72.0
1900.0579,80.0
1900.8179,87.0
1901.5782,83.0
1902.3389,62.0
1903.0999,55.0
1903.8611,72.0
1904.6227,76.0
1905.3845,60.0
1906.1467,45.0
1906.9092,66.0
1907.672,77.0
1908.435,58.0
1909.1985,48.0
1909.9622,59.0
1910.7262,70.0
1911.4905,73.0
1912.2551,67.0
1913.02,70.0
1913.7853,420.0
1914.5508,301.0
1915.3167,210.0
1916.0828,235.0
1916.8492,165.0
1917.616,85.0
1918.383,70.0
1919.1504,69.0
1919.9181,75.0
1920.686,61.0
1921.4543,66.0
1922.2229,57.0
1922.9918,78.0
1923.761,57.0
1924.5305,59.0
1925.3003,52.0
1926.0704,47.0
1926.8408,53.0
1927.6116,84.0
1928.3826,68.0
1929.1539,49.0
1929.9255,63.0
1930.6975,86.0
1931.4698,50.0
1932.2424,56.0
1933.0154,71.0
1933.7886,72.0
1934.5621,80.0
1935.3359,65.0
1936.1101,79.0
1936.8845,80.0
1937.6593,104.0
1938.4343,62.0
1939.2097,64.0
1939.9854,68.0
1940.7614,94.0
1941.5376,73.0
1942.3142,64.0
1943.0912,61.0
1943.8684,64.0
1944.646,62.0
1945.4238,57.0
1946.202,51.0
1946.9805,60.0
1947.7593,52.0
1948.5383,50.0
1949.3177,43.0
1950.0975,62.0
1950.8776,71.0
1951.658,81.0
1952.4386,67.0
1953.2196,46.0
1954.0009,67.0
1954.7825,69.0
1955.5643,69.0
1956.3466,53.0
1957.1292,49.0
1957.912,61.0
1958.6952,65.0
1959.4786,56.0
1960.2625,57.0
1961.0465,52.0
1961.8309,59.0
1962.6157,57.0
1963.4008,54.0
1964.1862,37.0
1964.9718,51.0
1965.7578,74.0
1966.5441,70.0
1967.3307,61.0
1968.1177,78.0
1968.9049,73.0
1969.6925,76.0
1970.4803,71.0
1971.2686,50.0
1972.057,68.0
1972.8458,59.0
1973.635,54.0
1974.4244,40.0
1975.2142,44.0
1976.0043,64.0
1976.7947,52.0
1977.5854,76.0
1978.3765,55.0
1979.1678,60.0
1979.9595,60.0
1980.7515,65.0
1981.5438,65.0
1982.3364,67.0
1983.1294,60.0
1983.9226,64.0
1984.7162,69.0
1985.5101,57.0
1986.3043,62.0
1987.0989,63.0
1987.8937,52.0
1988.6888,51.0
1989.4844,66.0
1990.2802,58.0
1991.0763,48.0
1991.8727,64.0
1992.6694,75.0
1993.4666,70.0
1994.2639,65.0
1995.0616,63.0
1995.8596,69.0
1996.658,62.0
1997.4567,47.0
1998.2556,47.0
1999.0549,55.0
1999.8546,70.0
2000.6545,54.0
2001.4548,60.0
2002.2554,57.0
2003.0563,37.0
2003.8575,55.0
2004.659,50.0
2005.4609,59.0
2006.2631,60.0
2007.0656,61.0
2007.8684,56.0
2008.6715,48.0
2009.475,70.0
2010.2788,67.0
2011.0829,90.0
2011.8873,123.0
2012.6921,138.0
2013.4972,96.0
2014.3026,71.0
2015.1083,73.0
2015.9143,75.0
2016.7207,64.0
2017.5273,57.0
2018.3344,49.0
2019.1417,53.0
2019.9493,57.0
2020.7573,59.0
2021.5657,56.0
2022.3743,55.0
2023.1832,43.0
2023.9926,64.0
2024.8021,53.0
2025.612,79.0
2026.4224,63.0
2027.2329,62.0
2028.0438,70.0
2028.855,85.0
2029.6665,92.0
2030.4784,79.0
2031.2905,62.0
2032.103,60.0
2032.9159,84.0
2033.729,63.0
2034.5425,73.0
2035.3563,56.0
2036.1704,61.0
2036.9849,61.0
2037.7997,70.0
2038.6147,64.0
2039.4302,55.0
2040.246,74.0
2041.062,53.0
2041.8784,59.0
2042.6952,65.0
2043.5123,63.0
2044.3297,59.0
2045.1475,53.0
2045.9656,72.0
2046.7839,55.0
2047.6027,71.0
2048.4216,74.0
2049.241,60.0
2050.0605,51.0
2050.8806,71.0
2051.701,87.0
2052.5217,62.0
2053.3428,61.0
2054.164,60.0
2054.9858,60.0
2055.8079,54.0
2056.6301,65.0
2057.453,56.0
2058.276,48.0
2059.099,63.0
2059.9229,55.0
2060.7468,62.0
2061.571,66.0
2062.3958,44.0
2063.2207,63.0
2064.046,59.0
2064.8716,55.0
2065.6975,91.0
2066.5237,66.0
2067.3503,53.0
2068.1772,57.0
2069.0046,68.0
2069.8323,51.0
2070.6602,65.0
2071.4885,40.0
2072.3171,55.0
2073.146,55.0
2073.9753,55.0
2074.805,51.0
2075.6348,54.0
2076.465,51.0
2077.2957,56.0
2078.1265,54.0
2078.9578,69.0
2079.7893,57.0
2080.6213,64.0
2081.4536,77.0
2082.2861,67.0
2083.1191,95.0
2083.9524,108.0
2084.786,88.0
2085.6199,71.0
2086.454,60.0
2087.2886,58.0
2088.1235,54.0
2088.9587,72.0
2089.7944,66.0
2090.6304,68.0
2091.4666,57.0
2092.3032,35.0
2093.1401,47.0
2093.9773,63.0
2094.815,68.0
2095.6528,66.0
2096.4912,59.0
2097.3298,62.0
2098.1687,63.0
2099.008,64.0
2099.8477,55.0
2100.6875,43.0
2101.5278,61.0
2102.3684,61.0
2103.2095,53.0
2104.0508,59.0
2104.8923,55.0
2105.7344,69.0
2106.5767,61.0
2107.4192,60.0
2108.2622,57.0
2109.1055,50.0
2109.9492,55.0
2110.7932,59.0
2111.6375,47.0
2112.4822,63.0
2113.3271,52.0
2114.1724,57.0
2115.018,49.0
2115.864,57.0
2116.7104,43.0
2117.5571,62.0
2118.404,63.0
2119.2515,57.0
2120.099,67.0
2120.9473,72.0
2121.7957,58.0
2122.6443,56.0
2123.4934,63.0
2124.3428,55.0
2125.1926,72.0
2126.0427,70.0
2126.893,70.0
2127.744,74.0
2128.595,65.0
2129.4463,58.0
2130.298,57.0
2131.1501,63.0
2132.0027,59.0
2132.8555,64.0
2133.7085,48.0
2134.562,63.0
2135.4158,60.0
2136.27,56.0
2137.1245,44.0
2137.9792,68.0
2138.8345,67.0
2139.69,63.0
2140.546,50.0
2141.402,84.0
2142.2585,109.0
2143.1155,136.0
2143.9727,117.0
2144.8303,88.0
2145.6882,67.0
2146.5464,76.0
2147.405,69.0
2148.264,49.0
2149.1233,64.0
2149.983,53.0
2150.843,62.0
2151.7034,58.0
2152.564,71.0
2153.425,58.0
2154.2864,57.0
2155.1482,59.0
2156.0103,60.0
2156.8726,72.0
2157.7354,75.0
2158.5984,66.0
2159.462,50.0
2160.3257,57.0
2161.1897,59.0
2162.0542,57.0
2162.919,46.0
2163.7842,74.0
2164.6497,64.0
2165.5156,50.0
2166.3818,54.0
2167.2483,71.0
2168.1152,77.0
2168.9824,80.0
2169.85,75.0
2170.718,82.0
2171.5864,62.0
2172.455,66.0
2173.324,57.0
2174.1934,58.0
2175.063,62.0
2175.933,59.0
2176.8035,73.0
2177.674,69.0
2178.5452,63.0
2179.4165,48.0
2180.2883,56.0
2181.1604,57.0
2182.033,62.0
2182.9058,82.0
2183.7788,51.0
2184.6523,59.0
2185.5261,44.0
2186.4004,46.0
2187.275,52.0
2188.15,46.0
2189.0251,55.0
2189.9006,63.0
2190.7766,66.0
2191.6528,67.0
2192.5295,60.0
2193.4065,61.0
2194.284,86.0
2195.1616,84.0
2196.0398,93.0
2196.9182,80.0
2197.7969,83.0
2198.676,77.0
2199.5554,63.0
2200.4353,62.0
2201.3154,62.0
2202.196,68.0
2203.077,57.0
2203.9583,51.0
2204.8398,50.0
2205.7217,65.0
2206.604,66.0
2207.4866,63.0
2208.3696,74.0
2209.253,52.0
2210.1367,54.0
2211.0208,72.0
2211.9053,74.0
2212.79,83.0
2213.675,70.0
2214.5605,59.0
2215.4463,62.0
2216.3325,59.0
2217.219,84.0
2218.106,67.0
2218.9932,55.0
2219.8809,61.0
2220.7688,64.0
2221.6572,62.0
2222.546,64.0
2223.4348,66.0
2224.3242,47.0
2225.2139,61.0
2226.104,60.0
2226.9944,53.0
2227.8853,55.0
2228.7764,59.0
2229.668,65.0
2230.5598,48.0
2231.4521,80.0
2232.3447,69.0
2233.2375,60.0
2234.1309,54.0
2235.0244,54.0
2235.9185,60.0
2236.8127,76.0
2237.7075,56.0
2238.6025,70.0
2239.498,61.0
2240.3938,68.0
2241.29,46.0
2242.1865,57.0
2243.0835,69.0
2243.9807,64.0
2244.8784,70.0
2245.7764,65.0
2246.6746,54.0
2247.5732,62.0
2248.4722,51.0
2249.3716,61.0
2250.2712,47.0
2251.1714,63.0
2252.0718,56.0
2252.9727,54.0
2253.8738,55.0
2254.7754,65.0
2255.6772,67.0
2256.5796,71.0
2257.4822,53.0
2258.3853,68.0
2259.2886,58.0
2260.1924,58.0
2261.0964,86.0
2262.001,49.0
2262.9058,75.0
2263.811,78.0
2264.7166,61.0
2265.6226,67.0
2266.5288,54.0
2267.4353,68.0
2268.3423,48.0
2269.2495,54.0
2270.1572,52.0
2271.0652,61.0
2271.9736,79.0
2272.8823,58.0
2273.7915,76.0
2274.701,62.0
2275.6108,80.0
2276.521,71.0
2277.4316,92.0
2278.3425,62.0
2279.254,67.0
2280.1655,66.0
2281.0776,68.0
2281.99,64.0
2282.9028,63.0
2283.816,54.0
2284.7295,69.0
2285.6433,82.0
2286.5576,40.0
2287.4722,59.0
2288.3872,68.0
2289.3025,60.0
2290.2183,58.0
2291.1343,51.0
2292.0508,37.0
2292.9675,67.0
2293.8848,63.0
2294.8022,79.0
2295.7202,69.0
2296.6384,57.0
2297.5571,63.0
2298.476,62.0
2299.3955,59.0
2300.3152,57.0
2301.2354,70.0
2302.1558,78.0
2303.0767,91.0
2303.9978,76.0
2304.9194,64.0
2305.8413,74.0
2306.7637,64.0
2307.6863,54.0
2308.6094,56.0
2309.5327,63.0
2310.4565,64.0
2311.3806,42.0
2312.3052,52.0
2313.23,59.0
2314.1553,52.0
2315.081,64.0
2316.007,53.0
2316.9336,64.0
2317.8604,74.0
2318.7876,76.0
2319.715,85.0
2320.643,72.0
2321.5713,83.0
2322.5,75.0
2323.429,52.0
2324.3584,59.0
2325.288,75.0
2326.2183,59.0
2327.1487,61.0
2328.0796,48.0
2329.0107,76.0
2329.9424,67.0
2330.8743,58.0
2331.8066,64.0
2332.7393,65.0
2333.6724,64.0
2334.6057,75.0
2335.5396,58.0
2336.4739,57.0
2337.4084,64.0
2338.3435,59.0
2339.2788,64.0
2340.2146,65.0
2341.1506,65.0
2342.0872,55.0
2343.024,60.0
2343.9612,57.0
2344.8987,78.0
2345.8367,86.0
2346.775,72.0
2347.7136,82.0
2348.6526,65.0
2349.592,70.0
2350.532,72.0
2351.4722,63.0
2352.4128,47.0
2353.3538,64.0
2354.2952,73.0
2355.2368,56.0
2356.179,71.0
2357.1213,56.0
2358.0642,65.0
2359.0073,75.0
2359.951,77.0
2360.895,74.0
2361.8394,73.0
2362.7842,81.0
2363.7292,66.0
2364.6748,83.0
2365.6206,60.0
2366.567,58.0
2367.5134,64.0
2368.4604,48.0
2369.4077,51.0
2370.3555,52.0
2371.3037,45.0
2372.2522,61.0
2373.2012,60.0
2374.1504,60.0
2375.1,60.0
2376.05,67.0
2377.0005,62.0
2377.9512,55.0
2378.9023,75.0
2379.854,85.0
2380.806,65.0
2381.7583,55.0
2382.711,64.0
2383.664,71.0
2384.6174,54.0
2385.5713,60.0
2386.5256,61.0
2387.4802,66.0
2388.4353,71.0
2389.3906,67.0
2390.3464,67.0
2391.3025,63.0
2392.259,57.0
2393.2158,51.0
2394.173,58.0
2395.1309,61.0
2396.0889,68.0
2397.0474,71.0
2398.006,59.0
2398.9653,60.0
2399.9248,72.0
2400.8848,66.0
2401.8452,54.0
2402.806,66.0
2403.767,57.0
2404.7285,69.0
2405.6904,73.0
2406.6526,71.0
2407.6152,66.0
2408.5784,67.0
2409.5417,66.0
2410.5056,67.0
2411.4697,64.0
2412.4343,66.0
2413.3994,65.0
2414.3647,63.0
2415.3306,56.0
2416.2966,70.0
2417.2632,68.0
2418.23,56.0
2419.1973,54.0
2420.165,64.0
2421.133,68.0
2422.1016,55.0
2423.0703,74.0
2424.0396,69.0
2425.0093,59.0
2425.9792,57.0
2426.9497,62.0
2427.9204,53.0
2428.8916,55.0
2429.863,64.0
2430.835,72.0
2431.8074,80.0
2432.78,63.0
2433.7532,61.0
2434.7266,50.0
2435.7004,74.0
2436.6748,67.0
2437.6494,72.0
2438.6245,68.0
2439.5999,60.0
2440.5757,62.0
2441.552,63.0
2442.5286,62.0
2443.5056,56.0
2444.483,62.0
2445.4607,69.0
2446.439,71.0
2447.4175,59.0
2448.3965,63.0
2449.3757,66.0
2450.3555,68.0
2451.3357,51.0
2452.3162,61.0
2453.297,65.0
2454.2783,72.0
2455.26,75.0
2456.2422,67.0
2457.2246,49.0
2458.2075,67.0
2459.191,50.0
2460.1746,57.0
2461.1587,57.0
2462.143,69.0
2463.128,55.0
2464.1133,64.0
2465.0989,60.0
2466.085,60.0
2467.0713,72.0
2468.058,77.0
2469.0454,52.0
2470.033,64.0
2471.021,61.0
2472.0095,53.0
2472.9983,51.0
2473.9875,78.0
2474.977,50.0
2475.967,47.0
2476.9575,61.0
2477.9482,63.0
2478.9395,64.0
2479.931,64.0
2480.9229,80.0
2481.9153,65.0
2482.908,73.0
2483.9011,62.0
2484.8948,73.0
2485.8887,67.0
2486.883,71.0
2487.878,72.0
2488.873,59.0
2489.8687,74.0
2490.8645,46.0
2491.8608,64.0
2492.8577,86.0
2493.8547,53.0
2494.8523,50.0
2495.8503,53.0
2496.8486,55.0
2497.8474,58.0
2498.8464,60.0
2499.846,60.0
2500.846,70.0
2501.8462,67.0
2502.847,59.0
2503.8481,76.0
2504.8496,48.0
2505.8516,60.0
2506.854,67.0
2507.8567,54.0
2508.8599,57.0
2509.8635,75.0
2510.8674,63.0
2511.8718,57.0
2512.8765,48.0
2513.8816,67.0
2514.8872,58.0
2515.893,66.0
2516.8994,48.0
2517.9062,69.0
2518.9133,59.0
2519.921,66.0
2520.929,55.0
2521.9373,74.0
2522.946,66.0
2523.9553,69.0
2524.9648,56.0
2525.9749,58.0
2526.9854,65.0
2527.996,66.0
2529.0073,59.0
2530.019,38.0
2531.031,68.0
2532.0435,64.0
2533.0562,52.0
2534.0693,61.0
2535.083,66.0
2536.097,66.0
2537.1113,64.0
2538.1262,74.0
2539.1414,58.0
2540.157,50.0
2541.173,64.0
2542.1895,52.0
2543.2063,60.0
2544.2236,57.0
2545.2412,65.0
2546.2593,61.0
2547.2778,59.0
2548.2966,62.0
2549.316,67.0
2550.3357,84.0
2551.3557,64.0
2552.3762,61.0
2553.3972,66.0
2554.4185,59.0
2555.4402,51.0
2556.4624,61.0
2557.485,64.0
2558.508,65.0
2559.5315,57.0
2560.5554,51.0
2561.5796,76.0
2562.6042,81.0
2563.6294,56.0
2564.6548,73.0
2565.6807,65.0
2566.707,79.0
2567.7336,58.0
2568.7607,63.0
2569.7883,51.0
2570.8162,57.0
2571.8445,54.0
2572.8733,67.0
2573.9023,69.0
2574.932,74.0
2575.962,64.0
2576.9922,70.0
2578.023,57.0
2579.0542,70.0
2580.086,65.0
2581.118,66.0
2582.1504,78.0
2583.1833,67.0
2584.2166,54.0
2585.2502,67.0
2586.2844,63.0
2587.3188,66.0
2588.3538,60.0
2589.3892,66.0
2590.4248,56.0
2591.461,65.0
2592.4976,65.0
2593.5347,80.0
2594.572,69.0
2595.6099,75.0
2596.6482,69.0
2597.6868,64.0
2598.7258,70.0
2599.7654,67.0
2600.8052,61.0
2601.8455,77.0
2602.8862,60.0
2603.9275,55.0
2604.969,55.0
2606.011,69.0
2607.0535,68.0
2608.0962,75.0
2609.1394,78.0
2610.183,80.0
2611.2273,63.0
2612.2717,57.0
2613.3167,63.0
2614.362,84.0
2615.4077,71.0
2616.4539,66.0
2617.5005,85.0
2618.5476,66.0
2619.595,68.0
2620.6428,68.0
2621.6912,62.0
2622.7397,68.0
2623.7888,70.0
2624.8384,69.0
2625.8884,71.0
2626.9387,59.0
2627.9895,62.0
2629.0408,74.0
2630.0923,79.0
2631.1443,66.0
2632.1968,71.0
2633.2498,79.0
2634.303,71.0
2635.3567,57.0
2636.411,74.0
2637.4653,81.0
2638.5203,86.0
2639.5757,71.0
2640.6316,82.0
2641.6877,75.0
2642.7444,75.0
2643.8015,69.0
2644.8591,68.0
2645.917,68.0
2646.9753,56.0
2648.0342,69.0
2649.0935,66.0
2650.153,78.0
2651.2131,60.0
2652.2737,62.0
2653.3345,69.0
2654.3958,74.0
2655.4575,71.0
2656.5198,74.0
2657.5823,72.0
2658.6453,69.0
2659.7087,79.0
2660.7727,62.0
2661.837,82.0
2662.9016,74.0
2663.9668,78.0
2665.0325,99.0
2666.0984,73.0
2667.1648,85.0
2668.2317,88.0
2669.299,68.0
2670.3667,67.0
2671.4348,76.0
2672.5034,53.0
2673.5725,86.0
2674.6418,71.0
2675.7117,79.0
2676.782,64.0
2677.8528,70.0
2678.9238,79.0
2679.9954,76.0
2681.0674,91.0
2682.14,85.0
2683.2126,81.0
2684.286,77.0
2685.3596,85.0
2686.4338,75.0
2687.5083,69.0
2688.5833,73.0
2689.6587,72.0
2690.7346,62.0
2691.8108,66.0
2692.8875,70.0
2693.9646,69.0
2695.0422,73.0
2696.1204,66.0
2697.1987,76.0
2698.2776,81.0
2699.357,86.0
2700.4368,86.0
2701.5168,82.0
2702.5974,85.0
2703.6785,67.0
2704.76,76.0
2705.8418,69.0
2706.924,74.0
2708.0068,75.0
2709.09,68.0
2710.1738,75.0
2711.2578,54.0
2712.3423,88.0
2713.4272,55.0
2714.5127,80.0
2715.5984,69.0
2716.6846,61.0
2717.7712,70.0
2718.8584,63.0
2719.946,74.0
2721.034,80.0
2722.1223,104.0
2723.2112,99.0
2724.3005,101.0
2725.3901,80.0
2726.4802,73.0
2727.5708,70.0
2728.6619,67.0
2729.7534,93.0
2730.8452,88.0
2731.9375,87.0
2733.0303,75.0
2734.1235,75.0
2735.2173,127.0
2736.3113,140.0
2737.4058,118.0
2738.5007,79.0
2739.5962,70.0
2740.6921,70.0
2741.7883,63.0
2742.885,85.0
2743.9822,87.0
2745.0798,97.0
2746.178,104.0
2747.2764,65.0
2748.3752,73.0
2749.4746,68.0
2750.5745,67.0
2751.6748,88.0
2752.7754,65.0
2753.8765,82.0
2754.978,77.0
2756.08,63.0
2757.1826,58.0
2758.2854,73.0
2759.3887,65.0
2760.4924,82.0
2761.5967,69.0
2762.7014,86.0
2763.8064,86.0
2764.9119,91.0
2766.0178,74.0
2767.1243,65.0
2768.2312,76.0
2769.3384,69.0
2770.446,60.0
2771.5542,73.0
2772.6628,65.0
2773.772,79.0
2774.8816,78.0
2775.9915,83.0
2777.1018,78.0
2778.2126,68.0
2779.324,74.0
2780.4358,97.0
2781.5479,91.0
2782.6604,78.0
2783.7734,88.0
2784.887,65.0
2786.001,71.0
2787.1155,67.0
2788.2302,64.0
2789.3455,75.0
2790.4612,83.0
2791.5774,86.0
2792.694,77.0
2793.8113,134.0
2794.9287,120.0
2796.0466,129.0
2797.165,132.0
2798.284,159.0
2799.4033,123.0
2800.5232,124.0
2801.6433,130.0
2802.764,108.0
2803.885,109.0
2805.0066,113.0
2806.1287,119.0
2807.2512,161.0
2808.374,159.0
2809.4973,139.0
2810.621,124.0
2811.7454,138.0
2812.87,105.0
2813.9954,102.0
2815.1208,112.0
2816.2468,102.0
2817.3733,106.0
2818.5002,104.0
2819.6277,104.0
2820.7556,117.0
2821.884,116.0
2823.0127,124.0
2824.1418,114.0
2825.2715,115.0
2826.4016,101.0
2827.5322,121.0
2828.6633,113.0
2829.7947,117.0
2830.9265,124.0
2832.0588,130.0
2833.1917,95.0
2834.325,118.0
2835.4587,109.0
2836.593,102.0
2837.7275,125.0
2838.8625,92.0
2839.998,94.0
2841.134,104.0
2842.2705,100.0
2843.4075,123.0
2844.545,101.0
2845.6829,116.0
2846.821,109.0
2847.9597,105.0
2849.0989,100.0
2850.2385,117.0
2851.3787,108.0
2852.5193,124.0
2853.6604,120.0
2854.8018,117.0
2855.9436,116.0
2857.086,142.0
2858.2288,131.0
2859.372,117.0
2860.5159,104.0
2861.6602,97.0
2862.805,109.0
2863.95,133.0
2865.0955,116.0
2866.2415,148.0
2867.388,133.0
2868.535,111.0
2869.6824,125.0
2870.8303,126.0
2871.9788,99.0
2873.1274,102.0
2874.2766,108.0
2875.4263,97.0
2876.5764,114.0
2877.727,95.0
2878.8782,89.0
2880.0298,101.0
2881.182,119.0
2882.3345,108.0
2883.4873,112.0
2884.6406,112.0
2885.7944,83.0
2886.9487,103.0
2888.1035,112.0
2889.2588,116.0
2890.4146,144.0
2891.5708,166.0
2892.7275,142.0
2893.8845,122.0
2895.042,110.0
2896.2,112.0
2897.3584,99.0
2898.5173,120.0
2899.6768,111.0
2900.8367,99.0
2901.997,92.0
2903.158,96.0
2904.3193,97.0
2905.481,127.0
2906.643,144.0
2907.8057,163.0
2908.9688,191.0
2910.1323,180.0
2911.2964,173.0
2912.461,116.0
2913.626,126.0
2914.7915,117.0
2915.9575,94.0
2917.124,101.0
2918.2908,103.0
2919.458,111.0
2920.6257,122.0
2921.794,116.0
2922.9626,139.0
2924.1318,122.0
2925.3015,129.0
2926.4717,120.0
2927.6423,115.0
2928.8135,99.0
2929.985,118.0
2931.157,132.0
2932.3293,113.0
2933.5022,98.0
2934.6755,132.0
2935.8494,96.0
2937.0237,108.0
2938.1985,104.0
2939.3738,129.0
2940.5496,114.0
2941.7258,137.0
2942.9026,117.0
2944.0798,120.0
2945.2576,138.0
2946.4358,118.0
2947.6143,128.0
2948.7932,126.0
2949.9727,131.0
2951.1526,140.0
2952.333,129.0
2953.514,112.0
2954.6953,106.0
2955.8772,110.0
2957.0596,115.0
2958.2424,135.0
2959.4258,105.0
2960.6096,129.0
2961.794,103.0
2962.9788,106.0
2964.164,102.0
2965.3496,119.0
2966.5356,101.0
2967.7222,114.0
2968.9092,107.0
2970.0967,107.0
2971.2847,104.0
2972.4731,127.0
2973.662,108.0
2974.8516,122.0
2976.0415,104.0
2977.232,98.0
2978.4229,115.0
2979.6143,107.0
2980.8062,97.0
2981.9985,118.0
2983.1914,113.0
2984.3848,107.0
2985.5786,121.0
2986.773,98.0
2987.9678,114.0
2989.1628,93.0
2990.3584,121.0
2991.5544,109.0
2992.751,112.0
2993.948,104.0
2995.1455,113.0
2996.3435,96.0
2997.542,107.0
2998.741,100.0
2999.9404,93.0
3001.1404,101.0
3002.3408,105.0
3003.5417,140.0
3004.7432,106.0
3005.945,108.0
3007.1475,106.0
3008.3503,134.0
3009.5537,130.0
3010.7576,113.0
3011.962,109.0
3013.1667,110.0
3014.372,98.0
3015.578,126.0
3016.7842,109.0
3017.991,109.0
3019.1982,99.0
3020.406,125.0
3021.6143,140.0
3022.823,127.0
3024.0322,108.0
3025.242,107.0
3026.4521,116.0
3027.6628,114.0
3028.874,119.0
3030.0857,105.0
3031.2976,104.0
3032.51,93.0
3033.723,101.0
3034.9363,103.0
3036.1501,102.0
3037.3645,124.0
3038.5793,119.0
3039.7947,122.0
3041.0105,89.0
3042.2268,96.0
3043.4436,114.0
3044.661,113.0
3045.8787,116.0
3047.097,87.0
3048.3157,121.0
3049.535,108.0
3050.7546,111.0
3051.9749,98.0
3053.1956,103.0
3054.4167,145.0
3055.6384,147.0
3056.8606,111.0
3058.0833,109.0
3059.3064,117.0
3060.53,112.0
3061.7542,122.0
3062.9788,105.0
3064.2039,99.0
3065.4294,130.0
3066.6555,109.0
3067.882,107.0
3069.1091,105.0
3070.3367,115.0
3071.5647,103.0
3072.7932,105.0
3074.0222,100.0
3075.2517,105.0
3076.4817,115.0
3077.7124,119.0
3078.9436,98.0
3080.1753,94.0
3081.4075,108.0
3082.6401,125.0
3083.8733,100.0
3085.107,92.0
3086.341,113.0
3087.5757,103.0
3088.8108,111.0
3090.0464,105.0
3091.2825,108.0
3092.519,160.0
3093.756,147.0
3094.9937,114.0
3096.2317,109.0
3097.4702,148.0
3098.7092,102.0
3099.9487,114.0
3101.1887,99.0
3102.4292,103.0
3103.6702,116.0
3104.9116,123.0
3106.1536,90.0
3107.396,117.0
3108.639,119.0
3109.8823,98.0
3111.1262,128.0
3112.3706,137.0
3113.6155,121.0
3114.8608,120.0
3116.1067,100.0
3117.353,119.0
3118.5999,104.0
3119.8474,116.0
3121.0955,109.0
3122.344,118.0
3123.593,108.0
3124.8425,123.0
3126.0925,107.0
3127.343,109.0
3128.594,132.0
3129.8455,118.0
3131.0974,130.0
3132.3499,110.0
3133.6028,120.0
3134.8562,116.0
3136.11,114.0
3137.3645,116.0
3138.6194,117.0
3139.8748,113.0
3141.1306,111.0
3142.387,104.0
3143.6438,110.0
3144.9014,94.0
3146.1594,138.0
3147.418,127.0
3148.677,115.0
3149.9365,115.0
3151.1965,124.0
3152.457,100.0
3153.718,125.0
3154.9795,126.0
3156.2415,111.0
3157.504,125.0
3158.7668,130.0
3160.0303,110.0
3161.2942,96.0
3162.5586,118.0
3163.8237,115.0
3165.0894,88.0
3166.3555,98.0
3167.622,113.0
3168.8892,108.0
3170.1567,134.0
3171.4248,117.0
3172.6934,122.0
3173.9624,131.0
3175.232,105.0
3176.502,105.0
3177.7725,112.0
3179.0435,113.0
3180.3152,128.0
3181.5874,119.0
3182.86,90.0
3184.1333,96.0
3185.407,119.0
3186.6812,113.0
3187.9558,128.0
3189.231,126.0
3190.5066,122.0
3191.7827,130.0
3193.0593,139.0
3194.3367,133.0
3195.6145,143.0
3196.8928,123.0
3198.1716,109.0
3199.451,105.0
3200.7307,113.0
3202.011,104.0
3203.2917,116.0
3204.573,116.0
3205.8547,106.0
3207.137,114.0
3208.42,118.0
3209.7034,116.0
3210.9873,118.0
3212.2717,116.0
3213.5566,112.0
3214.842,126.0
3216.128,131.0
3217.4143,150.0
3218.7012,133.0
3219.9888,106.0
3221.2769,119.0
3222.5654,100.0
3223.8545,148.0
3225.144,130.0
3226.434,143.0
3227.7246,137.0
3229.0156,132.0
3230.3071,118.0
3231.5994,118.0
3232.892,132.0
3234.1853,111.0
3235.479,140.0
3236.7732,136.0
3238.0679,115.0
3239.363,106.0
3240.6587,116.0
3241.9548,109.0
3243.2517,104.0
3244.549,116.0
3245.847,116.0
3247.1453,119.0
3248.444,134.0
3249.7434,110.0
3251.0432,112.0
3252.3438,131.0
3253.6448,116.0
3254.9463,118.0
3256.2483,114.0
3257.5508,119.0
3258.8538,148.0
3260.1572,102.0
3261.4612,97.0
3262.7659,128.0
3264.071,110.0
3265.3767,110.0
3266.6829,111.0
3267.9895,120.0
3269.2966,127.0
3270.6042,143.0
3271.9126,105.0
3273.2214,110.0
3274.5308,107.0
3275.8406,120.0
3277.151,118.0
3278.4617,117.0
3279.773,97.0
3281.085,123.0
3282.3975,123.0
3283.7104,120.0
3285.024,105.0
3286.338,122.0
3287.6523,140.0
3288.9673,132.0
3290.283,126.0
3291.599,127.0
3292.9158,133.0
3294.233,108.0
3295.5505,112.0
3296.8687,114.0
3298.1875,119.0
3299.5068,116.0
3300.8267,124.0
3302.147,112.0
3303.4678,117.0
3304.789,118.0
3306.111,141.0
3307.4336,103.0
3308.7566,133.0
3310.08,106.0
3311.404,117.0
3312.7285,120.0
3314.0537,112.0
3315.3794,119.0
3316.7056,130.0
3318.0322,106.0
3319.3594,127.0
3320.687,105.0
3322.0154,125.0
3323.3442,142.0
3324.6736,134.0
3326.0034,119.0
3327.3337,151.0
3328.6648,117.0
3329.9963,106.0
3331.3284,117.0
3332.661,137.0
3333.994,108.0
3335.3274,96.0
3336.6616,119.0
3337.9963,116.0
3339.3315,130.0
3340.6672,116.0
3342.0034,128.0
3343.3403,120.0
3344.6777,139.0
3346.0156,97.0
3347.354,126.0
3348.6929,127.0
3350.0322,137.0
3351.3723,138.0
3352.713,141.0
3354.054,105.0
3355.3955,123.0
3356.7375,133.0
3358.0803,140.0
3359.4236,136.0
3360.7673,134.0
3362.1116,116.0
3363.4563,112.0
3364.8018,128.0
3366.1477,109.0
3367.4941,122.0
3368.841,142.0
3370.1887,151.0
3371.5369,122.0
3372.8855,141.0
3374.2346,142.0
3375.5842,127.0
3376.9346,125.0
3378.2854,138.0
3379.6367,150.0
3380.9885,138.0
3382.3408,130.0
3383.6938,126.0
3385.0474,140.0
3386.4014,138.0
3387.7559,146.0
3389.1108,124.0
3390.4666,112.0
3391.8228,131.0
3393.1794,138.0
3394.5366,120.0
3395.8945,131.0
3397.253,124.0
3398.6118,144.0
3399.9712,135.0
3401.3313,137.0
3402.692,159.0
3404.053,154.0
3405.4146,126.0
3406.7766,135.0
3408.1394,130.0
3409.5027,142.0
3410.8665,129.0
3412.2307,130.0
3413.5957,135.0
3414.9612,150.0
3416.3271,119.0
3417.6936,131.0
3419.0608,156.0
3420.4285,160.0
3421.7966,149.0
3423.1653,140.0
3424.5347,136.0
3425.9045,139.0
3427.275,139.0
3428.6458,118.0
3430.017,121.0
3431.3892,117.0
3432.7617,140.0
3434.1348,158.0
3435.5083,128.0
3436.8826,156.0
3438.2573,143.0
3439.6326,122.0
3441.0083,124.0
3442.3848,140.0
3443.7617,119.0
3445.1392,116.0
3446.5173,144.0
3447.896,128.0
3449.2751,94.0
3450.6548,101.0
3452.0352,138.0
3453.416,135.0
3454.7974,162.0
3456.1792,132.0
3457.5618,153.0
3458.9448,125.0
3460.3284,120.0
3461.7124,140.0
3463.0972,123.0
3464.4824,137.0
3465.8682,131.0
3467.2544,129.0
3468.6414,126.0
3470.0288,126.0
3471.4167,117.0
3472.8054,136.0
3474.1946,131.0
3475.5842,147.0
3476.9744,130.0
3478.3652,125.0
3479.7566,134.0
3481.1484,137.0
3482.541,126.0
3483.934,129.0
3485.3276,143.0
3486.7217,142.0
3488.1165,120.0
3489.5117,127.0
3490.9075,144.0
3492.304,132.0
3493.701,118.0
3495.0984,134.0
3496.4963,150.0
3497.895,125.0
3499.2942,149.0
3500.6938,158.0
3502.0942,136.0
3503.495,155.0
3504.8965,150.0
3506.2983,148.0
3507.701,145.0
3509.104,150.0
3510.5076,192.0
3511.9119,137.0
3513.3167,164.0
3514.722,154.0
3516.128,131.0
3517.5344,130.0
3518.9414,128.0
3520.3489,136.0
3521.757,182.0
3523.1658,198.0
3524.575,146.0
3525.9849,144.0
3527.3953,136.0
3528.8062,156.0
3530.2178,229.0
3531.63,201.0
3533.0425,150.0
3534.4558,145.0
3535.8696,152.0
3537.284,149.0
3538.6987,146.0
3540.1143,144.0
3541.5303,166.0
3542.9468,140.0
3544.364,160.0
3545.7817,125.0
3547.2,146.0
3548.619,153.0
3550.0383,143.0
3551.4583,115.0
3552.879,163.0
3554.3,155.0
3555.7217,154.0
3557.144,158.0
3558.567,143.0
3559.9902,137.0
3561.4143,148.0
3562.8389,177.0
3564.264,158.0
3565.6897,176.0
3567.116,163.0
3568.5427,151.0
3569.9702,151.0
3571.3982,164.0
3572.8267,173.0
3574.2559,176.0
3575.6855,163.0
3577.1157,154.0
3578.5466,176.0
3579.978,218.0
3581.41,178.0
3582.8425,194.0
3584.2756,176.0
3585.7092,190.0
3587.1436,181.0
3588.5784,180.0
3590.014,173.0
3591.45,180.0
3592.8865,168.0
3594.3237,194.0
3595.7615,208.0
3597.1997,199.0
3598.6387,183.0
3600.0781,183.0
3601.518,192.0
3602.9587,184.0
3604.4,154.0
3605.8416,184.0
3607.284,237.0
3608.7268,252.0
3610.1704,173.0
3611.6145,185.0
3613.059,149.0
3614.5044,182.0
3615.9502,294.0
3617.3965,339.0
3618.8435,271.0
3620.291,184.0
3621.739,171.0
3623.1877,170.0
3624.637,174.0
3626.087,163.0
3627.5374,171.0
3628.9883,174.0
3630.44,183.0
3631.892,165.0
3633.3447,159.0
3634.798,160.0
3636.252,197.0
3637.7065,197.0
3639.1616,167.0
3640.6172,171.0
3642.0735,186.0
3643.5303,193.0
3644.9878,230.0
3646.4458,171.0
3647.9043,164.0
3649.3635,171.0
3650.8232,165.0
3652.2837,164.0
3653.7446,166.0
3655.206,153.0
3656.6682,176.0
3658.1309,182.0
3659.594,201.0
3661.0579,216.0
3662.5222,186.0
3663.9873,183.0
3665.453,187.0
3666.919,178.0
3668.3857,190.0
3669.853,177.0
3671.321,154.0
3672.7896,180.0
3674.2585,182.0
3675.7283,202.0
3677.1985,205.0
3678.6694,220.0
3680.1409,207.0
3681.613,159.0
3683.0857,154.0
3684.5588,153.0
3686.0327,157.0
3687.507,180.0
3688.9822,148.0
3690.4578,149.0
3691.9338,183.0
3693.4106,173.0
3694.888,171.0
3696.366,178.0
3697.8445,190.0
3699.3237,142.0
3700.8035,165.0
3702.2837,149.0
3703.7646,180.0
3705.246,163.0
3706.7283,175.0
3708.211,198.0
3709.6943,264.0
3711.1782,268.0
3712.6626,195.0
3714.1477,178.0
3715.6333,208.0
3717.1196,182.0
3718.6064,214.0
3720.094,156.0
3721.582,161.0
3723.0706,171.0
3724.5598,164.0
3726.0496,193.0
3727.54,192.0
3729.031,183.0
3730.5227,171.0
3732.015,194.0
3733.5078,230.0
3735.0012,260.0
3736.495,248.0
3737.9897,193.0
3739.4849,176.0
3740.9807,185.0
3742.477,185.0
3743.974,235.0
3745.4717,223.0
3746.97,161.0
3748.4688,201.0
3749.968,381.0
3751.468,612.0
3752.9685,730.0
3754.4697,456.0
3755.9714,332.0
3757.4739,216.0
3758.9768,252.0
3760.4805,213.0
3761.9846,224.0
3763.4895,196.0
3764.9949,214.0
3766.501,270.0
3768.0076,284.0
3769.515,226.0
3771.0227,208.0
3772.531,246.0
3774.04,229.0
3775.5496,222.0
3777.0598,226.0
3778.5706,239.0
3780.082,220.0
3781.594,221.0
3783.1067,315.0
3784.6199,322.0
3786.1338,267.0
3787.6482,229.0
3789.1633,201.0
3790.679,234.0
3792.1953,183.0
3793.7122,219.0
3795.2297,203.0
3796.7478,227.0
3798.2666,228.0
3799.786,232.0
3801.306,201.0
3802.8264,187.0
3804.3477,185.0
3805.8694,216.0
3807.3918,204.0
3808.9148,169.0
3810.4385,219.0
3811.9626,228.0
3813.4875,241.0
3815.013,296.0
3816.539,281.0
3818.0657,225.0
3819.593,192.0
3821.1208,202.0
3822.6494,211.0
3824.1785,189.0
3825.7083,195.0
3827.2385,175.0
3828.7695,204.0
3830.301,221.0
3831.8333,268.0
3833.366,246.0
3834.8994,232.0
3836.4333,172.0
3837.968,184.0
3839.5032,205.0
3841.039,227.0
3842.5754,233.0
3844.1125,227.0
3845.6501,218.0
3847.1885,296.0
3848.7273,354.0
3850.2668,333.0
3851.807,283.0
3853.3477,231.0
3854.889,197.0
3856.431,210.0
3857.9734,197.0
3859.5166,225.0
3861.0603,198.0
3862.6047,200.0
3864.1497,212.0
3865.6953,259.0
3867.2417,244.0
3868.7886,243.0
3870.3362,226.0
3871.8843,226.0
3873.433,224.0
3874.9824,247.0
3876.5325,236.0
3878.083,194.0
3879.6343,247.0
3881.186,227.0
3882.7385,271.0
3884.2915,251.0
3885.8452,216.0
3887.3997,251.0
3888.9546,226.0
3890.5103,195.0
3892.0664,192.0
3893.6233,211.0
3895.1807,203.0
3896.7388,218.0
3898.2974,264.0
3899.8567,275.0
3901.4167,275.0
3902.9773,257.0
3904.5386,247.0
3906.1003,197.0
3907.6628,241.0
3909.2258,206.0
3910.7896,205.0
3912.3538,172.0
3913.9187,217.0
3915.4844,220.0
3917.0505,232.0
3918.6174,255.0
3920.1848,202.0
3921.753,212.0
3923.3215,181.0
3924.8909,219.0
3926.461,197.0
3928.0315,178.0
3929.6028,180.0
3931.1746,203.0
3932.747,192.0
3934.32,186.0
3935.8938,194.0
3937.4683,199.0
3939.0432,189.0
3940.619,211.0
3942.195,207.0
3943.772,181.0
3945.3494,180.0
3946.9275,187.0
3948.5063,190.0
3950.0857,233.0
3951.6658,230.0
3953.2463,207.0
3954.8276,195.0
3956.4097,176.0
3957.9922,205.0
3959.5754,201.0
3961.1592,225.0
3962.7437,168.0
3964.3289,165.0
3965.9146,186.0
3967.501,167.0
3969.088,177.0
3970.6755,188.0
3972.264,187.0
3973.8528,177.0
3975.4424,185.0
3977.0325,194.0
3978.6233,204.0
3980.2148,184.0
3981.807,179.0
3983.3997,192.0
3984.993,191.0
3986.587,210.0
3988.1816,182.0
3989.7769,163.0
3991.3728,198.0
3992.9692,180.0
3994.5664,221.0
3996.1643,206.0
3997.7627,201.0
3999.3618,159.0
4000.9617,192.0
4002.562,225.0
4004.163,233.0
4005.7646,209.0
4007.367,189.0
4008.97,191.0
4010.5735,192.0
4012.1777,206.0
4013.7827,218.0
4015.3882,199.0
4016.9944,189.0
4018.601,231.0
4020.2085,208.0
4021.8167,205.0
4023.4253,183.0
4025.0347,222.0
4026.6448,203.0
4028.2554,255.0
4029.8667,243.0
4031.4788,218.0
4033.0913,228.0
4034.7046,240.0
4036.3184,279.0
4037.9329,302.0
4039.548,269.0
4041.1638,286.0
4042.7803,332.0
4044.3975,291.0
4046.0151,283.0
4047.6335,247.0
4049.2527,282.0
4050.8723,346.0
4052.4927,342.0
4054.1138,389.0
4055.7354,352.0
4057.3577,290.0
4058.9807,377.0
4060.6042,424.0
4062.2285,401.0
4063.8535,430.0
4065.479,379.0
4067.1052,393.0
4068.7322,403.0
4070.3596,451.0
4071.9878,560.0
4073.6167,585.0
4075.246,455.0
4076.8762,451.0
4078.507,456.0
4080.1384,578.0
4081.7705,734.0
4083.4033,655.0
4085.0366,796.0
4086.6707,904.0
4088.3054,653.0
4089.9407,470.0
4091.5767,455.0
4093.2134,1296.0
4094.8506,1923.0
4096.489,1120.0
4098.1274,510.0
4099.7666,451.0
4101.4067,1349.0
4103.0474,3727.0
4104.6885,2918.0
4106.3306,1098.0
4107.973,529.0
4109.616,446.0
4111.2603,436.0
4112.905,508.0
4114.55,699.0
4116.196,591.0
4117.8423,361.0
4119.4893,290.0
4121.137,292.0
4122.7856,322.0
4124.4346,309.0
4126.0845,294.0
4127.735,281.0
4129.3857,221.0
4131.0376,223.0
4132.69,236.0
4134.343,208.0
4135.9966,229.0
4137.651,219.0
4139.306,205.0
4140.962,217.0
4142.618,197.0
4144.2754,212.0
4145.933,215.0
4147.5913,222.0
4149.2505,219.0
4150.91,196.0
4152.5703,242.0
4154.2314,204.0
4155.893,257.0
4157.5557,223.0
4159.2188,246.0
4160.8823,252.0
4162.547,204.0
4164.212,215.0
4165.8774,255.0
4167.544,261.0
4169.211,233.0
4170.8784,203.0
4172.547,197.0
4174.216,294.0
4175.8857,320.0
4177.556,258.0
4179.227,228.0
4180.899,268.0
4182.5713,232.0
4184.244,207.0
4185.918,225.0
4187.5923,264.0
4189.267,299.0
4190.943,242.0
4192.619,200.0
4194.2964,233.0
4195.974,291.0
4197.6523,295.0
4199.3315,255.0
4201.011,216.0
4202.6914,221.0
4204.3726,219.0
4206.054,211.0
4207.737,262.0
4209.42,260.0
4211.1035,233.0
4212.788,231.0
4214.473,216.0
4216.1587,207.0
4217.845,241.0
4219.532,208.0
4221.22,197.0
4222.9087,234.0
4224.5977,224.0
4226.2876,216.0
4227.978,253.0
4229.6694,226.0
4231.3613,214.0
4233.0537,272.0
4234.747,235.0
4236.441,234.0
4238.1353,244.0
4239.8306,234.0
4241.5264,228.0
4243.223,268.0
4244.9204,245.0
4246.618,262.0
4248.317,256.0
4250.016,279.0
4251.7163,271.0
4253.417,271.0
4255.118,298.0
4256.8203,255.0
4258.523,250.0
4260.2266,273.0
4261.9307,309.0
4263.6353,327.0
4265.341,294.0
4267.047,337.0
4268.754,400.0
4270.4614,347.0
4272.1694,288.0
4273.8784,260.0
4275.588,399.0
4277.2983,500.0
4279.0093,391.0
4280.7207,309.0
4282.433,281.0
4284.146,496.0
4285.86,803.0
4287.574,586.0
4289.289,386.0
4291.005,306.0
4292.721,274.0
4294.4385,247.0
4296.1562,303.0
4297.8745,393.0
4299.5938,374.0
4301.3135,296.0
4303.034,254.0
4304.7554,284.0
4306.477,247.0
4308.1997,209.0
4309.923,233.0
4311.647,249.0
4313.3716,219.0
4315.097,224.0
4316.823,217.0
4318.55,235.0
4320.2773,210.0
4322.0054,215.0
4323.7344,236.0
4325.464,225.0
4327.194,213.0
4328.925,208.0
4330.6562,233.0
4332.3887,253.0
4334.1216,216.0
4335.8555,184.0
4337.59,227.0
4339.3247,225.0
4341.0605,239.0
4342.797,218.0
4344.534,178.0
4346.272,217.0
4348.0103,200.0
4349.7495,196.0
4351.4893,214.0
4353.23,224.0
4354.971,226.0
4356.7134,227.0
4358.456,266.0
4360.199,245.0
4361.9434,236.0
4363.688,202.0
4365.4336,238.0
4367.1797,228.0
4368.927,227.0
4370.6743,226.0
4372.4224,255.0
4374.1714,223.0
4375.921,209.0
4377.6714,195.0
4379.4224,209.0
4381.1743,230.0
4382.927,212.0
4384.6797,205.0
4386.4336,217.0
4388.188,249.0
4389.9434,220.0
4391.699,246.0
4393.456,251.0
4395.2134,251.0
4396.9717,239.0
4398.7305,232.0
4400.4897,266.0
4402.25,261.0
4404.0107,224.0
4405.7725,244.0
4407.5347,310.0
4409.298,324.0
4411.0615,287.0
4412.826,205.0
4414.5913,258.0
4416.357,339.0
4418.1235,366.0
4419.8906,305.0
4421.6587,277.0
4423.4272,234.0
4425.197,229.0
4426.967,282.0
4428.738,280.0
4430.5093,320.0
4432.2812,318.0
4434.054,237.0
4435.8276,233.0
4437.602,320.0
4439.377,364.0
4441.153,293.0
4442.929,254.0
4444.7065,219.0
4446.4844,245.0
4448.263,280.0
4450.0425,263.0
4451.8223,286.0
4453.603,249.0
4455.3843,257.0
4457.1665,246.0
4458.949,290.0
4460.733,310.0
4462.517,231.0
4464.3022,264.0
4466.088,289.0
4467.8745,374.0
4469.6616,363.0
4471.4497,305.0
4473.2383,270.0
4475.0273,268.0
4476.8174,232.0
4478.608,248.0
4480.3994,273.0
4482.1914,313.0
4483.9844,304.0
4485.778,251.0
4487.5723,280.0
4489.367,269.0
4491.163,240.0
4492.9595,192.0
4494.757,227.0
4496.5547,230.0
4498.3535,293.0
4500.153,271.0
4501.953,274.0
4503.754,256.0
4505.555,268.0
4507.3574,212.0
4509.16,235.0
4510.964,218.0
4512.768,252.0
4514.573,282.0
4516.379,222.0
4518.1855,224.0
4519.9927,247.0
4521.801,289.0
4523.6094,256.0
4525.419,215.0
4527.229,226.0
4529.04,227.0
4530.8516,337.0
4532.664,293.0
4534.477,233.0
4536.291,221.0
4538.1055,262.0
4539.921,262.0
4541.737,262.0
4543.5537,204.0
4545.371,229.0
4547.1895,237.0
4549.0083,243.0
4550.828,213.0
4552.6484,229.0
4554.4697,230.0
4556.2915,202.0
4558.1143,203.0
4559.9375,198.0
4561.7617,253.0
4563.5864,248.0
4565.4116,218.0
4567.238,201.0
4569.0645,216.0
4570.892,232.0
4572.72,232.0
4574.5493,218.0
4576.379,223.0
4578.2095,223.0
4580.0405,220.0
4581.8726,239.0
4583.705,218.0
4585.5386,242.0
4587.3726,211.0
4589.2075,203.0
4591.043,248.0
4592.8794,243.0
4594.7163,248.0
4596.554,209.0
4598.3926,232.0
4600.232,266.0
4602.0723,243.0
4603.913,247.0
4605.755,215.0
4607.597,202.0
4609.4404,201.0
4611.284,222.0
4613.129,240.0
4614.974,222.0
4616.8203,238.0
4618.667,213.0
4620.5146,216.0
4622.363,251.0
4624.212,244.0
4626.0615,202.0
4627.912,221.0
4629.763,195.0
4631.615,220.0
4633.468,231.0
4635.3213,204.0
4637.1753,217.0
4639.0303,206.0
4640.8857,220.0
4642.742,253.0
4644.599,228.0
4646.457,203.0
4648.3154,192.0
4650.175,212.0
4652.0347,219.0
4653.8955,187.0
4655.757,175.0
4657.619,189.0
4659.4824,223.0
4661.346,203.0
4663.211,226.0
4665.076,232.0
4666.9424,226.0
4668.809,202.0
4670.677,230.0
4672.545,204.0
4674.414,208.0
4676.2837,194.0
4678.1543,229.0
4680.0254,208.0
4681.8975,221.0
4683.77,225.0
4685.6436,224.0
4687.5176,198.0
4689.3926,226.0
4691.2686,222.0
4693.145,211.0
4695.0225,244.0
4696.9004,228.0
4698.7793,232.0
4700.6587,218.0
4702.539,200.0
4704.42,216.0
4706.302,235.0
4708.184,256.0
4710.0674,249.0
4711.951,245.0
4713.836,234.0
4715.7217,238.0
4717.608,169.0
4719.495,197.0
4721.383,207.0
4723.2715,183.0
4725.1606,242.0
4727.051,216.0
4728.9414,216.0
4730.833,230.0
4732.725,193.0
4734.618,208.0
4736.512,201.0
4738.4067,166.0
4740.3022,182.0
4742.198,219.0
4744.095,227.0
4745.9927,229.0
4747.891,217.0
4749.79,210.0
4751.69,205.0
4753.591,200.0
4755.492,205.0
4757.3945,206.0
4759.2974,187.0
4761.201,214.0
4763.1055,220.0
4765.0107,210.0
4766.9165,212.0
4768.823,212.0
4770.731,192.0
4772.639,212.0
4774.5483,187.0
4776.458,203.0
4778.3687,180.0
4780.28,185.0
4782.192,186.0
4784.105,202.0
4786.0186,209.0
4787.933,190.0
4789.848,178.0
4791.764,177.0
4793.6807,219.0
4795.598,194.0
4797.5166,181.0
4799.4355,197.0
4801.3555,189.0
4803.276,203.0
4805.1973,190.0
4807.119,189.0
4809.042,228.0
4810.966,197.0
4812.89,183.0
4814.8154,194.0
4816.741,199.0
4818.668,206.0
4820.595,192.0
4822.5234,195.0
4824.4526,199.0
4826.3823,187.0
4828.313,177.0
4830.244,220.0
4832.1763,211.0
4834.1094,212.0
4836.043,191.0
4837.9775,194.0
4839.9126,204.0
4841.8486,180.0
4843.785,235.0
4845.7227,215.0
4847.661,203.0
4849.6,222.0
4851.54,198.0
4853.4805,215.0
4855.422,192.0
4857.3643,186.0
4859.307,187.0
4861.251,185.0
4863.1953,204.0
4865.1406,212.0
4867.087,233.0
4869.0337,217.0
4870.9814,201.0
4872.9297,220.0
4874.879,176.0
4876.829,204.0
4878.78,206.0
4880.7314,176.0
4882.6836,167.0
4884.6367,204.0
4886.5903,189.0
4888.545,183.0
4890.5005,173.0
4892.4565,218.0
4894.4136,188.0
4896.3716,195.0
4898.33,201.0
4900.2896,188.0
4902.2495,207.0
4904.2104,201.0
4906.1724,200.0
4908.135,205.0
4910.098,200.0
4912.062,203.0
4914.027,203.0
4915.9927,221.0
4917.959,223.0
4919.9263,231.0
4921.894,214.0
4923.863,217.0
4925.8325,199.0
4927.8027,231.0
4929.774,216.0
4931.7456,202.0
4933.7183,202.0
4935.692,220.0
4937.666,191.0
4939.641,190.0
4941.617,201.0
4943.5938,204.0
4945.5713,195.0
4947.5493,211.0
4949.5283,241.0
4951.5083,219.0
4953.489,229.0
4955.47,219.0
4957.4526,214.0
4959.4355,225.0
4961.4194,201.0
4963.404,223.0
4965.389,226.0
4967.3755,215.0
4969.3623,229.0
4971.35,215.0
4973.339,228.0
4975.328,228.0
4977.3184,247.0
4979.309,231.0
4981.301,249.0
4983.2935,233.0
4985.2866,229.0
4987.281,213.0
4989.276,255.0
4991.2715,230.0
4993.268,224.0
4995.265,223.0
4997.263,216.0
4999.262,244.0
5001.2617,209.0
5003.262,230.0
5005.2637,248.0
5007.2656,256.0
5009.2686,252.0
5011.2725,279.0
5013.277,219.0
5015.282,249.0
5017.2886,208.0
5019.2954,226.0
5021.303,234.0
5023.3115,200.0
5025.321,238.0
5027.331,218.0
5029.342,233.0
5031.3535,270.0
5033.366,248.0
5035.3794,251.0
5037.3936,255.0
5039.4087,279.0
5041.4243,259.0
5043.441,259.0
5045.4585,231.0
5047.4766,225.0
5049.4956,261.0
5051.5156,255.0
5053.536,224.0
5055.5576,242.0
5057.58,220.0
5059.603,201.0
5061.627,212.0
5063.6514,212.0
5065.677,232.0
5067.703,249.0
5069.73,225.0
5071.758,255.0
5073.7866,271.0
5075.816,201.0
5077.846,235.0
5079.8774,235.0
5081.909,222.0
5083.942,247.0
5085.9756,210.0
5088.01,245.0
5090.045,237.0
5092.081,264.0
5094.1177,236.0
5096.1553,241.0
5098.194,220.0
5100.233,234.0
5102.273,250.0
5104.314,248.0
5106.3555,212.0
5108.398,229.0
5110.4414,244.0
5112.4854,278.0
5114.5303,245.0
5116.576,235.0
5118.6226,233.0
5120.67,234.0
5122.7183,218.0
5124.7676,241.0
5126.8174,242.0
5128.868,277.0
5130.92,301.0
5132.972,241.0
5135.0254,247.0
5137.0796,220.0
5139.1343,224.0
5141.19,232.0
5143.2466,245.0
5145.3037,341.0
5147.362,337.0
5149.421,266.0
5151.4805,248.0
5153.541,233.0
5155.6025,246.0
5157.6646,203.0
5159.7275,227.0
5161.7915,272.0
5163.8564,243.0
5165.922,248.0
5167.9883,224.0
5170.0557,238.0
5172.1235,222.0
5174.1924,227.0
5176.262,245.0
5178.3325,243.0
5180.404,250.0
5182.476,232.0
5184.549,272.0
5186.6226,233.0
5188.6973,253.0
5190.773,235.0
5192.849,227.0
5194.9263,230.0
5197.0044,225.0
5199.083,241.0
5201.1626,229.0
5203.243,287.0
5205.324,266.0
5207.4062,264.0
5209.4893,256.0
5211.573,236.0
5213.6577,260.0
5215.743,244.0
5217.8296,255.0
5219.9165,288.0
5222.0044,282.0
5224.0933,261.0
5226.183,286.0
5228.2734,241.0
5230.3647,266.0
5232.457,235.0
5234.55,248.0
5236.6436,232.0
5238.7383,271.0
5240.834,264.0
5242.93,259.0
5245.0273,239.0
5247.1255,275.0
5249.224,258.0
5251.3237,259.0
5253.4243,267.0
5255.526,295.0
5257.628,237.0
5259.731,228.0
5261.835,235.0
5263.9395,249.0
5266.045,241.0
5268.1514,250.0
5270.259,249.0
5272.3667,250.0
5274.4756,268.0
5276.5854,274.0
5278.6963,268.0
5280.8076,267.0
5282.92,276.0
5285.033,267.0
5287.147,217.0
5289.2617,255.0
5291.3774,243.0
5293.494,217.0
5295.6113,210.0
5297.7295,235.0
5299.8486,294.0
5301.9688,317.0
5304.0894,317.0
5306.211,237.0
5308.3335,237.0
5310.457,228.0
5312.581,231.0
5314.706,253.0
5316.832,340.0
5318.959,365.0
5321.0864,316.0
5323.215,260.0
5325.344,278.0
5327.4746,259.0
5329.6055,240.0
5331.7373,251.0
5333.87,265.0
5336.004,222.0
5338.138,246.0
5340.2734,237.0
5342.4097,285.0
5344.547,247.0
5346.6846,268.0
5348.823,255.0
5350.963,254.0
5353.1035,226.0
5355.2446,241.0
5357.3867,262.0
5359.53,305.0
5361.674,273.0
5363.8184,247.0
5365.964,256.0
5368.1104,241.0
5370.258,246.0
5372.406,253.0
5374.5547,300.0
5376.7046,299.0
5378.8555,254.0
5381.007,294.0
5383.159,253.0
5385.3125,251.0
5387.467,263.0
5389.6216,270.0
5391.7773,288.0
5393.934,280.0
5396.092,274.0
5398.25,302.0
5400.409,264.0
5402.5693,261.0
5404.7305,248.0
5406.8926,284.0
5409.055,296.0
5411.2188,307.0
5413.3833,291.0
5415.549,305.0
5417.715,270.0
5419.882,278.0
5422.05,269.0
5424.2188,289.0
5426.3887,272.0
5428.559,286.0
5430.7305,241.0
5432.903,255.0
5435.076,276.0
5437.25,244.0
5439.425,282.0
5441.6006,315.0
5443.7773,313.0
5445.955,296.0
5448.1333,271.0
5450.3125,273.0
5452.4927,279.0
5454.674,275.0
5456.8555,286.0
5459.038,235.0
5461.2217,294.0
5463.4062,311.0
5465.592,250.0
5467.778,272.0
5469.965,317.0
5472.153,292.0
5474.342,293.0
5476.5317,305.0
5478.722,291.0
5480.9136,269.0
5483.106,281.0
5485.2993,258.0
5487.4937,294.0
5489.6885,279.0
5491.8843,282.0
5494.081,278.0
5496.279,306.0
5498.4775,239.0
5500.677,277.0
5502.877,295.0
5505.078,295.0
5507.2803,345.0
5509.4834,318.0
5511.687,290.0
5513.8916,301.0
5516.097,270.0
5518.3037,291.0
5520.511,326.0
5522.719,318.0
5524.928,332.0
5527.138,272.0
5529.349,304.0
5531.561,252.0
5533.7734,294.0
5535.987,316.0
5538.201,315.0
5540.4165,299.0
5542.633,312.0
5544.85,311.0
5547.068,273.0
5549.2866,285.0
5551.5063,289.0
5553.727,288.0
5555.9487,299.0
5558.171,296.0
5560.394,289.0
5562.618,313.0
5564.8433,316.0
5567.0693,314.0
5569.2964,281.0
5571.524,283.0
5573.7524,291.0
5575.982,265.0
5578.2124,267.0
5580.444,295.0
5582.676,277.0
5584.9087,304.0
5587.1426,260.0
5589.3774,244.0
5591.6133,250.0
5593.85,243.0
5596.0874,239.0
5598.3257,266.0
5600.565,310.0
5602.805,278.0
5605.0464,271.0
5607.2886,286.0
5609.5312,255.0
5611.775,282.0
5614.0195,276.0
5616.265,282.0
5618.5117,250.0
5620.7593,253.0
5623.008,219.0
5625.257,261.0
5627.507,268.0
5629.758,247.0
5632.01,262.0
5634.2627,254.0
5636.5166,269.0
5638.771,279.0
5641.0264,268.0
5643.2827,281.0
5645.54,268.0
5647.7983,293.0
5650.0576,286.0
5652.318,275.0
5654.5786,274.0
5656.8403,261.0
5659.103,310.0
5661.3667,249.0
5663.6313,263.0
5665.897,270.0
5668.1636,276.0
5670.4307,281.0
5672.6987,243.0
5674.968,302.0
5677.238,270.0
5679.509,264.0
5681.781,273.0
5684.0537,270.0
5686.327,253.0
5688.6016,285.0
5690.877,296.0
5693.1533,283.0
5695.4307,283.0
5697.709,259.0
5699.9883,276.0
5702.268,282.0
5704.549,298.0
5706.8306,298.0
5709.1133,304.0
5711.397,280.0
5713.6816,289.0
5715.9673,305.0
5718.254,311.0
5720.541,313.0
5722.829,328.0
5725.118,308.0
5727.408,302.0
5729.699,328.0
5731.991,284.0
5734.284,295.0
5736.578,326.0
5738.8726,327.0
5741.168,291.0
5743.4644,297.0
5745.7617,244.0
5748.06,255.0
5750.3594,286.0
5752.6597,289.0
5754.961,326.0
5757.2627,302.0
5759.5654,311.0
5761.869,318.0
5764.174,295.0
5766.4795,295.0
5768.786,342.0
5771.0938,344.0
5773.4023,325.0
5775.712,330.0
5778.022,309.0
5780.333,346.0
5782.645,323.0
5784.958,338.0
5787.272,289.0
5789.587,341.0
5791.903,301.0
5794.2197,330.0
5796.5376,329.0
5798.8564,374.0
5801.176,366.0
5803.496,329.0
5805.8174,396.0
5808.1396,345.0
5810.463,308.0
5812.787,383.0
5815.1123,346.0
5817.4385,353.0
5819.7656,365.0
5822.0938,389.0
5824.4224,372.0
5826.752,356.0
5829.0825,356.0
5831.414,385.0
5833.7466,396.0
5836.08,418.0
5838.4146,424.0
5840.75,424.0
5843.0864,343.0
5845.424,399.0
5847.762,390.0
5850.101,372.0
5852.441,411.0
5854.7817,416.0
5857.1235,356.0
5859.4663,350.0
5861.81,396.0
5864.155,394.0
5866.5005,408.0
5868.847,395.0
5871.195,388.0
5873.5435,368.0
5875.893,388.0
5878.2437,401.0
5880.5947,396.0
5882.947,402.0
5885.3,402.0
5887.654,445.0
5890.009,418.0
5892.3647,388.0
5894.7217,369.0
5897.0796,403.0
5899.4385,410.0
5901.7983,432.0
5904.159,421.0
5906.521,420.0
5908.884,473.0
5911.2476,429.0
5913.612,417.0
5915.977,410.0
5918.3433,417.0
5920.7104,390.0
5923.0786,418.0
5925.4478,439.0
5927.818,440.0
5930.189,490.0
5932.561,468.0
5934.934,491.0
5937.308,412.0
5939.683,427.0
5942.059,492.0
5944.436,516.0
5946.814,499.0
5949.193,510.0
5951.5728,464.0
5953.9536,438.0
5956.335,474.0
5958.7173,503.0
5961.1006,524.0
5963.485,497.0
5965.87,501.0
5968.2563,542.0
5970.6436,493.0
5973.0317,483.0
5975.421,505.0
5977.811,587.0
5980.202,537.0
5982.594,499.0
5984.9873,494.0
5987.3813,496.0
5989.7764,461.0
5992.1724,536.0
5994.5693,574.0
5996.9673,480.0
5999.366,485.0
6001.766,563.0
6004.167,608.0
6006.569,513.0
6008.9717,550.0
6011.3755,594.0
6013.7803,534.0
6016.1855,540.0
6018.592,605.0
6020.999,542.0
6023.407,460.0
6025.8164,457.0
6028.2266,476.0
6030.6377,496.0
6033.05,492.0
6035.463,518.0
6037.877,514.0
6040.292,494.0
6042.708,459.0
6045.125,507.0
6047.543,497.0
6049.962,456.0
6052.382,437.0
6054.8027,389.0
6057.2246,388.0
6059.6475,467.0
6062.0713,569.0
6064.496,575.0
6066.922,466.0
6069.3486,444.0
6071.7764,412.0
6074.205,442.0
6076.635,435.0
6079.0654,451.0
6081.497,434.0
6083.9297,494.0
6086.3633,409.0
6088.798,453.0
6091.2334,457.0
6093.67,434.0
6096.1074,419.0
6098.546,427.0
6100.9854,464.0
6103.426,454.0
6105.867,407.0
6108.3096,499.0
6110.753,462.0
6113.1973,501.0
6115.6426,519.0
6118.089,497.0
6120.536,462.0
6122.9844,442.0
6125.4336,437.0
6127.884,542.0
6130.335,600.0
6132.787,597.0
6135.24,544.0
6137.6943,531.0
6140.1494,511.0
6142.6055,558.0
6145.0625,563.0
6147.5205,639.0
6149.9795,725.0
6152.4395,600.0
6154.9004,623.0
6157.3623,685.0
6159.825,721.0
6162.289,640.0
6164.754,576.0
6167.2197,545.0
6169.6865,530.0
6172.1543,634.0
6174.623,978.0
6177.093,1004.0
6179.5635,736.0
6182.035,607.0
6184.508,583.0
6186.9814,582.0
6189.456,664.0
6191.9316,1022.0
6194.408,1248.0
6196.8857,913.0
6199.3643,745.0
6201.844,710.0
6204.325,678.0
6206.807,604.0
6209.29,582.0
6211.774,592.0
6214.259,690.0
6216.7446,719.0
6219.2314,729.0
6221.719,614.0
6224.208,559.0
6226.6978,570.0
6229.1885,722.0
6231.68,810.0
6234.173,712.0
6236.6665,608.0
6239.161,617.0
6241.6567,599.0
6244.1533,609.0
6246.651,764.0
6249.1494,845.0
6251.649,680.0
6254.1494,762.0
6256.651,870.0
6259.1533,791.0
6261.6567,695.0
6264.1616,619.0
6266.6675,528.0
6269.1743,547.0
6271.682,989.0
6274.191,1494.0
6276.7007,1101.0
6279.2114,619.0
6281.723,521.0
6284.236,508.0
6286.7495,551.0
6289.264,1404.0
6291.78,1951.0
6294.2964,1381.0
6296.814,867.0
6299.3325,573.0
6301.852,490.0
6304.3726,484.0
6306.8945,540.0
6309.4175,558.0
6311.9414,571.0
6314.4663,574.0
6316.992,478.0
6319.519,434.0
6322.047,474.0
6324.5757,498.0
6327.1055,447.0
6329.636,453.0
6332.168,452.0
6334.7007,489.0
6337.2344,410.0
6339.769,393.0
6342.305,435.0
6344.8423,432.0
6347.3804,459.0
6349.9194,424.0
6352.4595,426.0
6355.0005,419.0
6357.5425,435.0
6360.0854,433.0
6362.6294,461.0
6365.1743,459.0
6367.72,435.0
6370.267,473.0
6372.8154,461.0
6375.3647,460.0
6377.915,463.0
6380.4663,462.0
6383.0186,410.0
6385.572,473.0
6388.126,513.0
6390.681,475.0
6393.2373,453.0
6395.7944,450.0
6398.3525,389.0
6400.912,485.0
6403.4727,509.0
6406.034,525.0
6408.5967,472.0
6411.16,443.0
6413.7246,488.0
6416.29,447.0
6418.8564,468.0
6421.424,438.0
6423.992,432.0
6426.562,428.0
6429.133,531.0
6431.7046,476.0
6434.2773,505.0
6436.851,474.0
6439.426,452.0
6442.0015,496.0
6444.578,491.0
6447.156,558.0
6449.735,528.0
6452.315,460.0
6454.896,476.0
6457.478,471.0
6460.061,503.0
6462.645,486.0
6465.23,453.0
6467.816,456.0
6470.403,492.0
6472.991,485.0
6475.5806,461.0
6478.171,464.0
6480.762,450.0
6483.3545,471.0
6485.9478,479.0
6488.542,504.0
6491.137,496.0
6493.734,501.0
6496.3315,493.0
6498.93,526.0
6501.53,498.0
6504.1304,513.0
6506.732,481.0
6509.3345,501.0
6511.938,546.0
6514.543,551.0
6517.149,522.0
6519.756,476.0
6522.364,584.0
6524.9727,601.0
6527.5825,577.0
6530.1934,586.0
6532.8057,583.0
6535.419,506.0
6538.033,577.0
6540.6484,690.0
6543.2646,643.0
6545.882,601.0
6548.5,664.0
6551.1196,567.0
6553.74,569.0
6556.362,674.0
6558.9844,749.0
6561.608,719.0
6564.2324,603.0
6566.858,608.0
6569.485,556.0
6572.113,574.0
6574.7417,659.0
6577.3716,710.0
6580.0024,627.0
6582.6343,623.0
6585.267,558.0
6587.9014,651.0
6590.5366,643.0
6593.173,633.0
6595.81,649.0
6598.448,595.0
6601.0874,593.0
6603.728,593.0
6606.3696,639.0
6609.012,604.0
6611.656,636.0
6614.3003,661.0
6616.946,596.0
6619.593,628.0
6622.2407,629.0
6624.8896,617.0
6627.5396,593.0
6630.1904,637.0
6632.8423,590.0
6635.4956,569.0
6638.15,674.0
6640.805,760.0
6643.4614,626.0
6646.1187,620.0
6648.7773,573.0
6651.437,575.0
6654.0977,655.0
6656.7593,766.0
6659.422,680.0
6662.0854,613.0
6664.7505,617.0
6667.4165,561.0
6670.0835,557.0
6672.7515,538.0
6675.4204,590.0
6678.091,588.0
6680.762,647.0
6683.4346,563.0
6686.108,498.0
6688.782,568.0
6691.4575,570.0
6694.1343,591.0
6696.812,621.0
6699.4907,634.0
6702.1704,615.0
6704.851,589.0
6707.533,636.0
6710.2163,602.0
6712.9004,587.0
6715.5854,718.0
6718.2715,655.0
6720.959,640.0
6723.6475,709.0
6726.337,745.0
6729.0273,672.0
6731.7188,688.0
6734.4116,657.0
6737.1055,703.0
6739.8003,794.0
6742.496,866.0
6745.193,764.0
6747.891,700.0
6750.5903,637.0
6753.2905,648.0
6755.9917,821.0
6758.6943,966.0
6761.398,944.0
6764.1025,836.0
6766.808,766.0
6769.5146,721.0
6772.2227,730.0
6774.9316,734.0
6777.6416,854.0
6780.3525,813.0
6783.0645,871.0
6785.778,837.0
6788.492,793.0
6791.2075,867.0
6793.924,763.0
6796.6416,698.0
6799.3604,729.0
6802.08,732.0
6804.801,685.0
6807.5225,948.0
6810.2456,966.0
6812.9697,785.0
6815.695,677.0
6818.421,587.0
6821.1484,699.0
6823.877,849.0
6826.6064,935.0
6829.337,812.0
6832.069,636.0
6834.802,589.0
6837.5356,585.0
6840.2705,818.0
6843.007,1120.0
6845.744,1043.0
6848.4824,722.0
6851.2217,622.0
6853.9624,613.0
6856.704,709.0
6859.447,844.0
6862.1904,734.0
6864.9355,683.0
6867.6816,656.0
6870.4287,646.0
6873.177,609.0
6875.9263,600.0
6878.677,584.0
6881.428,590.0
6884.1807,613.0
6886.9346,593.0
6889.6895,585.0
6892.4453,574.0
6895.202,618.0
6897.9604,617.0
6900.7197,620.0
6903.48,660.0
6906.241,604.0
6909.004,605.0
6911.7676,751.0
6914.532,733.0
6917.298,641.0
6920.065,716.0
6922.833,601.0
6925.602,647.0
6928.372,663.0
6931.1436,691.0
6933.916,605.0
6936.6895,593.0
6939.4644,631.0
6942.24,595.0
6945.017,675.0
6947.795,760.0
6950.574,650.0
6953.3545,714.0
6956.1357,726.0
6958.918,680.0
6961.7017,615.0
6964.4863,641.0
6967.272,684.0
6970.059,608.0
6972.847,703.0
6975.636,711.0
6978.4263,745.0
6981.218,796.0
6984.0103,805.0
6986.8037,716.0
6989.5986,731.0
6992.3945,709.0
6995.1914,823.0
6997.9893,873.0
7000.7886,994.0
7003.589,821.0
7006.39,830.0
7009.193,838.0
7011.9966,809.0
7014.8013,887.0
7017.6074,1009.0
7020.4146,1019.0
7023.2227,1058.0
7026.0317,1170.0
7028.8423,1007.0
7031.654,822.0
7034.4663,678.0
7037.2803,723.0
7040.095,979.0
7042.911,1399.0
7045.7285,1206.0
7048.547,799.0
7051.366,684.0
7054.1865,744.0
7057.0083,1048.0
7059.831,1810.0
7062.655,1678.0
7065.48,1115.0
7068.306,853.0
7071.1333,715.0
7073.962,764.0
7076.7915,752.0
7079.622,800.0
7082.454,855.0
7085.287,797.0
7088.121,696.0
7090.9565,735.0
7093.793,834.0
7096.6304,907.0
7099.469,916.0
7102.309,792.0
7105.15,849.0
7107.992,885.0
7110.8354,938.0
7113.6797,997.0
7116.5254,951.0
7119.372,895.0
7122.2197,1030.0
7125.069,1134.0
7127.919,1053.0
7130.77,996.0
7133.6226,917.0
7136.476,988.0
7139.3306,1299.0
7142.1865,1351.0
7145.0435,1196.0
7147.9014,1082.0
7150.7607,1024.0
7153.621,1159.0
7156.4824,1529.0
7159.345,1620.0
7162.209,1373.0
7165.0737,1143.0
7167.94,1195.0
7170.807,1345.0
7173.6753,1392.0
7176.545,1272.0
7179.4155,1293.0
7182.287,1205.0
7185.16,1096.0
7188.034,1271.0
7190.909,1262.0
7193.7856,1183.0
7196.663,1588.0
7199.542,1746.0
7202.422,1272.0
7205.3027,932.0
7208.185,862.0
7211.0684,1142.0
7213.9526,2150.0
7216.8384,2030.0
7219.725,1284.0
7222.613,911.0
7225.502,859.0
7228.392,1272.0
7231.283,2864.0
7234.176,2949.0
7237.0693,1735.0
7239.9644,944.0
7242.8604,874.0
7245.7573,829.0
7248.656,903.0
7251.555,884.0
7254.4556,968.0
7257.3574,898.0
7260.2603,784.0
7263.1646,734.0
7266.07,704.0
7268.976,857.0
7271.884,773.0
7274.7925,704.0
7277.7026,767.0
7280.614,712.0
7283.526,690.0
7286.4395,874.0
7289.354,735.0
7292.2695,712.0
7295.1865,939.0
7298.1045,836.0
7301.024,713.0
7303.9443,699.0
7306.8657,705.0
7309.7886,790.0
7312.7124,1082.0
7315.6377,977.0
7318.564,781.0
7321.491,652.0
7324.42,651.0
7327.3496,806.0
7330.281,1192.0
7333.213,1084.0
7336.146,813.0
7339.0806,697.0
7342.016,651.0
7344.953,712.0
7347.891,834.0
7350.83,766.0
7353.7705,753.0
7356.712,720.0
7359.655,630.0
7362.5986,581.0
7365.5435,600.0
7368.4897,629.0
7371.437,606.0
7374.3857,681.0
7377.3354,608.0
7380.2866,605.0
7383.239,624.0
7386.192,610.0
7389.1465,580.0
7392.102,566.0
7395.059,515.0
7398.017,723.0
7400.976,685.0
7403.9365,621.0
7406.898,554.0
7409.861,457.0
7412.8247,482.0
7415.79,633.0
7418.7563,706.0
7421.7236,601.0
7424.6924,556.0
7427.662,548.0
7430.6333,528.0
7433.6055,687.0
7436.579,681.0
7439.5537,564.0
7442.5293,582.0
7445.5063,446.0
7448.4844,452.0
7451.464,463.0
7454.4443,480.0
7457.4263,490.0
7460.409,487.0
7463.3936,468.0
7466.379,448.0
7469.365,449.0
7472.353,486.0
7475.342,457.0
7478.332,444.0
7481.323,426.0
7484.316,545.0
7487.3096,573.0
7490.3047,530.0
7493.301,442.0
7496.2983,392.0
7499.297,452.0
7502.2964,500.0
7505.2974,472.0
7508.2993,461.0
7511.3027,421.0
7514.307,419.0
7517.313,422.0
7520.32,393.0
7523.328,458.0
7526.3374,441.0
7529.348,510.0
7532.36,472.0
7535.373,433.0
7538.387,420.0
7541.4023,426.0
7544.419,540.0
7547.4365,553.0
7550.4556,442.0
7553.4756,403.0
7556.497,407.0
7559.5195,411.0
7562.5435,554.0
7565.5684,584.0
7568.5947,467.0
7571.622,421.0
7574.651,419.0
7577.6807,387.0
7580.712,423.0
7583.744,438.0
7586.778,454.0
7589.8125,408.0
7592.8486,359.0
7595.8857,417.0
7598.9243,436.0
7601.964,422.0
7605.005,409.0
7608.047,344.0
7611.0903,393.0
7614.135,448.0
7617.18,503.0
7620.227,470.0
7623.275,381.0
7626.324,380.0
7629.3745,416.0
7632.4263,436.0
7635.479,389.0
7638.533,403.0
7641.5884,426.0
7644.645,397.0
7647.7026,378.0
7650.7617,363.0
7653.8223,401.0
7656.884,438.0
7659.947,434.0
7663.0107,409.0
7666.076,461.0
7669.1426,409.0
7672.2104,431.0
7675.2793,422.0
7678.3496,392.0
7681.421,418.0
7684.4937,434.0
7687.5674,498.0
7690.6426,436.0
7693.7188,471.0
7696.7964,460.0
7699.875,465.0
7702.955,514.0
7706.036,473.0
7709.1187,515.0
7712.202,503.0
7715.287,504.0
7718.373,516.0
7721.4604,507.0
7724.549,537.0
7727.6387,588.0
7730.7295,586.0
7733.822,506.0
7736.9155,555.0
7740.0103,536.0
7743.1064,565.0
7746.2036,600.0
7749.3022,652.0
7752.402,623.0
7755.503,640.0
7758.605,569.0
7761.7085,620.0
7764.813,602.0
7767.919,627.0
7771.026,745.0
7774.1343,717.0
7777.244,606.0
7780.355,607.0
7783.4673,600.0
7786.5806,757.0
7789.6953,793.0
7792.811,802.0
7795.928,695.0
7799.0464,651.0
7802.166,664.0
7805.287,664.0
7808.409,717.0
7811.5327,828.0
7814.657,811.0
7817.783,701.0
7820.91,604.0
7824.0386,711.0
7827.168,951.0
7830.299,955.0
7833.431,742.0
7836.5645,670.0
7839.699,645.0
7842.835,837.0
7845.972,1045.0
7849.1104,920.0
7852.25,739.0
7855.391,771.0
7858.533,750.0
7861.677,755.0
7864.8213,725.0
7867.9673,736.0
7871.1143,713.0
7874.2627,753.0
7877.4126,728.0
7880.5635,780.0
7883.716,842.0
7886.869,837.0
7890.024,667.0
7893.18,710.0
7896.3374,743.0
7899.496,1036.0
7902.656,1012.0
7905.817,858.0
7908.979,728.0
7912.1426,800.0
7915.3076,1104.0
7918.4736,1302.0
7921.641,1121.0
7924.8096,881.0
7927.9795,840.0
7931.151,841.0
7934.323,812.0
7937.497,961.0
7940.672,977.0
7943.848,993.0
7947.026,945.0
7950.2046,944.0
7953.385,1017.0
7956.566,1082.0
7959.7485,964.0
7962.9326,1011.0
7966.1177,1067.0
7969.304,1249.0
7972.4917,1282.0
7975.6807,1145.0
7978.871,1135.0
7982.0625,1146.0
7985.2554,1390.0
7988.4497,1531.0
7991.645,1371.0
7994.842,1312.0
7998.0396,1273.0
8001.239,1463.0
8004.4395,1729.0
8007.641,1786.0
8010.844,1580.0
8014.0483,1540.0
8017.254,1644.0
8020.461,1665.0
8023.669,1725.0
8026.8784,1803.0
8030.0894,1692.0
8033.3013,1940.0
8036.5146,2095.0
8039.7295,2274.0
8042.9453,2221.0
8046.1626,2145.0
8049.381,2200.0
8052.6006,2326.0
8055.822,2796.0
8059.044,2921.0
8062.2676,2635.0
8065.4927,2935.0
8068.7188,3044.0
8071.9463,3122.0
8075.1753,3258.0
8078.4053,3397.0
8081.6367,4097.0
8084.869,4368.0
8088.103,4028.0
8091.3384,3785.0
8094.5747,3603.0
8097.8125,4765.0
8101.052,6150.0
8104.292,5941.0
8107.5337,5471.0
8110.777,4961.0
8114.021,4584.0
8117.2666,6001.0
8120.5137,7582.0
8123.7617,7582.0
8127.011,7894.0
8130.262,6659.0
8133.514,5884.0
8136.7676,6691.0
8140.0225,8572.0
8143.2783,11582.0
8146.5356,10662.0
8149.7944,8108.0
8153.054,9441.0
8156.3154,9220.0
8159.578,10226.0
8162.842,12581.0
8166.107,11969.0
8169.3735,17906.0
8172.641,17005.0
8175.91,10179.0
8179.1807,5826.0
8182.452,7572.0
8185.725,27020.0
8188.9995,33970.0
8192.275,15723.0
8195.553,7022.0
8198.831,5884.0
8202.11,26362.0
8205.392,61874.0
8208.674,36948.0
8211.957,13003.0
8215.242,5703.0
8218.528,4506.0
8221.815,4379.0
8225.1045,6272.0
8228.395,7804.0
8231.686,5335.0
8234.979,3001.0
8238.272,2206.0
8241.567,2477.0
8244.864,2621.0
8248.162,2721.0
8251.461,2359.0
8254.762,1911.0
8258.063,1631.0
8261.367,1577.0
8264.672,1641.0
8267.978,1741.0
8271.285,1760.0
8274.594,1617.0
8277.903,1362.0
8281.215,1297.0
8284.527,1410.0
8287.841,1580.0
8291.156,1552.0
8294.473,1436.0
8297.79,1309.0
8301.109,1367.0
8304.43,1524.0
8307.751,1600.0
8311.074,1542.0
8314.398,1676.0
8317.725,1607.0
8321.052,1397.0
8324.38,1316.0
8327.71,1501.0
8331.041,2127.0
8334.373,1854.0
8337.707,1429.0
8341.042,1312.0
8344.378,1541.0
8347.716,2226.0
8351.055,2292.0
8354.3955,1745.0
8357.737,1601.0
8361.08,1502.0
8364.425,1328.0
8367.7705,1260.0
8371.117,1367.0
8374.466,1745.0
8377.815,1813.0
8381.167,1322.0
8384.52,1026.0
8387.873,1162.0
8391.229,1518.0
8394.585,1806.0
8397.942,1464.0
8401.302,1074.0
8404.662,1067.0
8408.024,1178.0
8411.388,1057.0
8414.752,1088.0
8418.118,1075.0
8421.485,996.0
8424.854,840.0
8428.224,880.0
8431.595,1076.0
8434.968,975.0
8438.342,926.0
8441.717,929.0
8445.094,915.0
8448.472,956.0
8451.851,934.0
8455.231,1002.0
8458.613,1018.0
8461.997,1036.0
8465.382,1106.0
8468.768,1162.0
8472.155,1121.0
8475.544,1195.0
8478.935,1083.0
8482.326,1146.0
8485.719,1308.0
8489.113,1470.0
8492.509,1683.0
8495.906,1357.0
8499.305,1419.0
8502.704,1554.0
8506.105,1772.0
8509.508,1979.0
8512.911,1744.0
8516.316,1950.0
8519.723,2178.0
8523.131,1838.0
8526.54,2084.0
8529.95,2093.0
8533.362,2901.0
8536.775,3530.0
8540.19,2435.0
8543.606,1548.0
8547.023,1457.0
8550.442,3602.0
8553.862,4904.0
8557.284,2909.0
8560.707,1770.0
8564.131,1571.0
8567.557,4079.0
8570.983,7459.0
8574.412,4673.0
8577.842,2527.0
8581.272,1701.0
8584.705,1306.0
8588.139,1184.0
8591.574,1694.0
8595.011,2047.0
8598.449,1825.0
8601.889,1100.0
8605.329,915.0
8608.771,901.0
8612.215,820.0
8615.66,889.0
8619.106,866.0
8622.554,813.0
8626.003,735.0
8629.453,685.0
8632.905,711.0
8636.358,763.0
8639.8125,775.0
8643.269,720.0
8646.726,706.0
8650.185,723.0
8653.645,741.0
8657.106,683.0
8660.569,742.0
8664.033,756.0
8667.499,741.0
8670.966,763.0
8674.435,731.0
8677.904,841.0
8681.375,791.0
8684.848,824.0
8688.321,758.0
8691.797,819.0
8695.273,963.0
8698.752,915.0
8702.231,905.0
8705.712,847.0
8709.194,951.0
8712.678,1028.0
8716.163,1110.0
8719.649,971.0
8723.138,962.0
8726.627,1008.0
8730.117,1022.0
8733.609,1047.0
8737.103,1104.0
8740.598,1246.0
8744.094,1088.0
8747.592,1133.0
8751.091,1234.0
8754.591,1333.0
8758.093,1391.0
8761.596,1183.0
8765.101,1269.0
8768.606,1404.0
8772.114,1627.0
8775.623,1586.0
8779.133,1491.0
8782.645,1524.0
8786.157,1584.0
8789.672,1593.0
8793.1875,1694.0
8796.705,2168.0
8800.224,2263.0
8803.744,1707.0
8807.266,1349.0
8810.788,1550.0
8814.3125,2903.0
8817.838,3123.0
8821.365,2002.0
8824.894,1623.0
8828.424,1757.0
8831.955,3242.0
8835.488,3468.0
8839.022,2609.0
8842.558,2089.0
8846.095,1717.0
8849.633,1513.0
8853.173,1590.0
8856.714,2384.0
8860.257,2725.0
8863.801,1991.0
8867.347,1537.0
8870.894,1643.0
8874.442,2589.0
8877.992,3356.0
8881.543,2584.0
8885.096,1941.0
8888.649,1644.0
8892.205,1507.0
8895.762,1665.0
8899.32,2213.0
8902.88,2280.0
8906.441,1730.0
8910.004,1333.0
8913.568,1588.0
8917.134,2631.0
8920.7,2442.0
8924.269,1639.0
8927.838,1499.0
8931.409,1739.0
8934.981,2886.0
8938.556,2595.0
8942.131,1917.0
8945.708,1590.0
8949.286,1411.0
8952.866,1149.0
8956.447,1358.0
8960.03,1713.0
8963.614,1532.0
8967.199,1259.0
8970.786,1082.0
8974.374,1221.0
8977.964,1373.0
8981.555,1312.0
8985.147,1162.0
8988.741,1055.0
8992.337,1208.0
8995.934,1231.0
8999.532,1177.0
9003.132,1109.0
9006.733,1208.0
9010.336,1199.0
9013.94,1096.0
9017.546,1145.0
9021.153,1042.0
9024.762,1245.0
9028.372,1192.0
9031.983,1153.0
9035.597,931.0
9039.211,1035.0
9042.826,1256.0
9046.443,1179.0
9050.062,991.0
9053.682,913.0
9057.303,1107.0
9060.926,1506.0
9064.55,1257.0
9068.176,935.0
9071.803,840.0
9075.432,1115.0
9079.062,1230.0
9082.693,1108.0
9086.326,886.0
9089.961,869.0
9093.597,1029.0
9097.234,1100.0
9100.873,1046.0
9104.514,942.0
9108.155,822.0
9111.799,755.0
9115.443,766.0
9119.09,862.0
9122.737,1012.0
9126.387,833.0
9130.037,731.0
9133.689,725.0
9137.343,915.0
9140.998,1018.0
9144.654,894.0
9148.3125,780.0
9151.972,758.0
9155.633,737.0
9159.295,741.0
9162.959,1044.0
9166.624,1037.0
9170.291,786.0
9173.959,598.0
9177.629,837.0
9181.3,1254.0
9184.973,1167.0
9188.646,860.0
9192.322,709.0
9195.999,946.0
9199.678,1278.0
9203.357,959.0
9207.039,941.0
9210.722,735.0
9214.406,564.0
9218.092,532.0
9221.779,766.0
9225.468,966.0
9229.158,776.0
9232.85,567.0
9236.543,462.0
9240.237,793.0
9243.934,1008.0
9247.631,777.0
9251.33,580.0
9255.03,424.0
9258.732,371.0
9262.436,494.0
9266.141,620.0
9269.847,525.0
9273.555,401.0
9277.264,353.0
9280.975,423.0
9284.687,430.0
9288.4,413.0
9292.116,367.0
9295.833,329.0
9299.552,343.0
9303.271,362.0
9306.993,350.0
9310.716,365.0
9314.44,294.0
9318.166,289.0
9321.894,308.0
9325.622,336.0
9329.353,302.0
9333.084,302.0
9336.817,269.0
9340.552,334.0
9344.288,311.0
9348.025,297.0
9351.765,279.0
9355.505,260.0
9359.247,294.0
9362.991,303.0
9366.736,286.0
9370.483,276.0
9374.231,276.0
9377.981,264.0
9381.732,244.0
9385.485,265.0
9389.239,247.0
9392.995,305.0
9396.752,281.0
9400.511,289.0
9404.2705,233.0
9408.032,278.0
9411.796,270.0
9415.561,301.0
9419.327,291.0
9423.095,255.0
9426.864,304.0
9430.635,289.0
9434.407,245.0
9438.181,214.0
9441.956,295.0
9445.732,325.0
9449.511,264.0
9453.291,241.0
9457.072,249.0
9460.855,311.0
9464.64,289.0
9468.426,289.0
9472.213,243.0
9476.002,217.0
9479.792,218.0
9483.584,221.0
9487.377,275.0
9491.172,258.0
9494.969,221.0
9498.767,227.0
9502.566,218.0
9506.367,292.0
9510.17,258.0
9513.974,252.0
9517.779,215.0
9521.586,211.0
9525.395,225.0
9529.205,253.0
9533.017,243.0
9536.83,202.0
9540.645,217.0
9544.461,227.0
9548.278,239.0
9552.098,289.0
9555.919,213.0
9559.741,187.0
9563.565,167.0
9567.391,231.0
9571.218,201.0
9575.046,217.0
9578.876,161.0
9582.708,152.0
9586.541,189.0
9590.376,206.0
9594.212,191.0
9598.05,184.0
9601.889,161.0
9605.7295,154.0
9609.572,164.0
9613.416,191.0
9617.262,164.0
9621.108,165.0
9624.957,162.0
9628.807,166.0
9632.658,178.0
9636.512,184.0
9640.366,161.0
9644.223,155.0
9648.08,157.0
9651.939,142.0
9655.8,157.0
9659.662,137.0
9663.526,155.0
9667.392,136.0
9671.259,130.0
9675.127,140.0
9678.997,148.0
9682.869,138.0
9686.742,135.0
9690.617,145.0
9694.493,162.0
9698.371,112.0
9702.25,137.0
9706.131,122.0
9710.014,99.0
9713.897,156.0
9717.783,131.0
9721.67,122.0
9725.559,136.0
9729.449,140.0
9733.341,141.0
9737.234,134.0
9741.129,139.0
9745.025,114.0
9748.924,138.0
9752.823,133.0
9756.725,145.0
9760.627,132.0
9764.531,143.0
9768.4375,133.0
9772.345,147.0
9776.254,128.0
9780.164,145.0
9784.076,144.0
9787.99,141.0
9791.905,120.0
9795.822,146.0
9799.74,126.0
9803.66,128.0
9807.582,149.0
9811.505,156.0
9815.43,146.0
9819.355,128.0
9823.283,147.0
9827.213,139.0
9831.144,134.0
9835.076,145.0
9839.01,145.0
9842.945,153.0
9846.883,170.0
9850.821,149.0
9854.762,168.0
9858.704,127.0
9862.647,122.0
9866.593,140.0
9870.539,158.0
9874.487,122.0
9878.4375,141.0
9882.389,139.0
9886.342,132.0
9890.296,124.0
9894.252,149.0
9898.21,157.0
9902.169,143.0
9906.13,160.0
9910.093,161.0
9914.057,150.0
9918.022,143.0
9921.989,137.0
9925.958,152.0
9929.929,155.0
9933.9,144.0
9937.874,141.0
9941.85,146.0
9945.826,118.0
9949.805,153.0
9953.784,141.0
9957.766,151.0
9961.749,140.0
9965.733,138.0
9969.72,146.0
9973.708,120.0
9977.697,158.0
9981.688,133.0
9985.681,146.0
9989.675,113.0
9993.671,130.0
9997.668,152.0
10001.667,127.0
10005.668,126.0
10009.67,129.0
10013.674,128.0
10017.68,124.0
10021.687,152.0
10025.695,149.0
10029.706,166.0
10033.718,119.0
10037.731,154.0
10041.746,154.0
10045.763,139.0
10049.781,130.0
10053.801,134.0
10057.822,158.0
10061.846,133.0
10065.87,128.0
10069.896,158.0
10073.925,141.0
10077.954,149.0
10081.985,112.0
10086.019,137.0
10090.053,129.0
10094.089,148.0
10098.127,131.0
10102.166,184.0
10106.207,129.0
10110.25,122.0
10114.294,134.0
10118.34,134.0
10122.387,135.0
10126.436,160.0
10130.486,131.0
10134.538,138.0
10138.592,134.0
10142.647,149.0
10146.704,151.0
10150.763,115.0
10154.823,152.0
10158.885,143.0
10162.948,145.0
10167.014,168.0
10171.08,141.0
10175.148,140.0
10179.219,126.0
10183.29,144.0
10187.363,134.0
10191.438,136.0
10195.515,153.0
10199.593,156.0
10203.673,146.0
10207.754,158.0
10211.837,132.0
10215.922,153.0
10220.008,153.0
10224.096,130.0
10228.186,132.0
10232.276,128.0
10236.369,125.0
10240.464,126.0
10244.56,150.0
10248.657,142.0
10252.757,121.0
10256.858,158.0
10260.961,141.0
10265.065,139.0
10269.172,156.0
10273.279,160.0
10277.389,152.0
10281.5,159.0
10285.612,136.0
10289.727,130.0
10293.843,147.0
10297.96,123.0
10302.079,168.0
10306.2,150.0
10310.322,134.0
10314.446,165.0
10318.572,135.0
10322.699,141.0
10326.828,165.0
10330.959,140.0
10335.092,164.0
10339.226,159.0
10343.361,158.0
10347.499,145.0
10351.638,154.0
10355.778,161.0
10359.921,156.0
10364.064,165.0
10368.21,132.0
10372.357,166.0
10376.507,168.0
10380.657,161.0
10384.81,150.0
10388.964,139.0
10393.119,161.0
10397.276,170.0
10401.436,146.0
10405.596,141.0
10409.758,164.0
10413.922,159.0
10418.088,158.0
10422.255,146.0
10426.424,147.0
10430.595,144.0
10434.767,165.0
10438.94,142.0
10443.116,142.0
10447.294,158.0
10451.473,156.0
10455.653,172.0
10459.836,169.0
10464.02,155.0
10468.205,162.0
10472.393,151.0
10476.581,185.0
10480.771,133.0
10484.964,155.0
10489.158,127.0
10493.354,137.0
10497.551,148.0
10501.75,157.0
10505.951,150.0
10510.153,180.0
10514.357,157.0
10518.563,179.0
10522.7705,151.0
10526.9795,150.0
10531.19,160.0
10535.403,149.0
10539.617,162.0
10543.833,162.0
10548.051,140.0
10552.27,162.0
10556.49,160.0
10560.713,142.0
10564.9375,147.0
10569.163,156.0
10573.391,172.0
10577.62,157.0
10581.852,165.0
10586.084,162.0
10590.318,170.0
10594.555,174.0
10598.793,155.0
10603.032,150.0
10607.273,156.0
10611.517,130.0
10615.761,143.0
10620.007,157.0
10624.255,146.0
10628.505,145.0
10632.756,165.0
10637.009,143.0
10641.264,185.0
10645.5205,159.0
10649.778,170.0
10654.038,146.0
10658.3,164.0
10662.563,152.0
10666.828,152.0
10671.095,158.0
10675.363,169.0
10679.634,152.0
10683.905,159.0
10688.179,160.0
10692.454,152.0
10696.731,167.0
10701.01,151.0
10705.29,156.0
10709.572,153.0
10713.856,202.0
10718.142,145.0
10722.429,180.0
10726.718,164.0
10731.009,142.0
10735.301,179.0
10739.595,191.0
10743.891,177.0
10748.188,167.0
10752.487,145.0
10756.788,201.0
10761.091,179.0
10765.3955,160.0
10769.702,179.0
10774.01,155.0
10778.319,162.0
10782.631,163.0
10786.944,147.0
10791.259,184.0
10795.575,173.0
10799.894,178.0
10804.214,138.0
10808.535,181.0
10812.858,173.0
10817.184,154.0
10821.511,169.0
10825.839,158.0
10830.169,172.0
10834.501,164.0
10838.835,165.0
10843.171,198.0
10847.508,170.0
10851.847,144.0
10856.1875,207.0
10860.53,172.0
10864.874,185.0
10869.22,172.0
10873.567,197.0
10877.917,155.0
10882.269,184.0
10886.621,169.0
10890.976,194.0
10895.332,173.0
10899.69,176.0
10904.051,206.0
10908.412,175.0
10912.775,190.0
10917.141,171.0
10921.508,183.0
10925.876,171.0
10930.246,191.0
10934.618,195.0
10938.992,223.0
10943.368,180.0
10947.745,183.0
10952.124,180.0
10956.505,178.0
10960.888,182.0
10965.272,211.0
10969.658,177.0
10974.046,179.0
10978.436,197.0
10982.827,180.0
10987.221,218.0
10991.615,227.0
10996.012,187.0
11000.41,201.0
11004.811,207.0
11009.213,167.0
11013.616,198.0
11018.021,189.0
11022.429,196.0
11026.838,214.0
11031.249,224.0
11035.661,188.0
11040.075,191.0
11044.491,187.0
11048.909,201.0
11053.329,183.0
11057.75,195.0
11062.173,219.0
11066.598,199.0
11071.024,210.0
11075.453,215.0
11079.884,214.0
11084.315,206.0
11088.749,193.0
11093.185,214.0
11097.622,198.0
11102.062,218.0
11106.502,206.0
11110.944,210.0
11115.389,226.0
11119.835,215.0
11124.283,226.0
11128.733,201.0
11133.185,217.0
11137.638,214.0
11142.093,243.0
11146.55,233.0
11151.009,234.0
11155.469,231.0
11159.931,227.0
11164.395,245.0
11168.86,245.0
11173.328,253.0
11177.798,212.0
11182.269,227.0
11186.741,233.0
11191.216,241.0
11195.692,201.0
11200.171,239.0
11204.651,242.0
11209.133,219.0
11213.616,219.0
11218.102,254.0
11222.589,233.0
11227.078,221.0
11231.569,252.0
11236.062,232.0
11240.556,243.0
11245.052,223.0
11249.55,251.0
11254.05,255.0
11258.552,251.0
11263.056,254.0
11267.561,280.0
11272.067,273.0
11276.576,251.0
11281.087,264.0
11285.6,253.0
11290.114,302.0
11294.63,295.0
11299.147,318.0
11303.667,297.0
11308.188,248.0
11312.712,295.0
11317.237,294.0
11321.765,318.0
11326.293,293.0
11330.823,339.0
11335.355,314.0
11339.89,316.0
11344.426,346.0
11348.964,333.0
11353.504,353.0
11358.045,327.0
11362.588,375.0
11367.133,356.0
11371.68,371.0
11376.229,385.0
11380.779,414.0
11385.332,398.0
11389.886,371.0
11394.441,380.0
11398.999,383.0
11403.559,467.0
11408.12,393.0
11412.684,437.0
11417.249,459.0
11421.816,448.0
11426.385,498.0
11430.955,485.0
11435.527,475.0
11440.102,515.0
11444.678,514.0
11449.256,526.0
11453.836,512.0
11458.417,521.0
11463.0,543.0
11467.585,515.0
11472.172,525.0
11476.761,556.0
11481.352,598.0
11485.944,604.0
11490.539,645.0
11495.136,625.0
11499.733,642.0
11504.333,611.0
11508.935,648.0
11513.538,638.0
11518.144,667.0
11522.751,652.0
11527.36,693.0
11531.972,661.0
11536.584,686.0
11541.198,713.0
11545.814,718.0
11550.433,670.0
11555.053,737.0
11559.675,722.0
11564.299,794.0
11568.925,700.0
11573.553,726.0
11578.183,794.0
11582.813,731.0
11587.446,739.0
11592.081,753.0
11596.718,845.0
11601.356,745.0
11605.997,793.0
11610.64,815.0
11615.284,797.0
11619.931,723.0
11624.579,844.0
11629.229,845.0
11633.88,723.0
11638.533,763.0
11643.188,819.0
11647.846,781.0
11652.505,660.0
11657.166,783.0
11661.829,908.0
11666.494,649.0
11671.161,619.0
11675.83,910.0
11680.5,871.0
11685.172,633.0
11689.846,622.0
11694.521,692.0
11699.199,596.0
11703.879,564.0
11708.561,573.0
11713.244,537.0
11717.93,449.0
11722.617,490.0
11727.307,446.0
11731.998,431.0
11736.69,420.0
11741.385,368.0
11746.081,371.0
11750.779,351.0
11755.4795,412.0
11760.182,327.0
11764.886,302.0
11769.592,368.0
11774.3,331.0
11779.01,321.0
11783.722,309.0
11788.436,331.0
11793.151,327.0
11797.868,312.0
11802.587,306.0
11807.308,330.0
11812.03,283.0
11816.755,311.0
11821.481,295.0
11826.21,304.0
11830.94,275.0
11835.673,299.0
11840.407,251.0
11845.144,262.0
11849.882,282.0
11854.622,237.0
11859.364,252.0
11864.108,237.0
11868.8545,298.0
11873.602,230.0
11878.351,227.0
11883.102,208.0
11887.8545,246.0
11892.609,212.0
11897.366,211.0
11902.125,179.0
11906.886,179.0
11911.648,214.0
11916.413,196.0
11921.18,199.0
11925.948,220.0
11930.719,211.0
11935.491,215.0
11940.266,231.0
11945.042,177.0
11949.82,205.0
11954.601,196.0
11959.383,190.0
11964.167,177.0
11968.953,202.0
11973.74,186.0
11978.529,195.0
11983.32,192.0
11988.113,173.0
11992.908,180.0
