M/Z,Intensity
800.0,128.0
800.32,165.0
800.64014,43.0
800.9604,206.0
801.28076,368.0
801.60126,94.0
801.9219,131.0
802.2426,220.0
802.56354,107.0
802.8846,378.0
803.20575,285.0
803.52704,92.0
803.84845,142.0
804.17,201.0
804.49164,75.0
804.8134,73.0
805.1353,201.0
805.4574,95.0
805.7796,61.0
806.1019,155.0
806.4244,120.0
806.74695,50.0
807.06964,136.0
807.39246,112.0
807.7154,50.0
808.03845,115.0
808.3617,139.0
808.68506,33.0
809.00854,104.0
809.33215,157.0
809.6559,42.0
809.97974,70.0
810.3037,141.0
810.6278,60.0
810.9521,117.0
811.2765,137.0
811.601,53.0
811.92566,90.0
812.2504,150.0
812.5753,57.0
812.9003,154.0
813.22546,203.0
813.5508,81.0
813.8762,90.0
814.2018,169.0
814.52747,75.0
814.8533,120.0
815.1792,161.0
815.50525,87.0
815.8314,84.0
816.1578,165.0
816.48425,90.0
816.81085,217.0
817.1376,426.0
817.4644,141.0
817.7914,111.0
818.11847,254.0
818.44574,115.0
818.77313,111.0
819.10065,226.0
819.4283,116.0
819.75604,61.0
820.0839,141.0
820.412,99.0
820.7402,64.0
821.0685,184.0
821.3969,130.0
821.72546,54.0
822.05414,109.0
822.38293,95.0
822.7119,68.0
823.041,271.0
823.37024,133.0
823.6996,62.0
824.02905,203.0
824.35864,134.0
824.6884,260.0
825.0183,3624.0
825.3483,246.0
825.67847,147.0
826.0087,1597.0
826.3391,160.0
826.6696,92.0
827.0003,535.0
827.3311,153.0
827.66205,68.0
827.9931,187.0
828.3243,126.0
828.65564,46.0
828.9871,110.0
829.3187,137.0
829.65045,44.0
829.9823,82.0
830.3143,162.0
830.6464,50.0
830.9787,91.0
831.3111,150.0
831.6436,44.0
831.97626,109.0
832.309,150.0
832.64197,60.0
832.97504,217.0
833.3082,194.0
833.64154,59.0
833.975,145.0
834.3086,172.0
834.64233,57.0
834.9762,151.0
835.3102,155.0
835.6443,49.0
835.9785,109.0
836.3129,140.0
836.64746,51.0
836.9821,211.0
837.3169,159.0
837.6518,74.0
837.9869,151.0
838.3221,135.0
838.6574,85.0
838.99286,725.0
839.3284,136.0
839.6642,75.0
840.00006,374.0
840.33606,166.0
840.6722,263.0
841.0084,2213.0
841.34485,206.0
841.6814,142.0
842.01807,985.0
842.35486,202.0
842.6918,99.0
843.0289,563.0
843.3661,174.0
843.7034,83.0
844.0409,243.0
844.37854,119.0
844.7163,116.0
845.0542,463.0
845.3922,246.0
845.73035,87.0
846.06866,256.0
846.4071,208.0
846.74567,96.0
847.08435,206.0
847.42316,144.0
847.76215,63.0
848.10126,140.0
848.4405,134.0
848.77985,79.0
849.1194,113.0
849.45905,139.0
849.7988,70.0
850.13873,125.0
850.47876,104.0
850.819,73.0
851.1593,127.0
851.49976,93.0
851.84033,61.0
852.1811,143.0
852.522,72.0
852.863,94.0
853.2041,153.0
853.5454,68.0
853.88684,76.0
854.2284,156.0
854.57007,91.0
854.9119,753.0
855.2539,192.0
855.596,72.0
855.93823,401.0
856.2806,146.0
856.6231,105.0
856.96576,812.0
857.30853,159.0
857.6514,99.0
857.9945,425.0
858.3377,169.0
858.681,101.0
859.0245,327.0
859.3681,137.0
859.71185,66.0
860.0557,187.0
860.3997,138.0
860.7439,715.0
861.0882,1176.0
861.4326,189.0
861.77716,478.0
862.1219,478.0
862.46674,136.0
862.8117,310.0
863.15686,255.0
863.50214,92.0
863.84753,156.0
864.19305,160.0
864.53876,78.0
864.8846,132.0
865.2305,147.0
865.5766,70.0
865.92285,85.0
866.2692,134.0
866.6157,72.0
866.96234,237.0
867.30914,126.0
867.65607,68.0
868.0031,158.0
868.35034,126.0
868.6977,50.0
869.04517,118.0
869.39276,122.0
869.74054,61.0
870.08844,90.0
870.43646,106.0
870.7846,167.0
871.13293,115.0
871.4814,84.0
871.82996,119.0
872.1787,141.0
872.5276,87.0
872.8766,129.0
873.2257,183.0
873.575,66.0
873.92444,90.0
874.274,142.0
874.6237,83.0
874.9736,117.0
875.32355,146.0
875.6737,51.0
876.024,97.0
876.3744,115.0
876.7249,517.0
877.0756,835.0
877.42645,209.0
877.7774,398.0
878.12854,316.0
878.4798,110.0
878.8312,313.0
879.18274,159.0
879.5344,96.0
879.8862,175.0
880.23816,163.0
880.5903,63.0
880.9425,160.0
881.29486,131.0
881.6474,51.0
882.00006,107.0
882.35284,136.0
882.7058,113.0
883.0589,221.0
883.4121,105.0
883.7655,85.0
884.119,130.0
884.47266,94.0
884.8264,109.0
885.18036,127.0
885.5344,83.0
885.8886,73.0
886.243,146.0
886.5975,64.0
886.9521,81.0
887.3069,131.0
887.6618,59.0
888.01685,92.0
888.3721,129.0
888.7274,45.0
889.0829,120.0
889.43854,236.0
889.7943,68.0
890.1502,141.0
890.5063,143.0
890.8625,69.0
891.2188,144.0
891.5753,99.0
891.93195,70.0
892.2887,151.0
892.6456,156.0
893.0027,388.0
893.35986,163.0
893.7172,134.0
894.0747,179.0
894.4323,130.0
894.7901,181.0
895.148,149.0
895.50604,86.0
895.86426,87.0
896.2226,130.0
896.58105,62.0
896.9397,112.0
897.29846,135.0
897.6574,53.0
898.0165,91.0
898.3757,116.0
898.73505,115.0
899.09454,150.0
899.45416,98.0
899.81396,111.0
900.1739,129.0
900.53394,68.0
900.89417,99.0
901.2545,145.0
901.615,47.0
901.97565,77.0
902.3364,113.0
902.6974,54.0
903.0585,98.0
903.4197,135.0
903.78107,65.0
904.1426,120.0
904.5042,90.0
904.866,100.0
905.22797,153.0
905.5901,74.0
905.95233,89.0
906.3147,158.0
906.67725,64.0
907.0399,77.0
907.4027,137.0
907.7657,52.0
908.1288,149.0
908.49207,94.0
908.85547,111.0
909.219,145.0
909.5827,65.0
909.94653,97.0
910.3105,127.0
910.6746,63.0
911.0389,119.0
911.4033,105.0
911.7679,60.0
912.13257,91.0
912.49744,87.0
912.8624,64.0
913.2276,147.0
913.5929,59.0
913.9583,65.0
914.3239,139.0
914.68964,75.0
915.05554,113.0
915.4216,133.0
915.7877,70.0
916.15405,108.0
916.5205,87.0
916.88715,68.0
917.2539,189.0
917.6208,52.0
917.98785,81.0
918.35504,141.0
918.7224,61.0
919.0899,94.0
919.4575,96.0
919.8253,72.0
920.19324,172.0
920.56134,75.0
920.92957,106.0
921.2979,213.0
921.66644,65.0
922.0351,94.0
922.40393,164.0
922.7729,52.0
923.14197,122.0
923.5112,108.0
923.8806,73.0
924.2502,123.0
924.6199,63.0
924.98975,81.0
925.35974,116.0
925.72986,39.0
926.10016,124.0
926.4706,80.0
926.8412,73.0
927.2119,126.0
927.5828,60.0
927.95386,89.0
928.325,131.0
928.69635,59.0
929.0678,105.0
929.43945,127.0
929.8112,56.0
930.18317,104.0
930.55524,85.0
930.9274,75.0
931.2998,133.0
931.6723,67.0
932.045,92.0
932.4178,111.0
932.7908,63.0
933.1639,126.0
933.5372,158.0
933.9106,59.0
934.2841,177.0
934.65784,68.0
935.0317,88.0
935.4057,120.0
935.77985,56.0
936.1542,125.0
936.5286,88.0
936.90326,78.0
937.278,152.0
937.65295,56.0
938.028,95.0
938.4032,106.0
938.77856,56.0
939.15405,109.0
939.5297,81.0
939.9055,71.0
940.2815,137.0
940.6576,45.0
941.0339,77.0
941.4103,106.0
941.78687,64.0
942.1636,96.0
942.54047,74.0
942.9175,115.0
943.2947,122.0
943.672,47.0
944.04944,104.0
944.42706,102.0
944.8048,68.0
945.18274,164.0
945.5608,83.0
945.939,76.0
946.3174,130.0
946.6959,73.0
947.0746,94.0
947.4534,111.0
947.8324,65.0
948.21155,185.0
948.5908,80.0
948.9703,107.0
949.34985,161.0
949.7296,62.0
950.1095,111.0
950.48956,109.0
950.86975,73.0
951.2501,134.0
951.6306,59.0
952.0113,71.0
952.3921,127.0
952.7731,58.0
953.1542,90.0
953.53546,74.0
953.9169,78.0
954.29846,137.0
954.6802,56.0
955.0621,89.0
955.4441,112.0
955.8263,64.0
956.2086,115.0
956.5911,65.0
956.97375,55.0
957.35657,120.0
957.7395,64.0
958.1226,91.0
958.50586,89.0
958.8893,72.0
959.2728,115.0
959.65656,60.0
960.0404,89.0
960.42444,108.0
960.8086,67.0
961.19293,122.0
961.5774,91.0
961.96204,99.0
962.3468,141.0
962.73175,64.0
963.1168,110.0
963.5021,79.0
963.88745,98.0
964.273,126.0
964.6587,56.0
965.04456,100.0
965.4306,170.0
965.8168,67.0
966.2031,115.0
966.5896,76.0
966.97626,71.0
967.36304,128.0
967.75,64.0
968.1371,114.0
968.52435,100.0
968.91174,72.0
969.2993,122.0
969.687,61.0
970.0749,134.0
970.4629,112.0
970.8511,92.0
971.23944,111.0
971.6279,63.0
972.0166,89.0
972.4054,129.0
972.7944,57.0
973.1835,116.0
973.57275,75.0
973.96216,76.0
974.35175,122.0
974.7415,50.0
975.1314,88.0
975.5215,81.0
975.9117,65.0
976.30206,103.0
976.69257,50.0
977.08325,70.0
977.47406,155.0
977.86505,66.0
978.2562,107.0
978.6475,83.0
979.039,102.0
979.4306,145.0
979.8224,67.0
980.2143,93.0
980.6064,64.0
980.99866,92.0
981.39105,111.0
981.7836,74.0
982.17633,146.0
982.5692,80.0
982.9622,91.0
983.3554,122.0
983.7488,72.0
984.1423,142.0
984.53595,87.0
984.92975,99.0
985.3237,114.0
985.71783,83.0
986.1121,190.0
986.5066,102.0
986.9012,119.0
987.29596,140.0
987.69086,52.0
988.08594,134.0
988.4812,88.0
988.8766,78.0
989.27216,106.0
989.66785,44.0
990.0637,131.0
990.4597,104.0
990.8559,75.0
991.25226,105.0
991.64874,80.0
992.0454,147.0
992.4422,99.0
992.8392,86.0
993.2363,125.0
993.6336,75.0
994.03107,162.0
994.42865,108.0
994.8264,100.0
995.22437,144.0
995.62244,78.0
996.0207,99.0
996.4191,113.0
996.8177,58.0
997.21643,115.0
997.6153,68.0
998.01434,68.0
998.4136,102.0
998.8129,61.0
999.21246,123.0
999.6121,72.0
1000.01196,83.0
1000.412,109.0
1000.81213,69.0
1001.21246,136.0
1001.613,70.0
1002.0136,122.0
1002.4144,102.0
1002.81537,94.0
1003.2165,100.0
1003.6178,64.0
1004.0192,91.0
1004.42084,123.0
1004.82263,60.0
1005.22455,126.0
1005.62665,70.0
1006.0289,196.0
1006.4313,116.0
1006.83386,102.0
1007.2366,126.0
1007.63947,83.0
1008.04254,262.0
1008.44574,110.0
1008.8491,185.0
1009.2527,159.0
1009.6564,88.0
1010.06024,155.0
1010.4643,116.0
1010.86847,86.0
1011.2728,124.0
1011.6773,57.0
1012.082,126.0
1012.4868,87.0
1012.8918,106.0
1013.29694,131.0
1013.7023,87.0
1014.1077,315.0
1014.51337,94.0
1014.9192,185.0
1015.32513,107.0
1015.73126,88.0
1016.1376,169.0
1016.544,93.0
1016.9506,95.0
1017.3574,115.0
1017.76434,53.0
1018.17145,115.0
1018.57874,76.0
1018.98615,76.0
1019.39374,117.0
1019.8015,62.0
1020.2094,108.0
1020.6175,53.0
1021.02576,87.0
1021.43414,173.0
1021.8427,133.0
1022.25146,136.0
1022.66034,90.0
1023.0694,123.0
1023.47864,113.0
1023.888,133.0
1024.2976,117.0
1024.7073,58.0
1025.1172,96.0
1025.5272,104.0
1025.9374,90.0
1026.3478,156.0
1026.7583,66.0
1027.169,142.0
1027.5798,115.0
1027.9908,195.0
1028.4021,118.0
1028.8135,124.0
1029.225,131.0
1029.6367,152.0
1030.0486,461.0
1030.4606,124.0
1030.8728,297.0
1031.2852,115.0
1031.6976,87.0
1032.1104,183.0
1032.5232,85.0
1032.9362,105.0
1033.3494,124.0
1033.7627,88.0
1034.1761,156.0
1034.5898,76.0
1035.0037,117.0
1035.4177,112.0
1035.8319,118.0
1036.2462,126.0
1036.6608,79.0
1037.0754,119.0
1037.4902,129.0
1037.9053,106.0
1038.3204,119.0
1038.7357,75.0
1039.1512,111.0
1039.5669,103.0
1039.9827,93.0
1040.3987,115.0
1040.8148,60.0
1041.2312,107.0
1041.6477,91.0
1042.0643,85.0
1042.4812,98.0
1042.8982,61.0
1043.3153,134.0
1043.7327,142.0
1044.1501,170.0
1044.5677,104.0
1044.9856,141.0
1045.4036,119.0
1045.8218,175.0
1046.2401,138.0
1046.6586,83.0
1047.0773,136.0
1047.4961,117.0
1047.915,121.0
1048.3342,125.0
1048.7535,92.0
1049.1731,109.0
1049.5928,118.0
1050.0126,403.0
1050.4326,127.0
1050.8528,240.0
1051.2731,137.0
1051.6936,110.0
1052.1143,211.0
1052.5352,68.0
1052.9562,152.0
1053.3773,207.0
1053.7987,133.0
1054.2202,122.0
1054.6418,114.0
1055.0637,118.0
1055.4857,116.0
1055.908,109.0
1056.3303,119.0
1056.7528,72.0
1057.1755,120.0
1057.5984,75.0
1058.0215,92.0
1058.4447,128.0
1058.868,64.0
1059.2916,118.0
1059.7153,120.0
1060.1392,147.0
1060.5632,124.0
1060.9874,110.0
1061.4119,145.0
1061.8364,103.0
1062.2611,133.0
1062.686,66.0
1063.1111,92.0
1063.5364,105.0
1063.9618,91.0
1064.3873,114.0
1064.8131,84.0
1065.239,119.0
1065.6652,174.0
1066.0914,399.0
1066.5178,125.0
1066.9445,303.0
1067.3712,154.0
1067.7982,198.0
1068.2253,146.0
1068.6526,87.0
1069.0801,152.0
1069.5077,138.0
1069.9355,130.0
1070.3635,114.0
1070.7916,83.0
1071.22,114.0
1071.6484,106.0
1072.0771,219.0
1072.506,103.0
1072.9349,141.0
1073.3641,130.0
1073.7935,123.0
1074.223,138.0
1074.6527,90.0
1075.0825,100.0
1075.5126,121.0
1075.9427,90.0
1076.3732,121.0
1076.8037,58.0
1077.2344,102.0
1077.6653,76.0
1078.0963,126.0
1078.5276,72.0
1078.959,97.0
1079.3906,96.0
1079.8224,87.0
1080.2543,111.0
1080.6864,60.0
1081.1187,90.0
1081.5511,119.0
1081.9838,229.0
1082.4165,114.0
1082.8495,190.0
1083.2826,122.0
1083.716,130.0
1084.1494,105.0
1084.5831,83.0
1085.017,87.0
1085.4509,106.0
1085.8851,85.0
1086.3195,127.0
1086.754,74.0
1087.1887,90.0
1087.6235,95.0
1088.0586,173.0
1088.4938,116.0
1088.9292,125.0
1089.3647,113.0
1089.8005,123.0
1090.2365,173.0
1090.6725,92.0
1091.1088,118.0
1091.5452,134.0
1091.9818,79.0
1092.4186,138.0
1092.8556,75.0
1093.2927,144.0
1093.7301,126.0
1094.1676,132.0
1094.6052,95.0
1095.0431,118.0
1095.4811,103.0
1095.9193,108.0
1096.3577,112.0
1096.7963,83.0
1097.235,123.0
1097.6738,149.0
1098.1129,98.0
1098.5521,136.0
1098.9916,101.0
1099.4312,102.0
1099.871,96.0
1100.3109,112.0
1100.751,62.0
1101.1913,96.0
1101.6317,72.0
1102.0724,76.0
1102.5132,102.0
1102.9542,60.0
1103.3954,121.0
1103.8368,128.0
1104.2783,107.0
1104.72,87.0
1105.1619,101.0
1105.6039,84.0
1106.0461,114.0
1106.4885,99.0
1106.9312,66.0
1107.3739,130.0
1107.8169,76.0
1108.26,115.0
1108.7034,81.0
1109.1469,97.0
1109.5905,127.0
1110.0343,105.0
1110.4783,126.0
1110.9225,100.0
1111.3668,122.0
1111.8114,90.0
1112.2561,102.0
1112.701,81.0
1113.1461,113.0
1113.5914,122.0
1114.0369,79.0
1114.4824,107.0
1114.9282,91.0
1115.3741,93.0
1115.8203,74.0
1116.2666,114.0
1116.7131,59.0
1117.1598,100.0
1117.6067,85.0
1118.0537,98.0
1118.501,134.0
1118.9484,70.0
1119.396,124.0
1119.8438,78.0
1120.2917,105.0
1120.7399,64.0
1121.1881,83.0
1121.6366,79.0
1122.0852,77.0
1122.534,103.0
1122.983,72.0
1123.4323,118.0
1123.8816,67.0
1124.3312,88.0
1124.7809,56.0
1125.2308,103.0
1125.6809,83.0
1126.1312,112.0
1126.5817,153.0
1127.0323,99.0
1127.4832,146.0
1127.9342,87.0
1128.3854,126.0
1128.8367,72.0
1129.2882,83.0
1129.7399,70.0
1130.1918,93.0
1130.6438,83.0
1131.0961,104.0
1131.5485,100.0
1132.0011,87.0
1132.4539,120.0
1132.9069,83.0
1133.36,100.0
1133.8134,85.0
1134.2668,120.0
1134.7206,72.0
1135.1744,94.0
1135.6285,79.0
1136.0828,81.0
1136.5372,97.0
1136.9918,106.0
1137.4467,139.0
1137.9016,72.0
1138.3568,95.0
1138.8121,75.0
1139.2677,98.0
1139.7234,74.0
1140.1793,87.0
1140.6354,67.0
1141.0917,69.0
1141.5481,172.0
1142.0048,57.0
1142.4615,111.0
1142.9186,55.0
1143.3757,107.0
1143.8331,61.0
1144.2906,104.0
1144.7484,62.0
1145.2063,92.0
1145.6644,71.0
1146.1227,93.0
1146.5812,84.0
1147.0398,66.0
1147.4987,108.0
1147.9576,94.0
1148.4169,123.0
1148.8762,70.0
1149.3358,135.0
1149.7955,70.0
1150.2555,105.0
1150.7156,84.0
1151.1759,76.0
1151.6364,98.0
1152.097,97.0
1152.5579,105.0
1153.0189,89.0
1153.4801,119.0
1153.9415,74.0
1154.4031,127.0
1154.8649,75.0
1155.3268,135.0
1155.789,54.0
1156.2512,109.0
1156.7137,63.0
1157.1764,100.0
1157.6393,91.0
1158.1023,74.0
1158.5656,117.0
1159.0289,88.0
1159.4926,103.0
1159.9563,63.0
1160.4203,104.0
1160.8844,51.0
1161.3488,121.0
1161.8134,54.0
1162.2781,108.0
1162.743,72.0
1163.2081,85.0
1163.6735,92.0
1164.1389,94.0
1164.6046,96.0
1165.0704,66.0
1165.5365,109.0
1166.0027,77.0
1166.4691,110.0
1166.9357,74.0
1167.4025,132.0
1167.8694,71.0
1168.3365,103.0
1168.8038,88.0
1169.2714,99.0
1169.739,77.0
1170.2069,79.0
1170.675,103.0
1171.1433,96.0
1171.6118,89.0
1172.0804,107.0
1172.5493,98.0
1173.0183,86.0
1173.4875,112.0
1173.9569,71.0
1174.4265,129.0
1174.8962,85.0
1175.3662,116.0
1175.8363,75.0
1176.3066,108.0
1176.7772,69.0
1177.2479,99.0
1177.7189,63.0
1178.19,122.0
1178.6613,79.0
1179.1327,102.0
1179.6044,89.0
1180.0762,79.0
1180.5482,98.0
1181.0204,95.0
1181.4928,115.0
1181.9655,79.0
1182.4382,91.0
1182.9113,86.0
1183.3844,101.0
1183.8578,77.0
1184.3313,89.0
1184.805,67.0
1185.2789,134.0
1185.753,121.0
1186.2273,97.0
1186.7018,110.0
1187.1765,107.0
1187.6514,113.0
1188.1265,96.0
1188.6017,89.0
1189.0771,87.0
1189.5527,91.0
1190.0286,64.0
1190.5045,91.0
1190.9807,83.0
1191.4572,110.0
1191.9337,75.0
1192.4105,134.0
1192.8875,62.0
1193.3646,106.0
1193.8419,63.0
1194.3195,96.0
1194.7972,75.0
1195.2751,101.0
1195.7533,93.0
1196.2316,140.0
1196.7101,90.0
1197.1887,141.0
1197.6676,112.0
1198.1467,115.0
1198.626,98.0
1199.1055,122.0
1199.5851,116.0
1200.065,86.0
1200.5449,102.0
1201.0251,88.0
1201.5056,136.0
1201.9862,63.0
1202.467,94.0
1202.948,89.0
1203.4292,106.0
1203.9105,64.0
1204.3921,111.0
1204.8739,72.0
1205.3558,105.0
1205.838,66.0
1206.3203,106.0
1206.8029,70.0
1207.2855,122.0
1207.7684,81.0
1208.2516,109.0
1208.7349,69.0
1209.2184,88.0
1209.702,85.0
1210.1859,102.0
1210.67,95.0
1211.1543,71.0
1211.6388,98.0
1212.1234,93.0
1212.6083,94.0
1213.0933,105.0
1213.5785,93.0
1214.064,90.0
1214.5496,134.0
1215.0354,93.0
1215.5214,120.0
1216.0076,90.0
1216.494,117.0
1216.9806,93.0
1217.4674,127.0
1217.9543,84.0
1218.4415,120.0
1218.929,135.0
1219.4165,119.0
1219.9043,108.0
1220.3922,104.0
1220.8804,110.0
1221.3688,112.0
1221.8573,49.0
1222.3461,124.0
1222.835,61.0
1223.3241,108.0
1223.8135,78.0
1224.303,95.0
1224.7927,79.0
1225.2826,106.0
1225.7727,84.0
1226.2631,91.0
1226.7535,88.0
1227.2443,93.0
1227.7351,68.0
1228.2262,93.0
1228.7175,84.0
1229.209,115.0
1229.7007,113.0
1230.1925,96.0
1230.6846,105.0
1231.1769,82.0
1231.6693,89.0
1232.162,77.0
1232.6549,98.0
1233.148,131.0
1233.6412,95.0
1234.1346,111.0
1234.6283,102.0
1235.1222,116.0
1235.6162,115.0
1236.1105,101.0
1236.6049,102.0
1237.0995,107.0
1237.5944,105.0
1238.0894,75.0
1238.5846,88.0
1239.0801,111.0
1239.5757,78.0
1240.0715,82.0
1240.5675,98.0
1241.0637,127.0
1241.5602,111.0
1242.0568,115.0
1242.5536,108.0
1243.0507,123.0
1243.5479,105.0
1244.0453,80.0
1244.5428,124.0
1245.0406,95.0
1245.5387,106.0
1246.0369,98.0
1246.5353,111.0
1247.0339,111.0
1247.5327,109.0
1248.0317,91.0
1248.531,99.0
1249.0304,104.0
1249.53,93.0
1250.0298,79.0
1250.5298,90.0
1251.03,79.0
1251.5304,112.0
1252.031,62.0
1252.5319,85.0
1253.0328,71.0
1253.534,105.0
1254.0355,51.0
1254.5371,101.0
1255.039,129.0
1255.541,93.0
1256.0432,110.0
1256.5457,99.0
1257.0482,100.0
1257.551,95.0
1258.0541,118.0
1258.5573,92.0
1259.0607,91.0
1259.5643,120.0
1260.0681,91.0
1260.5721,120.0
1261.0764,138.0
1261.5808,101.0
1262.0854,131.0
1262.5903,96.0
1263.0953,149.0
1263.6006,108.0
1264.1061,128.0
1264.6117,114.0
1265.1176,101.0
1265.6237,106.0
1266.1299,94.0
1266.6364,105.0
1267.1431,97.0
1267.6499,100.0
1268.157,80.0
1268.6642,77.0
1269.1716,74.0
1269.6793,66.0
1270.1871,94.0
1270.6952,133.0
1271.2035,109.0
1271.7119,101.0
1272.2206,95.0
1272.7295,108.0
1273.2385,83.0
1273.7478,115.0
1274.2573,123.0
1274.767,114.0
1275.2769,89.0
1275.787,89.0
1276.2972,114.0
1276.8077,188.0
1277.3185,116.0
1277.8295,132.0
1278.3406,110.0
1278.8519,142.0
1279.3635,118.0
1279.8752,108.0
1280.3872,113.0
1280.8994,98.0
1281.4117,111.0
1281.9243,85.0
1282.4371,115.0
1282.9501,107.0
1283.4633,108.0
1283.9767,115.0
1284.4902,96.0
1285.004,108.0
1285.5181,114.0
1286.0322,86.0
1286.5466,113.0
1287.0613,84.0
1287.576,119.0
1288.0911,90.0
1288.6063,114.0
1289.1218,112.0
1289.6375,118.0
1290.1533,99.0
1290.6694,80.0
1291.1857,133.0
1291.7021,92.0
1292.2189,110.0
1292.7357,140.0
1293.2528,118.0
1293.7701,118.0
1294.2876,107.0
1294.8053,95.0
1295.3232,105.0
1295.8414,86.0
1296.3597,106.0
1296.8783,84.0
1297.3971,98.0
1297.916,81.0
1298.4352,117.0
1298.9546,96.0
1299.4741,119.0
1299.9939,92.0
1300.5139,101.0
1301.0342,75.0
1301.5546,120.0
1302.0752,81.0
1302.5961,93.0
1303.1171,82.0
1303.6383,106.0
1304.1598,94.0
1304.6814,109.0
1305.2032,117.0
1305.7253,100.0
1306.2477,107.0
1306.7701,101.0
1307.2928,106.0
1307.8158,71.0
1308.3389,93.0
1308.8622,79.0
1309.3857,100.0
1309.9095,86.0
1310.4335,105.0
1310.9576,73.0
1311.482,92.0
1312.0066,67.0
1312.5314,103.0
1313.0564,74.0
1313.5817,94.0
1314.107,83.0
1314.6327,90.0
1315.1586,77.0
1315.6847,93.0
1316.2109,93.0
1316.7374,101.0
1317.2642,85.0
1317.791,95.0
1318.3181,102.0
1318.8455,70.0
1319.373,84.0
1319.9008,69.0
1320.4287,100.0
1320.9569,99.0
1321.4854,97.0
1322.0139,69.0
1322.5427,80.0
1323.0718,89.0
1323.601,101.0
1324.1304,75.0
1324.66,79.0
1325.19,71.0
1325.72,88.0
1326.2502,77.0
1326.7808,81.0
1327.3115,98.0
1327.8424,88.0
1328.3735,102.0
1328.9049,69.0
1329.4365,134.0
1329.9683,71.0
1330.5002,122.0
1331.0325,70.0
1331.565,150.0
1332.0975,79.0
1332.6304,120.0
1333.1635,102.0
1333.6968,105.0
1334.2302,74.0
1334.7639,87.0
1335.2979,94.0
1335.832,75.0
1336.3663,107.0
1336.9009,67.0
1337.4357,110.0
1337.9707,72.0
1338.5059,96.0
1339.0413,78.0
1339.5769,95.0
1340.1128,71.0
1340.6488,80.0
1341.185,83.0
1341.7216,89.0
1342.2583,83.0
1342.7952,102.0
1343.3323,83.0
1343.8696,83.0
1344.4072,95.0
1344.945,87.0
1345.4829,94.0
1346.0211,75.0
1346.5596,98.0
1347.0981,79.0
1347.637,99.0
1348.176,71.0
1348.7153,104.0
1349.2548,77.0
1349.7944,72.0
1350.3344,100.0
1350.8745,60.0
1351.4149,90.0
1351.9554,51.0
1352.4962,94.0
1353.0372,67.0
1353.5785,103.0
1354.1199,59.0
1354.6615,72.0
1355.2034,96.0
1355.7455,97.0
1356.2878,133.0
1356.8303,93.0
1357.373,109.0
1357.916,56.0
1358.4592,88.0
1359.0026,79.0
1359.5461,105.0
1360.09,83.0
1360.634,99.0
1361.1783,84.0
1361.7228,95.0
1362.2675,86.0
1362.8124,87.0
1363.3575,88.0
1363.9028,88.0
1364.4484,87.0
1364.9941,62.0
1365.5402,88.0
1366.0864,77.0
1366.6328,105.0
1367.1794,58.0
1367.7263,91.0
1368.2734,83.0
1368.8208,80.0
1369.3683,105.0
1369.916,55.0
1370.464,93.0
1371.0122,65.0
1371.5607,103.0
1372.1093,81.0
1372.6581,75.0
1373.2072,130.0
1373.7565,116.0
1374.306,133.0
1374.8557,81.0
1375.4056,156.0
1375.9558,66.0
1376.5062,117.0
1377.0569,72.0
1377.6077,98.0
1378.1587,95.0
1378.71,96.0
1379.2615,92.0
1379.8132,98.0
1380.3651,93.0
1380.9172,74.0
1381.4696,108.0
1382.0222,67.0
1382.5751,94.0
1383.128,80.0
1383.6813,121.0
1384.2347,106.0
1384.7885,87.0
1385.3424,87.0
1385.8965,75.0
1386.4508,88.0
1387.0054,91.0
1387.5602,95.0
1388.1152,71.0
1388.6705,97.0
1389.226,87.0
1389.7816,91.0
1390.3375,73.0
1390.8937,83.0
1391.4501,125.0
1392.0067,74.0
1392.5635,112.0
1393.1205,62.0
1393.6777,90.0
1394.2352,78.0
1394.793,74.0
1395.3508,125.0
1395.9089,73.0
1396.4673,92.0
1397.0259,55.0
1397.5847,100.0
1398.1438,76.0
1398.703,99.0
1399.2625,77.0
1399.8221,91.0
1400.3821,90.0
1400.9423,70.0
1401.5027,112.0
1402.0632,98.0
1402.624,105.0
1403.185,98.0
1403.7463,107.0
1404.3079,108.0
1404.8696,80.0
1405.4315,105.0
1405.9937,84.0
1406.556,127.0
1407.1187,70.0
1407.6815,126.0
1408.2446,84.0
1408.808,74.0
1409.3715,68.0
1409.9352,67.0
1410.4991,86.0
1411.0634,74.0
1411.6278,83.0
1412.1925,98.0
1412.7573,84.0
1413.3224,98.0
1413.8877,58.0
1414.4532,106.0
1415.019,63.0
1415.5851,100.0
1416.1514,86.0
1416.7178,80.0
1417.2844,93.0
1417.8513,85.0
1418.4185,101.0
1418.9858,67.0
1419.5535,117.0
1420.1213,66.0
1420.6893,97.0
1421.2576,98.0
1421.826,81.0
1422.3948,86.0
1422.9637,84.0
1423.533,111.0
1424.1024,84.0
1424.672,114.0
1425.2418,87.0
1425.8119,99.0
1426.3822,88.0
1426.9528,78.0
1427.5236,96.0
1428.0946,77.0
1428.6659,97.0
1429.2373,82.0
1429.809,89.0
1430.3809,95.0
1430.953,75.0
1431.5254,112.0
1432.098,107.0
1432.6709,126.0
1433.244,112.0
1433.8173,114.0
1434.3907,124.0
1434.9645,79.0
1435.5385,124.0
1436.1127,126.0
1436.6871,129.0
1437.2618,94.0
1437.8368,111.0
1438.412,108.0
1438.9873,81.0
1439.5629,97.0
1440.1387,75.0
1440.7147,93.0
1441.291,89.0
1441.8676,77.0
1442.4443,108.0
1443.0214,82.0
1443.5985,104.0
1444.1759,84.0
1444.7535,89.0
1445.3314,88.0
1445.9095,92.0
1446.4879,117.0
1447.0665,84.0
1447.6454,96.0
1448.2245,91.0
1448.8038,75.0
1449.3833,114.0
1449.963,89.0
1450.543,119.0
1451.1232,100.0
1451.7036,130.0
1452.2843,95.0
1452.8652,110.0
1453.4464,95.0
1454.0278,72.0
1454.6095,101.0
1455.1913,105.0
1455.7733,121.0
1456.3556,115.0
1456.9381,84.0
1457.5209,96.0
1458.1039,83.0
1458.6871,97.0
1459.2706,79.0
1459.8544,90.0
1460.4384,114.0
1461.0226,88.0
1461.6069,135.0
1462.1915,90.0
1462.7764,112.0
1463.3615,121.0
1463.9468,78.0
1464.5323,112.0
1465.1182,68.0
1465.7042,107.0
1466.2905,100.0
1466.8771,104.0
1467.4639,93.0
1468.0509,90.0
1468.6382,120.0
1469.2256,113.0
1469.8132,103.0
1470.4011,114.0
1470.9893,74.0
1471.5776,109.0
1472.1663,96.0
1472.7551,98.0
1473.3442,90.0
1473.9336,95.0
1474.5232,100.0
1475.113,78.0
1475.7031,116.0
1476.2935,84.0
1476.884,104.0
1477.4747,94.0
1478.0657,76.0
1478.6569,109.0
1479.2483,89.0
1479.84,80.0
1480.4319,108.0
1481.024,67.0
1481.6165,108.0
1482.2091,70.0
1482.802,96.0
1483.3951,81.0
1483.9885,76.0
1484.5822,113.0
1485.176,83.0
1485.7701,109.0
1486.3645,113.0
1486.9591,83.0
1487.5538,107.0
1488.1488,120.0
1488.744,120.0
1489.3395,74.0
1489.9352,85.0
1490.5311,100.0
1491.1273,69.0
1491.7238,104.0
1492.3204,85.0
1492.9174,88.0
1493.5145,97.0
1494.1119,86.0
1494.7096,111.0
1495.3075,71.0
1495.9056,96.0
1496.504,102.0
1497.1027,78.0
1497.7015,105.0
1498.3007,82.0
1498.9,105.0
1499.4996,80.0
1500.0995,68.0
1500.6996,108.0
1501.2998,89.0
1501.9003,74.0
1502.501,110.0
1503.1019,78.0
1503.7031,100.0
1504.3046,83.0
1504.9062,80.0
1505.5082,101.0
1506.1104,82.0
1506.7128,91.0
1507.3154,92.0
1507.9183,82.0
1508.5215,136.0
1509.1249,74.0
1509.7285,112.0
1510.3324,91.0
1510.9365,79.0
1511.5409,111.0
1512.1455,80.0
1512.7504,95.0
1513.3555,106.0
1513.9608,68.0
1514.5664,126.0
1515.1722,85.0
1515.7783,116.0
1516.3846,93.0
1516.9912,63.0
1517.598,106.0
1518.2051,76.0
1518.8124,95.0
1519.4199,104.0
1520.0277,78.0
1520.6357,105.0
1521.244,73.0
1521.8525,84.0
1522.4613,108.0
1523.0703,74.0
1523.6796,102.0
1524.2891,78.0
1524.8988,68.0
1525.5088,96.0
1526.119,87.0
1526.7295,103.0
1527.3402,90.0
1527.9512,96.0
1528.5624,116.0
1529.1738,81.0
1529.7855,98.0
1530.3975,85.0
1531.0096,78.0
1531.6221,102.0
1532.2347,81.0
1532.8477,94.0
1533.4608,104.0
1534.0742,84.0
1534.6879,109.0
1535.3018,75.0
1535.9159,88.0
1536.5303,101.0
1537.1449,80.0
1537.7598,96.0
1538.3749,99.0
1538.9902,63.0
1539.6058,86.0
1540.2217,76.0
1540.8378,72.0
1541.4541,89.0
1542.0707,69.0
1542.6875,105.0
1543.3046,86.0
1543.9219,75.0
1544.5394,89.0
1545.1572,68.0
1545.7753,76.0
1546.3936,95.0
1547.0121,65.0
1547.6309,88.0
1548.2499,79.0
1548.8691,79.0
1549.4886,104.0
1550.1084,82.0
1550.7284,105.0
1551.3486,93.0
1551.9691,78.0
1552.5898,107.0
1553.2109,83.0
1553.8323,80.0
1554.4539,94.0
1555.0757,72.0
1555.6978,109.0
1556.3201,76.0
1556.9426,73.0
1557.5654,98.0
1558.1885,83.0
1558.8118,122.0
1559.4353,96.0
1560.0591,74.0
1560.6831,101.0
1561.3074,82.0
1561.9319,77.0
1562.5566,83.0
1563.1816,73.0
1563.8069,77.0
1564.4324,83.0
1565.0581,73.0
1565.6841,70.0
1566.3103,80.0
1566.9368,66.0
1567.5636,99.0
1568.1907,66.0
1568.818,87.0
1569.4456,111.0
1570.0734,69.0
1570.7014,87.0
1571.3297,93.0
1571.9583,72.0
1572.587,102.0
1573.2161,71.0
1573.8453,93.0
1574.4749,84.0
1575.1046,69.0
1575.7346,117.0
1576.3649,85.0
1576.9954,63.0
1577.6261,88.0
1578.2572,92.0
1578.8885,79.0
1579.5201,109.0
1580.152,65.0
1580.784,94.0
1581.4164,84.0
1582.049,63.0
1582.6818,110.0
1583.3148,84.0
1583.9481,68.0
1584.5817,86.0
1585.2155,83.0
1585.8495,94.0
1586.4839,93.0
1587.1185,81.0
1587.7534,87.0
1588.3885,100.0
1589.0239,60.0
1589.6595,118.0
1590.2954,79.0
1590.9315,83.0
1591.5679,93.0
1592.2045,76.0
1592.8413,75.0
1593.4784,86.0
1594.1158,65.0
1594.7535,90.0
1595.3915,102.0
1596.0297,90.0
1596.6681,117.0
1597.3068,68.0
1597.9457,82.0
1598.5848,86.0
1599.2242,70.0
1599.8639,75.0
1600.5038,113.0
1601.144,77.0
1601.7845,73.0
1602.4253,100.0
1603.0663,91.0
1603.7075,92.0
1604.349,93.0
1604.9907,81.0
1605.6327,96.0
1606.2749,69.0
1606.9174,64.0
1607.5602,82.0
1608.2032,59.0
1608.8466,81.0
1609.4901,99.0
1610.1339,83.0
1610.778,72.0
1611.4222,93.0
1612.0668,65.0
1612.7115,95.0
1613.3567,72.0
1614.0021,68.0
1614.6477,96.0
1615.2936,84.0
1615.9397,78.0
1616.586,84.0
1617.2327,77.0
1617.8795,93.0
1618.5266,88.0
1619.1741,67.0
1619.8218,71.0
1620.4697,87.0
1621.1179,63.0
1621.7664,91.0
1622.415,96.0
1623.064,69.0
1623.7131,94.0
1624.3627,75.0
1625.0125,79.0
1625.6625,101.0
1626.3127,89.0
1626.9633,82.0
1627.614,122.0
1628.265,84.0
1628.9163,93.0
1629.5679,120.0
1630.2197,78.0
1630.8718,97.0
1631.5242,103.0
1632.1768,59.0
1632.8296,97.0
1633.4827,82.0
1634.1361,69.0
1634.7898,97.0
1635.4437,100.0
1636.0979,85.0
1636.7523,75.0
1637.407,89.0
1638.0619,79.0
1638.7172,98.0
1639.3727,109.0
1640.0284,95.0
1640.6844,90.0
1641.3407,95.0
1641.9972,95.0
1642.6539,116.0
1643.311,99.0
1643.9684,92.0
1644.626,158.0
1645.2838,103.0
1645.9419,95.0
1646.6002,119.0
1647.2589,83.0
1647.9178,84.0
1648.577,95.0
1649.2365,78.0
1649.8961,76.0
1650.556,87.0
1651.2163,79.0
1651.8768,74.0
1652.5376,108.0
1653.1986,64.0
1653.8599,84.0
1654.5214,101.0
1655.1832,86.0
1655.8453,109.0
1656.5077,123.0
1657.1703,80.0
1657.8331,102.0
1658.4962,94.0
1659.1597,69.0
1659.8234,81.0
1660.4873,93.0
1661.1515,77.0
1661.8159,87.0
1662.4806,111.0
1663.1456,79.0
1663.8109,88.0
1664.4764,95.0
1665.1422,74.0
1665.8082,86.0
1666.4746,103.0
1667.1412,82.0
1667.8081,97.0
1668.4752,95.0
1669.1426,93.0
1669.8102,79.0
1670.4781,99.0
1671.1464,71.0
1671.8148,98.0
1672.4835,132.0
1673.1525,94.0
1673.8218,120.0
1674.4913,117.0
1675.1611,76.0
1675.8312,79.0
1676.5015,98.0
1677.1721,74.0
1677.843,91.0
1678.5142,110.0
1679.1855,74.0
1679.8572,101.0
1680.5292,94.0
1681.2014,61.0
1681.8739,76.0
1682.5466,100.0
1683.2196,96.0
1683.893,97.0
1684.5665,122.0
1685.2404,84.0
1685.9144,89.0
1686.5887,99.0
1687.2634,64.0
1687.9384,84.0
1688.6135,113.0
1689.289,83.0
1689.9646,92.0
1690.6406,83.0
1691.3169,83.0
1691.9934,63.0
1692.6702,104.0
1693.3473,91.0
1694.0247,70.0
1694.7023,114.0
1695.3801,96.0
1696.0582,79.0
1696.7367,94.0
1697.4154,82.0
1698.0944,75.0
1698.7736,109.0
1699.4531,76.0
1700.1329,62.0
1700.813,91.0
1701.4933,90.0
1702.1738,81.0
1702.8547,92.0
1703.5359,92.0
1704.2173,71.0
1704.8989,83.0
1705.5809,113.0
1706.2632,82.0
1706.9457,99.0
1707.6284,109.0
1708.3115,69.0
1708.9949,84.0
1709.6785,98.0
1710.3623,75.0
1711.0465,82.0
1711.731,91.0
1712.4156,89.0
1713.1006,59.0
1713.7858,73.0
1714.4713,78.0
1715.1571,74.0
1715.8431,76.0
1716.5294,86.0
1717.2161,66.0
1717.903,78.0
1718.5901,73.0
1719.2775,71.0
1719.9652,75.0
1720.6532,81.0
1721.3414,78.0
1722.0299,76.0
1722.7188,93.0
1723.4078,79.0
1724.0972,73.0
1724.7869,95.0
1725.4768,83.0
1726.167,67.0
1726.8574,82.0
1727.5482,88.0
1728.2393,56.0
1728.9305,83.0
1729.6221,86.0
1730.314,88.0
1731.0061,66.0
1731.6985,92.0
1732.3911,82.0
1733.0841,59.0
1733.7773,62.0
1734.4708,61.0
1735.1647,70.0
1735.8588,67.0
1736.5531,77.0
1737.2477,58.0
1737.9426,72.0
1738.6378,74.0
1739.3333,80.0
1740.0289,75.0
1740.725,86.0
1741.4213,76.0
1742.1178,53.0
1742.8147,92.0
1743.5118,74.0
1744.2092,68.0
1744.9069,88.0
1745.6049,88.0
1746.3031,70.0
1747.0016,65.0
1747.7004,79.0
1748.3995,73.0
1749.0989,55.0
1749.7985,89.0
1750.4984,81.0
1751.1986,64.0
1751.899,76.0
1752.5999,85.0
1753.3009,64.0
1754.0022,59.0
1754.7039,83.0
1755.4058,66.0
1756.1079,55.0
1756.8103,82.0
1757.5131,96.0
1758.2161,62.0
1758.9193,75.0
1759.6229,86.0
1760.3268,80.0
1761.0309,69.0
1761.7354,91.0
1762.4401,78.0
1763.145,57.0
1763.8502,75.0
1764.5558,79.0
1765.2616,64.0
1765.9677,81.0
1766.6741,89.0
1767.3807,65.0
1768.0876,64.0
1768.7949,72.0
1769.5024,91.0
1770.2102,59.0
1770.9183,98.0
1771.6267,99.0
1772.3353,74.0
1773.0443,73.0
1773.7535,73.0
1774.463,76.0
1775.1729,60.0
1775.8829,79.0
1776.5933,52.0
1777.304,72.0
1778.0149,71.0
1778.7261,79.0
1779.4376,95.0
1780.1494,60.0
1780.8615,98.0
1781.5739,79.0
1782.2865,75.0
1782.9994,58.0
1783.7126,59.0
1784.4261,74.0
1785.1399,67.0
1785.854,101.0
1786.5684,83.0
1787.283,73.0
1787.9979,81.0
1788.7131,73.0
1789.4286,72.0
1790.1444,59.0
1790.8605,66.0
1791.5768,77.0
1792.2935,83.0
1793.0104,71.0
1793.7275,83.0
1794.4451,73.0
1795.1628,73.0
1795.8809,73.0
1796.5992,82.0
1797.3179,66.0
1798.0367,73.0
1798.756,88.0
1799.4755,72.0
1800.1953,62.0
1800.9154,78.0
1801.6357,82.0
1802.3564,62.0
1803.0774,75.0
1803.7986,82.0
1804.5201,80.0
1805.242,76.0
1805.964,100.0
1806.6864,110.0
1807.409,98.0
1808.1321,70.0
1808.8553,96.0
1809.5789,108.0
1810.3027,86.0
1811.0269,90.0
1811.7512,82.0
1812.476,81.0
1813.2009,64.0
1813.9261,78.0
1814.6517,84.0
1815.3776,69.0
1816.1038,58.0
1816.8302,77.0
1817.5569,68.0
1818.2839,68.0
1819.0112,69.0
1819.7389,61.0
1820.4668,77.0
1821.195,57.0
1821.9235,51.0
1822.6522,86.0
1823.3812,89.0
1824.1106,54.0
1824.8402,76.0
1825.5702,87.0
1826.3004,63.0
1827.0309,71.0
1827.7617,88.0
1828.4928,98.0
1829.2242,82.0
1829.9559,97.0
1830.6879,90.0
1831.4202,77.0
1832.1527,83.0
1832.8856,100.0
1833.6188,87.0
1834.3522,68.0
1835.0859,68.0
1835.82,65.0
1836.5543,71.0
1837.289,82.0
1838.0238,78.0
1838.759,72.0
1839.4945,91.0
1840.2303,72.0
1840.9664,80.0
1841.7028,85.0
1842.4395,80.0
1843.1764,62.0
1843.9137,71.0
1844.6512,89.0
1845.3892,67.0
1846.1273,58.0
1846.8657,64.0
1847.6045,68.0
1848.3435,67.0
1849.0829,50.0
1849.8225,76.0
1850.5624,82.0
1851.3026,82.0
1852.0431,63.0
1852.7839,62.0
1853.525,94.0
1854.2665,58.0
1855.0082,65.0
1855.7501,76.0
1856.4924,67.0
1857.235,79.0
1857.9779,99.0
1858.7211,103.0
1859.4646,90.0
1860.2084,67.0
1860.9525,82.0
1861.6969,82.0
1862.4415,72.0
1863.1865,71.0
1863.9318,62.0
1864.6774,85.0
1865.4232,83.0
1866.1694,70.0
1866.9159,74.0
1867.6627,85.0
1868.4098,63.0
1869.1571,59.0
1869.9048,62.0
1870.6527,82.0
1871.401,61.0
1872.1495,73.0
1872.8984,57.0
1873.6476,83.0
1874.3971,70.0
1875.1469,91.0
1875.8969,87.0
1876.6472,87.0
1877.3978,91.0
1878.1488,56.0
1878.9,74.0
1879.6516,69.0
1880.4034,71.0
1881.1556,64.0
1881.9081,72.0
1882.6609,68.0
1883.414,72.0
1884.1674,81.0
1884.921,82.0
1885.675,114.0
1886.4293,82.0
1887.1838,65.0
1887.9387,75.0
1888.6938,72.0
1889.4493,67.0
1890.2051,80.0
1890.9612,59.0
1891.7175,87.0
1892.4742,64.0
1893.2312,61.0
1893.9885,56.0
1894.7461,84.0
1895.504,92.0
1896.2622,78.0
1897.0208,102.0
1897.7795,102.0
1898.5387,83.0
1899.2981,80.0
1900.0579,85.0
1900.8179,82.0
1901.5782,65.0
1902.3389,73.0
1903.0999,68.0
1903.8611,89.0
1904.6227,86.0
1905.3845,68.0
1906.1467,72.0
1906.9092,63.0
1907.672,86.0
1908.435,77.0
1909.1985,58.0
1909.9622,63.0
1910.7262,88.0
1911.4905,86.0
1912.2551,62.0
1913.02,73.0
1913.7853,327.0
1914.5508,303.0
1915.3167,207.0
1916.0828,221.0
1916.8492,161.0
1917.616,108.0
1918.383,77.0
1919.1504,67.0
1919.9181,85.0
1920.686,66.0
1921.4543,71.0
1922.2229,55.0
1922.9918,64.0
1923.761,81.0
1924.5305,69.0
1925.3003,59.0
1926.0704,65.0
1926.8408,93.0
1927.6116,74.0
1928.3826,77.0
1929.1539,73.0
1929.9255,74.0
1930.6975,63.0
1931.4698,58.0
1932.2424,62.0
1933.0154,75.0
1933.7886,60.0
1934.5621,73.0
1935.3359,57.0
1936.1101,98.0
1936.8845,93.0
1937.6593,101.0
1938.4343,68.0
1939.2097,69.0
1939.9854,69.0
1940.7614,66.0
1941.5376,74.0
1942.3142,68.0
1943.0912,74.0
1943.8684,63.0
1944.646,70.0
1945.4238,58.0
1946.202,63.0
1946.9805,60.0
1947.7593,69.0
1948.5383,65.0
1949.3177,70.0
1950.0975,62.0
1950.8776,79.0
1951.658,82.0
1952.4386,80.0
1953.2196,75.0
1954.0009,64.0
1954.7825,90.0
1955.5643,76.0
1956.3466,80.0
1957.1292,63.0
1957.912,75.0
1958.6952,66.0
1959.4786,58.0
1960.2625,51.0
1961.0465,55.0
1961.8309,58.0
1962.6157,67.0
1963.4008,55.0
1964.1862,73.0
1964.9718,62.0
1965.7578,71.0
1966.5441,70.0
1967.3307,59.0
1968.1177,81.0
1968.9049,93.0
1969.6925,88.0
1970.4803,91.0
1971.2686,56.0
1972.057,76.0
1972.8458,79.0
1973.635,60.0
1974.4244,57.0
1975.2142,65.0
1976.0043,58.0
1976.7947,57.0
1977.5854,67.0
1978.3765,49.0
1979.1678,59.0
1979.9595,71.0
1980.7515,66.0
1981.5438,60.0
1982.3364,53.0
1983.1294,68.0
1983.9226,82.0
1984.7162,97.0
1985.5101,76.0
1986.3043,72.0
1987.0989,60.0
1987.8937,80.0
1988.6888,65.0
1989.4844,74.0
1990.2802,48.0
1991.0763,69.0
1991.8727,80.0
1992.6694,84.0
1993.4666,77.0
1994.2639,73.0
1995.0616,82.0
1995.8596,91.0
1996.658,72.0
1997.4567,55.0
1998.2556,54.0
1999.0549,77.0
1999.8546,78.0
2000.6545,72.0
2001.4548,55.0
2002.2554,65.0
2003.0563,69.0
2003.8575,81.0
2004.659,69.0
2005.4609,61.0
2006.2631,72.0
2007.0656,56.0
2007.8684,71.0
2008.6715,70.0
2009.475,75.0
2010.2788,70.0
2011.0829,73.0
2011.8873,137.0
2012.6921,137.0
2013.4972,124.0
2014.3026,78.0
2015.1083,71.0
2015.9143,76.0
2016.7207,82.0
2017.5273,80.0
2018.3344,53.0
2019.1417,65.0
2019.9493,64.0
2020.7573,75.0
2021.5657,63.0
2022.3743,65.0
2023.1832,50.0
2023.9926,78.0
2024.8021,71.0
2025.612,80.0
2026.4224,78.0
2027.2329,70.0
2028.0438,86.0
2028.855,100.0
2029.6665,102.0
2030.4784,74.0
2031.2905,72.0
2032.103,68.0
2032.9159,80.0
2033.729,80.0
2034.5425,88.0
2035.3563,71.0
2036.1704,72.0
2036.9849,86.0
2037.7997,78.0
2038.6147,80.0
2039.4302,57.0
2040.246,55.0
2041.062,55.0
2041.8784,76.0
2042.6952,55.0
2043.5123,69.0
2044.3297,60.0
2045.1475,62.0
2045.9656,66.0
2046.7839,72.0
2047.6027,75.0
2048.4216,58.0
2049.241,67.0
2050.0605,76.0
2050.8806,83.0
2051.701,91.0
2052.5217,99.0
2053.3428,79.0
2054.164,71.0
2054.9858,64.0
2055.8079,75.0
2056.6301,74.0
2057.453,75.0
2058.276,54.0
2059.099,57.0
2059.9229,86.0
2060.7468,94.0
2061.571,72.0
2062.3958,50.0
2063.2207,68.0
2064.046,72.0
2064.8716,80.0
2065.6975,89.0
2066.5237,76.0
2067.3503,64.0
2068.1772,66.0
2069.0046,64.0
2069.8323,85.0
2070.6602,71.0
2071.4885,70.0
2072.3171,66.0
2073.146,45.0
2073.9753,70.0
2074.805,68.0
2075.6348,65.0
2076.465,47.0
2077.2957,66.0
2078.1265,67.0
2078.9578,58.0
2079.7893,73.0
2080.6213,73.0
2081.4536,72.0
2082.2861,78.0
2083.1191,84.0
2083.9524,118.0
2084.786,93.0
2085.6199,76.0
2086.454,78.0
2087.2886,67.0
2088.1235,59.0
2088.9587,70.0
2089.7944,61.0
2090.6304,66.0
2091.4666,64.0
2092.3032,68.0
2093.1401,66.0
2093.9773,61.0
2094.815,77.0
2095.6528,84.0
2096.4912,59.0
2097.3298,71.0
2098.1687,61.0
2099.008,58.0
2099.8477,60.0
2100.6875,68.0
2101.5278,65.0
2102.3684,69.0
2103.2095,64.0
2104.0508,66.0
2104.8923,71.0
2105.7344,66.0
2106.5767,78.0
2107.4192,53.0
2108.2622,59.0
2109.1055,63.0
2109.9492,51.0
2110.7932,51.0
2111.6375,68.0
2112.4822,73.0
2113.3271,59.0
2114.1724,55.0
2115.018,70.0
2115.864,82.0
2116.7104,82.0
2117.5571,75.0
2118.404,57.0
2119.2515,64.0
2120.099,62.0
2120.9473,87.0
2121.7957,69.0
2122.6443,73.0
2123.4934,78.0
2124.3428,78.0
2125.1926,58.0
2126.0427,87.0
2126.893,75.0
2127.744,71.0
2128.595,57.0
2129.4463,63.0
2130.298,57.0
2131.1501,55.0
2132.0027,55.0
2132.8555,67.0
2133.7085,63.0
2134.562,53.0
2135.4158,75.0
2136.27,80.0
2137.1245,55.0
2137.9792,71.0
2138.8345,72.0
2139.69,70.0
2140.546,70.0
2141.402,82.0
2142.2585,119.0
2143.1155,120.0
2143.9727,89.0
2144.8303,64.0
2145.6882,71.0
2146.5464,74.0
2147.405,52.0
2148.264,66.0
2149.1233,59.0
2149.983,64.0
2150.843,62.0
2151.7034,65.0
2152.564,62.0
2153.425,77.0
2154.2864,51.0
2155.1482,74.0
2156.0103,67.0
2156.8726,74.0
2157.7354,67.0
2158.5984,80.0
2159.462,83.0
2160.3257,65.0
2161.1897,55.0
2162.0542,81.0
2162.919,80.0
2163.7842,83.0
2164.6497,84.0
2165.5156,69.0
2166.3818,68.0
2167.2483,58.0
2168.1152,70.0
2168.9824,84.0
2169.85,86.0
2170.718,72.0
2171.5864,75.0
2172.455,74.0
2173.324,64.0
2174.1934,65.0
2175.063,58.0
2175.933,76.0
2176.8035,87.0
2177.674,59.0
2178.5452,63.0
2179.4165,82.0
2180.2883,63.0
2181.1604,64.0
2182.033,70.0
2182.9058,70.0
2183.7788,68.0
2184.6523,77.0
2185.5261,67.0
2186.4004,49.0
2187.275,65.0
2188.15,59.0
2189.0251,48.0
2189.9006,66.0
2190.7766,82.0
2191.6528,64.0
2192.5295,77.0
2193.4065,76.0
2194.284,83.0
2195.1616,85.0
2196.0398,95.0
2196.9182,101.0
2197.7969,85.0
2198.676,72.0
2199.5554,70.0
2200.4353,50.0
2201.3154,76.0
2202.196,58.0
2203.077,71.0
2203.9583,76.0
2204.8398,82.0
2205.7217,66.0
2206.604,74.0
2207.4866,71.0
2208.3696,55.0
2209.253,65.0
2210.1367,61.0
2211.0208,71.0
2211.9053,69.0
2212.79,84.0
2213.675,69.0
2214.5605,79.0
2215.4463,87.0
2216.3325,79.0
2217.219,67.0
2218.106,74.0
2218.9932,66.0
2219.8809,73.0
2220.7688,85.0
2221.6572,68.0
2222.546,66.0
2223.4348,65.0
2224.3242,56.0
2225.2139,66.0
2226.104,67.0
2226.9944,75.0
2227.8853,76.0
2228.7764,71.0
2229.668,59.0
2230.5598,69.0
2231.4521,68.0
2232.3447,80.0
2233.2375,81.0
2234.1309,74.0
2235.0244,60.0
2235.9185,64.0
2236.8127,82.0
2237.7075,85.0
2238.6025,71.0
2239.498,73.0
2240.3938,68.0
2241.29,57.0
2242.1865,58.0
2243.0835,59.0
2243.9807,53.0
2244.8784,59.0
2245.7764,74.0
2246.6746,67.0
2247.5732,73.0
2248.4722,73.0
2249.3716,70.0
2250.2712,74.0
2251.1714,63.0
2252.0718,73.0
2252.9727,81.0
2253.8738,79.0
2254.7754,89.0
2255.6772,66.0
2256.5796,64.0
2257.4822,61.0
2258.3853,84.0
2259.2886,54.0
2260.1924,73.0
2261.0964,70.0
2262.001,66.0
2262.9058,64.0
2263.811,75.0
2264.7166,60.0
2265.6226,74.0
2266.5288,84.0
2267.4353,76.0
2268.3423,52.0
2269.2495,66.0
2270.1572,63.0
2271.0652,65.0
2271.9736,75.0
2272.8823,64.0
2273.7915,81.0
2274.701,91.0
2275.6108,103.0
2276.521,75.0
2277.4316,95.0
2278.3425,68.0
2279.254,71.0
2280.1655,73.0
2281.0776,59.0
2281.99,62.0
2282.9028,75.0
2283.816,74.0
2284.7295,58.0
2285.6433,69.0
2286.5576,66.0
2287.4722,54.0
2288.3872,61.0
2289.3025,66.0
2290.2183,56.0
2291.1343,56.0
2292.0508,74.0
2292.9675,73.0
2293.8848,82.0
2294.8022,77.0
2295.7202,76.0
2296.6384,85.0
2297.5571,68.0
2298.476,72.0
2299.3955,62.0
2300.3152,63.0
2301.2354,80.0
2302.1558,73.0
2303.0767,81.0
2303.9978,77.0
2304.9194,79.0
2305.8413,69.0
2306.7637,58.0
2307.6863,72.0
2308.6094,65.0
2309.5327,81.0
2310.4565,75.0
2311.3806,71.0
2312.3052,91.0
2313.23,64.0
2314.1553,70.0
2315.081,77.0
2316.007,67.0
2316.9336,75.0
2317.8604,71.0
2318.7876,69.0
2319.715,80.0
2320.643,81.0
2321.5713,60.0
2322.5,61.0
2323.429,65.0
2324.3584,73.0
2325.288,70.0
2326.2183,82.0
2327.1487,86.0
2328.0796,73.0
2329.0107,86.0
2329.9424,92.0
2330.8743,80.0
2331.8066,75.0
2332.7393,72.0
2333.6724,68.0
2334.6057,75.0
2335.5396,66.0
2336.4739,62.0
2337.4084,65.0
2338.3435,67.0
2339.2788,77.0
2340.2146,61.0
2341.1506,56.0
2342.0872,66.0
2343.024,68.0
2343.9612,59.0
2344.8987,76.0
2345.8367,81.0
2346.775,74.0
2347.7136,77.0
2348.6526,65.0
2349.592,65.0
2350.532,69.0
2351.4722,67.0
2352.4128,71.0
2353.3538,82.0
2354.2952,74.0
2355.2368,80.0
2356.179,66.0
2357.1213,85.0
2358.0642,84.0
2359.0073,68.0
2359.951,67.0
2360.895,57.0
2361.8394,74.0
2362.7842,76.0
2363.7292,82.0
2364.6748,85.0
2365.6206,59.0
2366.567,93.0
2367.5134,77.0
2368.4604,75.0
2369.4077,65.0
2370.3555,55.0
2371.3037,71.0
2372.2522,66.0
2373.2012,79.0
2374.1504,69.0
2375.1,71.0
2376.05,72.0
2377.0005,61.0
2377.9512,69.0
2378.9023,62.0
2379.854,54.0
2380.806,80.0
2381.7583,76.0
2382.711,75.0
2383.664,55.0
2384.6174,74.0
2385.5713,85.0
2386.5256,64.0
2387.4802,86.0
2388.4353,75.0
2389.3906,89.0
2390.3464,74.0
2391.3025,89.0
2392.259,70.0
2393.2158,70.0
2394.173,68.0
2395.1309,73.0
2396.0889,60.0
2397.0474,58.0
2398.006,78.0
2398.9653,84.0
2399.9248,69.0
2400.8848,62.0
2401.8452,63.0
2402.806,83.0
2403.767,79.0
2404.7285,80.0
2405.6904,83.0
2406.6526,71.0
2407.6152,70.0
2408.5784,78.0
2409.5417,54.0
2410.5056,73.0
2411.4697,72.0
2412.4343,80.0
2413.3994,63.0
2414.3647,61.0
2415.3306,76.0
2416.2966,68.0
2417.2632,74.0
2418.23,73.0
2419.1973,76.0
2420.165,84.0
2421.133,88.0
2422.1016,89.0
2423.0703,84.0
2424.0396,51.0
2425.0093,76.0
2425.9792,63.0
2426.9497,87.0
2427.9204,72.0
2428.8916,57.0
2429.863,81.0
2430.835,70.0
2431.8074,65.0
2432.78,68.0
2433.7532,59.0
2434.7266,73.0
2435.7004,69.0
2436.6748,72.0
2437.6494,65.0
2438.6245,64.0
2439.5999,65.0
2440.5757,73.0
2441.552,47.0
2442.5286,78.0
2443.5056,81.0
2444.483,71.0
2445.4607,70.0
2446.439,77.0
2447.4175,71.0
2448.3965,72.0
2449.3757,69.0
2450.3555,80.0
2451.3357,90.0
2452.3162,51.0
2453.297,80.0
2454.2783,74.0
2455.26,81.0
2456.2422,68.0
2457.2246,70.0
2458.2075,47.0
2459.191,74.0
2460.1746,59.0
2461.1587,69.0
2462.143,78.0
2463.128,83.0
2464.1133,62.0
2465.0989,65.0
2466.085,73.0
2467.0713,85.0
2468.058,75.0
2469.0454,70.0
2470.033,82.0
2471.021,72.0
2472.0095,67.0
2472.9983,74.0
2473.9875,65.0
2474.977,68.0
2475.967,64.0
2476.9575,72.0
2477.9482,66.0
2478.9395,61.0
2479.931,64.0
2480.9229,82.0
2481.9153,76.0
2482.908,79.0
2483.9011,66.0
2484.8948,68.0
2485.8887,83.0
2486.883,84.0
2487.878,74.0
2488.873,76.0
2489.8687,70.0
2490.8645,69.0
2491.8608,82.0
2492.8577,79.0
2493.8547,71.0
2494.8523,64.0
2495.8503,60.0
2496.8486,71.0
2497.8474,87.0
2498.8464,79.0
2499.846,77.0
2500.846,78.0
2501.8462,79.0
2502.847,60.0
2503.8481,67.0
2504.8496,87.0
2505.8516,73.0
2506.854,75.0
2507.8567,63.0
2508.8599,59.0
2509.8635,67.0
2510.8674,62.0
2511.8718,66.0
2512.8765,67.0
2513.8816,78.0
2514.8872,54.0
2515.893,64.0
2516.8994,62.0
2517.9062,69.0
2518.9133,89.0
2519.921,81.0
2520.929,59.0
2521.9373,65.0
2522.946,76.0
2523.9553,81.0
2524.9648,90.0
2525.9749,56.0
2526.9854,57.0
2527.996,67.0
2529.0073,75.0
2530.019,58.0
2531.031,71.0
2532.0435,56.0
2533.0562,65.0
2534.0693,78.0
2535.083,75.0
2536.097,73.0
2537.1113,60.0
2538.1262,75.0
2539.1414,57.0
2540.157,56.0
2541.173,76.0
2542.1895,67.0
2543.2063,66.0
2544.2236,58.0
2545.2412,62.0
2546.2593,59.0
2547.2778,80.0
2548.2966,66.0
2549.316,67.0
2550.3357,68.0
2551.3557,74.0
2552.3762,70.0
2553.3972,67.0
2554.4185,73.0
2555.4402,59.0
2556.4624,67.0
2557.485,67.0
2558.508,59.0
2559.5315,54.0
2560.5554,69.0
2561.5796,55.0
2562.6042,97.0
2563.6294,100.0
2564.6548,89.0
2565.6807,81.0
2566.707,70.0
2567.7336,72.0
2568.7607,59.0
2569.7883,70.0
2570.8162,72.0
2571.8445,55.0
2572.8733,68.0
2573.9023,75.0
2574.932,61.0
2575.962,80.0
2576.9922,65.0
2578.023,66.0
2579.0542,78.0
2580.086,96.0
2581.118,59.0
2582.1504,69.0
2583.1833,62.0
2584.2166,82.0
2585.2502,58.0
2586.2844,84.0
2587.3188,76.0
2588.3538,65.0
2589.3892,79.0
2590.4248,54.0
2591.461,68.0
2592.4976,108.0
2593.5347,83.0
2594.572,84.0
2595.6099,66.0
2596.6482,63.0
2597.6868,66.0
2598.7258,58.0
2599.7654,56.0
2600.8052,67.0
2601.8455,54.0
2602.8862,73.0
2603.9275,69.0
2604.969,77.0
2606.011,61.0
2607.0535,70.0
2608.0962,81.0
2609.1394,81.0
2610.183,89.0
2611.2273,80.0
2612.2717,65.0
2613.3167,59.0
2614.362,64.0
2615.4077,65.0
2616.4539,73.0
2617.5005,76.0
2618.5476,68.0
2619.595,65.0
2620.6428,77.0
2621.6912,77.0
2622.7397,91.0
2623.7888,67.0
2624.8384,97.0
2625.8884,82.0
2626.9387,87.0
2627.9895,62.0
2629.0408,61.0
2630.0923,68.0
2631.1443,76.0
2632.1968,78.0
2633.2498,80.0
2634.303,73.0
2635.3567,76.0
2636.411,87.0
2637.4653,72.0
2638.5203,94.0
2639.5757,87.0
2640.6316,71.0
2641.6877,72.0
2642.7444,83.0
2643.8015,78.0
2644.8591,51.0
2645.917,82.0
2646.9753,90.0
2648.0342,82.0
2649.0935,88.0
2650.153,87.0
2651.2131,81.0
2652.2737,85.0
2653.3345,75.0
2654.3958,76.0
2655.4575,71.0
2656.5198,82.0
2657.5823,66.0
2658.6453,71.0
2659.7087,69.0
2660.7727,70.0
2661.837,69.0
2662.9016,75.0
2663.9668,107.0
2665.0325,97.0
2666.0984,99.0
2667.1648,93.0
2668.2317,87.0
2669.299,94.0
2670.3667,64.0
2671.4348,76.0
2672.5034,64.0
2673.5725,80.0
2674.6418,64.0
2675.7117,86.0
2676.782,62.0
2677.8528,67.0
2678.9238,70.0
2679.9954,89.0
2681.0674,98.0
2682.14,78.0
2683.2126,94.0
2684.286,83.0
2685.3596,66.0
2686.4338,67.0
2687.5083,92.0
2688.5833,68.0
2689.6587,72.0
2690.7346,83.0
2691.8108,69.0
2692.8875,77.0
2693.9646,74.0
2695.0422,66.0
2696.1204,87.0
2697.1987,80.0
2698.2776,70.0
2699.357,76.0
2700.4368,93.0
2701.5168,92.0
2702.5974,64.0
2703.6785,70.0
2704.76,71.0
2705.8418,90.0
2706.924,57.0
2708.0068,70.0
2709.09,63.0
2710.1738,72.0
2711.2578,79.0
2712.3423,61.0
2713.4272,67.0
2714.5127,92.0
2715.5984,81.0
2716.6846,74.0
2717.7712,82.0
2718.8584,69.0
2719.946,78.0
2721.034,64.0
2722.1223,94.0
2723.2112,101.0
2724.3005,82.0
2725.3901,77.0
2726.4802,67.0
2727.5708,81.0
2728.6619,77.0
2729.7534,113.0
2730.8452,89.0
2731.9375,80.0
2733.0303,78.0
2734.1235,84.0
2735.2173,151.0
2736.3113,163.0
2737.4058,119.0
2738.5007,76.0
2739.5962,75.0
2740.6921,70.0
2741.7883,83.0
2742.885,73.0
2743.9822,84.0
2745.0798,88.0
2746.178,80.0
2747.2764,86.0
2748.3752,77.0
2749.4746,75.0
2750.5745,83.0
2751.6748,82.0
2752.7754,78.0
2753.8765,72.0
2754.978,68.0
2756.08,68.0
2757.1826,74.0
2758.2854,59.0
2759.3887,74.0
2760.4924,62.0
2761.5967,82.0
2762.7014,83.0
2763.8064,80.0
2764.9119,83.0
2766.0178,70.0
2767.1243,84.0
2768.2312,75.0
2769.3384,66.0
2770.446,72.0
2771.5542,79.0
2772.6628,74.0
2773.772,73.0
2774.8816,62.0
2775.9915,82.0
2777.1018,67.0
2778.2126,91.0
2779.324,98.0
2780.4358,91.0
2781.5479,71.0
2782.6604,68.0
2783.7734,79.0
2784.887,71.0
2786.001,62.0
2787.1155,62.0
2788.2302,71.0
2789.3455,63.0
2790.4612,74.0
2791.5774,85.0
2792.694,75.0
2793.8113,131.0
2794.9287,132.0
2796.0466,134.0
2797.165,155.0
2798.284,165.0
2799.4033,129.0
2800.5232,117.0
2801.6433,117.0
2802.764,107.0
2803.885,119.0
2805.0066,125.0
2806.1287,127.0
2807.2512,145.0
2808.374,134.0
2809.4973,127.0
2810.621,110.0
2811.7454,131.0
2812.87,113.0
2813.9954,106.0
2815.1208,117.0
2816.2468,120.0
2817.3733,122.0
2818.5002,102.0
2819.6277,91.0
2820.7556,120.0
2821.884,114.0
2823.0127,101.0
2824.1418,113.0
2825.2715,101.0
2826.4016,98.0
2827.5322,116.0
2828.6633,113.0
2829.7947,121.0
2830.9265,101.0
2832.0588,109.0
2833.1917,111.0
2834.325,118.0
2835.4587,104.0
2836.593,119.0
2837.7275,100.0
2838.8625,97.0
2839.998,110.0
2841.134,116.0
2842.2705,104.0
2843.4075,107.0
2844.545,115.0
2845.6829,113.0
2846.821,97.0
2847.9597,117.0
2849.0989,114.0
2850.2385,108.0
2851.3787,116.0
2852.5193,110.0
2853.6604,108.0
2854.8018,106.0
2855.9436,107.0
2857.086,126.0
2858.2288,117.0
2859.372,130.0
2860.5159,122.0
2861.6602,111.0
2862.805,133.0
2863.95,105.0
2865.0955,89.0
2866.2415,108.0
2867.388,132.0
2868.535,114.0
2869.6824,125.0
2870.8303,119.0
2871.9788,103.0
2873.1274,113.0
2874.2766,123.0
2875.4263,99.0
2876.5764,111.0
2877.727,114.0
2878.8782,79.0
2880.0298,114.0
2881.182,91.0
2882.3345,114.0
2883.4873,102.0
2884.6406,106.0
2885.7944,100.0
2886.9487,106.0
2888.1035,118.0
2889.2588,110.0
2890.4146,109.0
2891.5708,101.0
2892.7275,110.0
2893.8845,123.0
2895.042,117.0
2896.2,130.0
2897.3584,123.0
2898.5173,124.0
2899.6768,111.0
2900.8367,105.0
2901.997,113.0
2903.158,106.0
2904.3193,112.0
2905.481,134.0
2906.643,121.0
2907.8057,147.0
2908.9688,163.0
2910.1323,146.0
2911.2964,138.0
2912.461,106.0
2913.626,114.0
2914.7915,110.0
2915.9575,93.0
2917.124,95.0
2918.2908,96.0
2919.458,87.0
2920.6257,122.0
2921.794,132.0
2922.9626,148.0
2924.1318,153.0
2925.3015,149.0
2926.4717,137.0
2927.6423,111.0
2928.8135,102.0
2929.985,115.0
2931.157,87.0
2932.3293,105.0
2933.5022,121.0
2934.6755,106.0
2935.8494,111.0
2937.0237,103.0
2938.1985,125.0
2939.3738,104.0
2940.5496,109.0
2941.7258,116.0
2942.9026,132.0
2944.0798,138.0
2945.2576,112.0
2946.4358,115.0
2947.6143,118.0
2948.7932,108.0
2949.9727,108.0
2951.1526,138.0
2952.333,117.0
2953.514,115.0
2954.6953,120.0
2955.8772,112.0
2957.0596,114.0
2958.2424,114.0
2959.4258,125.0
2960.6096,128.0
2961.794,108.0
2962.9788,117.0
2964.164,97.0
2965.3496,97.0
2966.5356,122.0
2967.7222,117.0
2968.9092,114.0
2970.0967,106.0
2971.2847,126.0
2972.4731,131.0
2973.662,99.0
2974.8516,110.0
2976.0415,99.0
2977.232,107.0
2978.4229,121.0
2979.6143,114.0
2980.8062,135.0
2981.9985,133.0
2983.1914,110.0
2984.3848,102.0
2985.5786,114.0
2986.773,102.0
2987.9678,123.0
2989.1628,105.0
2990.3584,112.0
2991.5544,97.0
2992.751,92.0
2993.948,111.0
2995.1455,96.0
2996.3435,115.0
2997.542,123.0
2998.741,113.0
2999.9404,111.0
3001.1404,111.0
3002.3408,127.0
3003.5417,106.0
3004.7432,123.0
3005.945,102.0
3007.1475,101.0
3008.3503,110.0
3009.5537,125.0
3010.7576,92.0
3011.962,94.0
3013.1667,118.0
3014.372,116.0
3015.578,124.0
3016.7842,112.0
3017.991,103.0
3019.1982,110.0
3020.406,127.0
3021.6143,128.0
3022.823,114.0
3024.0322,99.0
3025.242,110.0
3026.4521,127.0
3027.6628,114.0
3028.874,96.0
3030.0857,113.0
3031.2976,124.0
3032.51,103.0
3033.723,101.0
3034.9363,108.0
3036.1501,125.0
3037.3645,104.0
3038.5793,110.0
3039.7947,92.0
3041.0105,104.0
3042.2268,108.0
3043.4436,107.0
3044.661,105.0
3045.8787,101.0
3047.097,112.0
3048.3157,108.0
3049.535,88.0
3050.7546,98.0
3051.9749,117.0
3053.1956,127.0
3054.4167,127.0
3055.6384,133.0
3056.8606,125.0
3058.0833,101.0
3059.3064,112.0
3060.53,111.0
3061.7542,116.0
3062.9788,111.0
3064.2039,107.0
3065.4294,108.0
3066.6555,106.0
3067.882,105.0
3069.1091,103.0
3070.3367,123.0
3071.5647,112.0
3072.7932,119.0
3074.0222,103.0
3075.2517,106.0
3076.4817,111.0
3077.7124,109.0
3078.9436,120.0
3080.1753,123.0
3081.4075,117.0
3082.6401,123.0
3083.8733,108.0
3085.107,105.0
3086.341,113.0
3087.5757,123.0
3088.8108,105.0
3090.0464,133.0
3091.2825,92.0
3092.519,109.0
3093.756,119.0
3094.9937,122.0
3096.2317,118.0
3097.4702,125.0
3098.7092,135.0
3099.9487,99.0
3101.1887,120.0
3102.4292,116.0
3103.6702,128.0
3104.9116,111.0
3106.1536,99.0
3107.396,124.0
3108.639,101.0
3109.8823,108.0
3111.1262,109.0
3112.3706,109.0
3113.6155,127.0
3114.8608,127.0
3116.1067,96.0
3117.353,109.0
3118.5999,115.0
3119.8474,94.0
3121.0955,114.0
3122.344,130.0
3123.593,116.0
3124.8425,109.0
3126.0925,126.0
3127.343,114.0
3128.594,129.0
3129.8455,110.0
3131.0974,90.0
3132.3499,125.0
3133.6028,111.0
3134.8562,113.0
3136.11,112.0
3137.3645,126.0
3138.6194,136.0
3139.8748,135.0
3141.1306,107.0
3142.387,90.0
3143.6438,108.0
3144.9014,118.0
3146.1594,127.0
3147.418,129.0
3148.677,126.0
3149.9365,108.0
3151.1965,100.0
3152.457,99.0
3153.718,130.0
3154.9795,105.0
3156.2415,147.0
3157.504,125.0
3158.7668,139.0
3160.0303,97.0
3161.2942,123.0
3162.5586,112.0
3163.8237,117.0
3165.0894,119.0
3166.3555,101.0
3167.622,110.0
3168.8892,102.0
3170.1567,108.0
3171.4248,114.0
3172.6934,110.0
3173.9624,104.0
3175.232,90.0
3176.502,109.0
3177.7725,99.0
3179.0435,107.0
3180.3152,113.0
3181.5874,124.0
3182.86,135.0
3184.1333,121.0
3185.407,116.0
3186.6812,103.0
3187.9558,119.0
3189.231,117.0
3190.5066,132.0
3191.7827,125.0
3193.0593,115.0
3194.3367,135.0
3195.6145,136.0
3196.8928,111.0
3198.1716,124.0
3199.451,119.0
3200.7307,102.0
3202.011,116.0
3203.2917,117.0
3204.573,115.0
3205.8547,117.0
3207.137,117.0
3208.42,102.0
3209.7034,121.0
3210.9873,108.0
3212.2717,112.0
3213.5566,126.0
3214.842,117.0
3216.128,124.0
3217.4143,123.0
3218.7012,109.0
3219.9888,106.0
3221.2769,94.0
3222.5654,122.0
3223.8545,124.0
3225.144,130.0
3226.434,143.0
3227.7246,155.0
3229.0156,136.0
3230.3071,122.0
3231.5994,126.0
3232.892,123.0
3234.1853,103.0
3235.479,128.0
3236.7732,115.0
3238.0679,115.0
3239.363,100.0
3240.6587,98.0
3241.9548,109.0
3243.2517,123.0
3244.549,111.0
3245.847,116.0
3247.1453,96.0
3248.444,128.0
3249.7434,115.0
3251.0432,106.0
3252.3438,99.0
3253.6448,119.0
3254.9463,95.0
3256.2483,104.0
3257.5508,125.0
3258.8538,121.0
3260.1572,92.0
3261.4612,130.0
3262.7659,137.0
3264.071,106.0
3265.3767,117.0
3266.6829,116.0
3267.9895,98.0
3269.2966,103.0
3270.6042,132.0
3271.9126,102.0
3273.2214,106.0
3274.5308,120.0
3275.8406,121.0
3277.151,114.0
3278.4617,118.0
3279.773,132.0
3281.085,113.0
3282.3975,120.0
3283.7104,93.0
3285.024,116.0
3286.338,128.0
3287.6523,106.0
3288.9673,139.0
3290.283,115.0
3291.599,116.0
3292.9158,122.0
3294.233,131.0
3295.5505,142.0
3296.8687,122.0
3298.1875,136.0
3299.5068,104.0
3300.8267,130.0
3302.147,114.0
3303.4678,137.0
3304.789,114.0
3306.111,101.0
3307.4336,137.0
3308.7566,126.0
3310.08,115.0
3311.404,110.0
3312.7285,135.0
3314.0537,126.0
3315.3794,109.0
3316.7056,133.0
3318.0322,96.0
3319.3594,129.0
3320.687,120.0
3322.0154,112.0
3323.3442,109.0
3324.6736,143.0
3326.0034,117.0
3327.3337,109.0
3328.6648,114.0
3329.9963,119.0
3331.3284,116.0
3332.661,136.0
3333.994,97.0
3335.3274,117.0
3336.6616,125.0
3337.9963,128.0
3339.3315,131.0
3340.6672,122.0
3342.0034,128.0
3343.3403,126.0
3344.6777,144.0
3346.0156,125.0
3347.354,130.0
3348.6929,125.0
3350.0322,120.0
3351.3723,126.0
3352.713,114.0
3354.054,125.0
3355.3955,126.0
3356.7375,125.0
3358.0803,133.0
3359.4236,115.0
3360.7673,114.0
3362.1116,115.0
3363.4563,118.0
3364.8018,112.0
3366.1477,125.0
3367.4941,124.0
3368.841,126.0
3370.1887,124.0
3371.5369,125.0
3372.8855,130.0
3374.2346,141.0
3375.5842,150.0
3376.9346,127.0
3378.2854,109.0
3379.6367,136.0
3380.9885,135.0
3382.3408,130.0
3383.6938,139.0
3385.0474,137.0
3386.4014,122.0
3387.7559,137.0
3389.1108,140.0
3390.4666,123.0
3391.8228,138.0
3393.1794,152.0
3394.5366,116.0
3395.8945,123.0
3397.253,134.0
3398.6118,131.0
3399.9712,131.0
3401.3313,113.0
3402.692,138.0
3404.053,137.0
3405.4146,143.0
3406.7766,142.0
3408.1394,121.0
3409.5027,118.0
3410.8665,110.0
3412.2307,130.0
3413.5957,137.0
3414.9612,140.0
3416.3271,131.0
3417.6936,117.0
3419.0608,124.0
3420.4285,161.0
3421.7966,142.0
3423.1653,130.0
3424.5347,147.0
3425.9045,126.0
3427.275,149.0
3428.6458,152.0
3430.017,135.0
3431.3892,158.0
3432.7617,127.0
3434.1348,126.0
3435.5083,133.0
3436.8826,156.0
3438.2573,126.0
3439.6326,118.0
3441.0083,116.0
3442.3848,131.0
3443.7617,129.0
3445.1392,123.0
3446.5173,127.0
3447.896,156.0
3449.2751,122.0
3450.6548,130.0
3452.0352,134.0
3453.416,151.0
3454.7974,156.0
3456.1792,128.0
3457.5618,141.0
3458.9448,129.0
3460.3284,129.0
3461.7124,129.0
3463.0972,109.0
3464.4824,120.0
3465.8682,132.0
3467.2544,108.0
3468.6414,126.0
3470.0288,116.0
3471.4167,119.0
3472.8054,155.0
3474.1946,150.0
3475.5842,149.0
3476.9744,146.0
3478.3652,143.0
3479.7566,152.0
3481.1484,110.0
3482.541,121.0
3483.934,134.0
3485.3276,118.0
3486.7217,135.0
3488.1165,129.0
3489.5117,128.0
3490.9075,148.0
3492.304,127.0
3493.701,145.0
3495.0984,137.0
3496.4963,134.0
3497.895,136.0
3499.2942,142.0
3500.6938,136.0
3502.0942,149.0
3503.495,144.0
3504.8965,150.0
3506.2983,121.0
3507.701,132.0
3509.104,145.0
3510.5076,156.0
3511.9119,140.0
3513.3167,120.0
3514.722,131.0
3516.128,128.0
3517.5344,136.0
3518.9414,138.0
3520.3489,133.0
3521.757,163.0
3523.1658,169.0
3524.575,149.0
3525.9849,136.0
3527.3953,136.0
3528.8062,158.0
3530.2178,197.0
3531.63,209.0
3533.0425,163.0
3534.4558,182.0
3535.8696,142.0
3537.284,107.0
3538.6987,140.0
3540.1143,136.0
3541.5303,139.0
3542.9468,144.0
3544.364,129.0
3545.7817,143.0
3547.2,144.0
3548.619,149.0
3550.0383,153.0
3551.4583,141.0
3552.879,123.0
3554.3,131.0
3555.7217,151.0
3557.144,148.0
3558.567,142.0
3559.9902,152.0
3561.4143,139.0
3562.8389,144.0
3564.264,149.0
3565.6897,150.0
3567.116,158.0
3568.5427,170.0
3569.9702,164.0
3571.3982,157.0
3572.8267,168.0
3574.2559,171.0
3575.6855,149.0
3577.1157,137.0
3578.5466,179.0
3579.978,164.0
3581.41,179.0
3582.8425,177.0
3584.2756,151.0
3585.7092,158.0
3587.1436,181.0
3588.5784,179.0
3590.014,181.0
3591.45,198.0
3592.8865,160.0
3594.3237,165.0
3595.7615,188.0
3597.1997,180.0
3598.6387,216.0
3600.0781,213.0
3601.518,180.0
3602.9587,175.0
3604.4,170.0
3605.8416,180.0
3607.284,208.0
3608.7268,279.0
3610.1704,198.0
3611.6145,185.0
3613.059,179.0
3614.5044,155.0
3615.9502,278.0
3617.3965,350.0
3618.8435,249.0
3620.291,154.0
3621.739,162.0
3623.1877,157.0
3624.637,157.0
3626.087,183.0
3627.5374,197.0
3628.9883,193.0
3630.44,156.0
3631.892,150.0
3633.3447,150.0
3634.798,163.0
3636.252,177.0
3637.7065,189.0
3639.1616,155.0
3640.6172,178.0
3642.0735,168.0
3643.5303,170.0
3644.9878,222.0
3646.4458,178.0
3647.9043,162.0
3649.3635,145.0
3650.8232,163.0
3652.2837,163.0
3653.7446,161.0
3655.206,153.0
3656.6682,166.0
3658.1309,177.0
3659.594,181.0
3661.0579,155.0
3662.5222,171.0
3663.9873,189.0
3665.453,183.0
3666.919,202.0
3668.3857,174.0
3669.853,161.0
3671.321,139.0
3672.7896,138.0
3674.2585,166.0
3675.7283,179.0
3677.1985,195.0
3678.6694,184.0
3680.1409,206.0
3681.613,155.0
3683.0857,171.0
3684.5588,147.0
3686.0327,139.0
3687.507,141.0
3688.9822,152.0
3690.4578,171.0
3691.9338,166.0
3693.4106,138.0
3694.888,165.0
3696.366,144.0
3697.8445,141.0
3699.3237,157.0
3700.8035,146.0
3702.2837,179.0
3703.7646,157.0
3705.246,137.0
3706.7283,169.0
3708.211,191.0
3709.6943,207.0
3711.1782,185.0
3712.6626,181.0
3714.1477,158.0
3715.6333,158.0
3717.1196,176.0
3718.6064,204.0
3720.094,171.0
3721.582,143.0
3723.0706,153.0
3724.5598,139.0
3726.0496,158.0
3727.54,158.0
3729.031,173.0
3730.5227,173.0
3732.015,154.0
3733.5078,184.0
3735.0012,204.0
3736.495,189.0
3737.9897,202.0
3739.4849,177.0
3740.9807,170.0
3742.477,165.0
3743.974,191.0
3745.4717,192.0
3746.97,176.0
3748.4688,168.0
3749.968,229.0
3751.468,375.0
3752.9685,413.0
3754.4697,282.0
3755.9714,248.0
3757.4739,196.0
3758.9768,191.0
3760.4805,176.0
3761.9846,189.0
3763.4895,143.0
3764.9949,177.0
3766.501,201.0
3768.0076,223.0
3769.515,189.0
3771.0227,186.0
3772.531,199.0
3774.04,191.0
3775.5496,227.0
3777.0598,201.0
3778.5706,197.0
3780.082,187.0
3781.594,203.0
3783.1067,216.0
3784.6199,235.0
3786.1338,208.0
3787.6482,207.0
3789.1633,217.0
3790.679,205.0
3792.1953,185.0
3793.7122,171.0
3795.2297,187.0
3796.7478,185.0
3798.2666,218.0
3799.786,181.0
3801.306,170.0
3802.8264,197.0
3804.3477,169.0
3805.8694,180.0
3807.3918,199.0
3808.9148,210.0
3810.4385,196.0
3811.9626,193.0
3813.4875,213.0
3815.013,280.0
3816.539,246.0
3818.0657,236.0
3819.593,188.0
3821.1208,199.0
3822.6494,190.0
3824.1785,188.0
3825.7083,198.0
3827.2385,168.0
3828.7695,208.0
3830.301,248.0
3831.8333,246.0
3833.366,209.0
3834.8994,207.0
3836.4333,166.0
3837.968,179.0
3839.5032,240.0
3841.039,221.0
3842.5754,209.0
3844.1125,192.0
3845.6501,207.0
3847.1885,258.0
3848.7273,320.0
3850.2668,319.0
3851.807,234.0
3853.3477,205.0
3854.889,189.0
3856.431,165.0
3857.9734,188.0
3859.5166,210.0
3861.0603,207.0
3862.6047,196.0
3864.1497,208.0
3865.6953,219.0
3867.2417,219.0
3868.7886,222.0
3870.3362,225.0
3871.8843,200.0
3873.433,202.0
3874.9824,233.0
3876.5325,221.0
3878.083,201.0
3879.6343,193.0
3881.186,243.0
3882.7385,264.0
3884.2915,262.0
3885.8452,259.0
3887.3997,187.0
3888.9546,202.0
3890.5103,185.0
3892.0664,193.0
3893.6233,188.0
3895.1807,201.0
3896.7388,199.0
3898.2974,222.0
3899.8567,242.0
3901.4167,284.0
3902.9773,239.0
3904.5386,205.0
3906.1003,226.0
3907.6628,206.0
3909.2258,180.0
3910.7896,177.0
3912.3538,183.0
3913.9187,215.0
3915.4844,221.0
3917.0505,247.0
3918.6174,230.0
3920.1848,198.0
3921.753,244.0
3923.3215,200.0
3924.8909,188.0
3926.461,206.0
3928.0315,197.0
3929.6028,196.0
3931.1746,216.0
3932.747,191.0
3934.32,200.0
3935.8938,189.0
3937.4683,186.0
3939.0432,215.0
3940.619,196.0
3942.195,232.0
3943.772,171.0
3945.3494,170.0
3946.9275,179.0
3948.5063,187.0
3950.0857,189.0
3951.6658,202.0
3953.2463,175.0
3954.8276,171.0
3956.4097,156.0
3957.9922,210.0
3959.5754,210.0
3961.1592,190.0
3962.7437,158.0
3964.3289,193.0
3965.9146,183.0
3967.501,154.0
3969.088,183.0
3970.6755,172.0
3972.264,159.0
3973.8528,183.0
3975.4424,171.0
3977.0325,162.0
3978.6233,192.0
3980.2148,194.0
3981.807,220.0
3983.3997,182.0
3984.993,197.0
3986.587,181.0
3988.1816,184.0
3989.7769,174.0
3991.3728,171.0
3992.9692,209.0
3994.5664,200.0
3996.1643,185.0
3997.7627,202.0
3999.3618,175.0
4000.9617,191.0
4002.562,233.0
4004.163,207.0
4005.7646,182.0
4007.367,171.0
4008.97,182.0
4010.5735,183.0
4012.1777,178.0
4013.7827,197.0
4015.3882,167.0
4016.9944,187.0
4018.601,197.0
4020.2085,197.0
4021.8167,219.0
4023.4253,202.0
4025.0347,185.0
4026.6448,198.0
4028.2554,212.0
4029.8667,233.0
4031.4788,203.0
4033.0913,208.0
4034.7046,211.0
4036.3184,244.0
4037.9329,280.0
4039.548,268.0
4041.1638,268.0
4042.7803,279.0
4044.3975,281.0
4046.0151,253.0
4047.6335,234.0
4049.2527,293.0
4050.8723,385.0
4052.4927,338.0
4054.1138,335.0
4055.7354,334.0
4057.3577,272.0
4058.9807,320.0
4060.6042,403.0
4062.2285,366.0
4063.8535,379.0
4065.479,385.0
4067.1052,316.0
4068.7322,349.0
4070.3596,437.0
4071.9878,512.0
4073.6167,582.0
4075.246,435.0
4076.8762,425.0
4078.507,451.0
4080.1384,545.0
4081.7705,708.0
4083.4033,602.0
4085.0366,722.0
4086.6707,834.0
4088.3054,615.0
4089.9407,439.0
4091.5767,492.0
4093.2134,1104.0
4094.8506,1780.0
4096.489,1027.0
4098.1274,563.0
4099.7666,431.0
4101.4067,1259.0
4103.0474,3589.0
4104.6885,2763.0
4106.3306,1182.0
4107.973,548.0
4109.616,440.0
4111.2603,506.0
4112.905,537.0
4114.55,742.0
4116.196,587.0
4117.8423,374.0
4119.4893,299.0
4121.137,361.0
4122.7856,367.0
4124.4346,336.0
4126.0845,319.0
4127.735,266.0
4129.3857,243.0
4131.0376,203.0
4132.69,254.0
4134.343,275.0
4135.9966,231.0
4137.651,206.0
4139.306,221.0
4140.962,237.0
4142.618,207.0
4144.2754,250.0
4145.933,186.0
4147.5913,206.0
4149.2505,223.0
4150.91,217.0
4152.5703,243.0
4154.2314,229.0
4155.893,199.0
4157.5557,231.0
4159.2188,247.0
4160.8823,200.0
4162.547,202.0
4164.212,221.0
4165.8774,265.0
4167.544,230.0
4169.211,225.0
4170.8784,218.0
4172.547,196.0
4174.216,280.0
4175.8857,325.0
4177.556,256.0
4179.227,236.0
4180.899,223.0
4182.5713,244.0
4184.244,235.0
4185.918,226.0
4187.5923,252.0
4189.267,264.0
4190.943,244.0
4192.619,210.0
4194.2964,247.0
4195.974,272.0
4197.6523,297.0
4199.3315,260.0
4201.011,240.0
4202.6914,236.0
4204.3726,255.0
4206.054,211.0
4207.737,228.0
4209.42,258.0
4211.1035,270.0
4212.788,239.0
4214.473,218.0
4216.1587,232.0
4217.845,228.0
4219.532,190.0
4221.22,220.0
4222.9087,234.0
4224.5977,208.0
4226.2876,246.0
4227.978,235.0
4229.6694,245.0
4231.3613,214.0
4233.0537,218.0
4234.747,226.0
4236.441,196.0
4238.1353,225.0
4239.8306,237.0
4241.5264,233.0
4243.223,242.0
4244.9204,232.0
4246.618,254.0
4248.317,277.0
4250.016,250.0
4251.7163,260.0
4253.417,256.0
4255.118,285.0
4256.8203,238.0
4258.523,236.0
4260.2266,291.0
4261.9307,271.0
4263.6353,261.0
4265.341,324.0
4267.047,341.0
4268.754,336.0
4270.4614,328.0
4272.1694,261.0
4273.8784,263.0
4275.588,366.0
4277.2983,520.0
4279.0093,387.0
4280.7207,324.0
4282.433,292.0
4284.146,457.0
4285.86,790.0
4287.574,620.0
4289.289,386.0
4291.005,291.0
4292.721,257.0
4294.4385,247.0
4296.1562,309.0
4297.8745,360.0
4299.5938,361.0
4301.3135,267.0
4303.034,261.0
4304.7554,275.0
4306.477,276.0
4308.1997,215.0
4309.923,225.0
4311.647,220.0
4313.3716,220.0
4315.097,240.0
4316.823,210.0
4318.55,235.0
4320.2773,209.0
4322.0054,239.0
4323.7344,213.0
4325.464,208.0
4327.194,206.0
4328.925,228.0
4330.6562,240.0
4332.3887,240.0
4334.1216,215.0
4335.8555,217.0
4337.59,215.0
4339.3247,235.0
4341.0605,222.0
4342.797,215.0
4344.534,187.0
4346.272,179.0
4348.0103,215.0
4349.7495,198.0
4351.4893,192.0
4353.23,201.0
4354.971,204.0
4356.7134,255.0
4358.456,254.0
4360.199,234.0
4361.9434,212.0
4363.688,215.0
4365.4336,199.0
4367.1797,224.0
4368.927,217.0
4370.6743,224.0
4372.4224,241.0
4374.1714,206.0
4375.921,236.0
4377.6714,212.0
4379.4224,236.0
4381.1743,230.0
4382.927,214.0
4384.6797,211.0
4386.4336,249.0
4388.188,232.0
4389.9434,227.0
4391.699,230.0
4393.456,223.0
4395.2134,236.0
4396.9717,243.0
4398.7305,283.0
4400.4897,278.0
4402.25,256.0
4404.0107,247.0
4405.7725,227.0
4407.5347,320.0
4409.298,335.0
4411.0615,269.0
4412.826,253.0
4414.5913,229.0
4416.357,336.0
4418.1235,369.0
4419.8906,290.0
4421.6587,269.0
4423.4272,252.0
4425.197,207.0
4426.967,251.0
4428.738,283.0
4430.5093,329.0
4432.2812,297.0
4434.054,240.0
4435.8276,221.0
4437.602,276.0
4439.377,328.0
4441.153,314.0
4442.929,247.0
4444.7065,243.0
4446.4844,246.0
4448.263,255.0
4450.0425,312.0
4451.8223,261.0
4453.603,273.0
4455.3843,244.0
4457.1665,252.0
4458.949,322.0
4460.733,316.0
4462.517,245.0
4464.3022,269.0
4466.088,280.0
4467.8745,369.0
4469.6616,322.0
4471.4497,286.0
4473.2383,287.0
4475.0273,263.0
4476.8174,262.0
4478.608,219.0
4480.3994,278.0
4482.1914,286.0
4483.9844,263.0
4485.778,206.0
4487.5723,240.0
4489.367,243.0
4491.163,246.0
4492.9595,245.0
4494.757,239.0
4496.5547,254.0
4498.3535,275.0
4500.153,285.0
4501.953,260.0
4503.754,254.0
4505.555,266.0
4507.3574,218.0
4509.16,237.0
4510.964,237.0
4512.768,232.0
4514.573,250.0
4516.379,216.0
4518.1855,225.0
4519.9927,236.0
4521.801,268.0
4523.6094,258.0
4525.419,234.0
4527.229,253.0
4529.04,256.0
4530.8516,284.0
4532.664,298.0
4534.477,241.0
4536.291,207.0
4538.1055,239.0
4539.921,251.0
4541.737,230.0
4543.5537,232.0
4545.371,220.0
4547.1895,237.0
4549.0083,217.0
4550.828,219.0
4552.6484,241.0
4554.4697,208.0
4556.2915,221.0
4558.1143,207.0
4559.9375,226.0
4561.7617,226.0
4563.5864,229.0
4565.4116,217.0
4567.238,218.0
4569.0645,207.0
4570.892,221.0
4572.72,206.0
4574.5493,206.0
4576.379,195.0
4578.2095,206.0
4580.0405,212.0
4581.8726,189.0
4583.705,218.0
4585.5386,204.0
4587.3726,189.0
4589.2075,210.0
4591.043,225.0
4592.8794,252.0
4594.7163,214.0
4596.554,214.0
4598.3926,213.0
4600.232,258.0
4602.0723,229.0
4603.913,215.0
4605.755,229.0
4607.597,181.0
4609.4404,183.0
4611.284,194.0
4613.129,238.0
4614.974,204.0
4616.8203,195.0
4618.667,207.0
4620.5146,233.0
4622.363,232.0
4624.212,209.0
4626.0615,206.0
4627.912,224.0
4629.763,206.0
4631.615,174.0
4633.468,202.0
4635.3213,212.0
4637.1753,214.0
4639.0303,189.0
4640.8857,206.0
4642.742,216.0
4644.599,231.0
4646.457,215.0
4648.3154,196.0
4650.175,188.0
4652.0347,196.0
4653.8955,187.0
4655.757,203.0
4657.619,187.0
4659.4824,190.0
4661.346,189.0
4663.211,210.0
4665.076,217.0
4666.9424,197.0
4668.809,221.0
4670.677,198.0
4672.545,225.0
4674.414,196.0
4676.2837,223.0
4678.1543,214.0
4680.0254,243.0
4681.8975,226.0
4683.77,226.0
4685.6436,198.0
4687.5176,213.0
4689.3926,171.0
4691.2686,197.0
4693.145,234.0
4695.0225,198.0
4696.9004,227.0
4698.7793,208.0
4700.6587,212.0
4702.539,206.0
4704.42,207.0
4706.302,225.0
4708.184,210.0
4710.0674,232.0
4711.951,210.0
4713.836,205.0
4715.7217,210.0
4717.608,199.0
4719.495,193.0
4721.383,214.0
4723.2715,204.0
4725.1606,212.0
4727.051,239.0
4728.9414,238.0
4730.833,200.0
4732.725,195.0
4734.618,198.0
4736.512,204.0
4738.4067,195.0
4740.3022,224.0
4742.198,175.0
4744.095,232.0
4745.9927,207.0
4747.891,219.0
4749.79,178.0
4751.69,193.0
4753.591,178.0
4755.492,203.0
4757.3945,190.0
4759.2974,185.0
4761.201,198.0
4763.1055,171.0
4765.0107,204.0
4766.9165,196.0
4768.823,214.0
4770.731,188.0
4772.639,196.0
4774.5483,220.0
4776.458,172.0
4778.3687,206.0
4780.28,174.0
4782.192,194.0
4784.105,173.0
4786.0186,195.0
4787.933,181.0
4789.848,211.0
4791.764,162.0
4793.6807,196.0
4795.598,198.0
4797.5166,167.0
4799.4355,168.0
4801.3555,168.0
4803.276,166.0
4805.1973,169.0
4807.119,190.0
4809.042,192.0
4810.966,183.0
4812.89,162.0
4814.8154,191.0
4816.741,171.0
4818.668,167.0
4820.595,181.0
4822.5234,188.0
4824.4526,197.0
4826.3823,195.0
4828.313,195.0
4830.244,174.0
4832.1763,196.0
4834.1094,179.0
4836.043,190.0
4837.9775,155.0
4839.9126,183.0
4841.8486,188.0
4843.785,173.0
4845.7227,194.0
4847.661,196.0
4849.6,203.0
4851.54,202.0
4853.4805,183.0
4855.422,173.0
4857.3643,199.0
4859.307,214.0
4861.251,187.0
4863.1953,198.0
4865.1406,199.0
4867.087,180.0
4869.0337,191.0
4870.9814,173.0
4872.9297,184.0
4874.879,216.0
4876.829,185.0
4878.78,206.0
4880.7314,183.0
4882.6836,207.0
4884.6367,196.0
4886.5903,175.0
4888.545,165.0
4890.5005,173.0
4892.4565,202.0
4894.4136,203.0
4896.3716,186.0
4898.33,175.0
4900.2896,185.0
4902.2495,194.0
4904.2104,200.0
4906.1724,198.0
4908.135,202.0
4910.098,175.0
4912.062,181.0
4914.027,182.0
4915.9927,206.0
4917.959,199.0
4919.9263,211.0
4921.894,214.0
4923.863,222.0
4925.8325,194.0
4927.8027,200.0
4929.774,219.0
4931.7456,203.0
4933.7183,212.0
4935.692,238.0
4937.666,190.0
4939.641,161.0
4941.617,191.0
4943.5938,182.0
4945.5713,222.0
4947.5493,206.0
4949.5283,238.0
4951.5083,231.0
4953.489,237.0
4955.47,193.0
4957.4526,201.0
4959.4355,214.0
4961.4194,203.0
4963.404,224.0
4965.389,220.0
4967.3755,234.0
4969.3623,209.0
4971.35,217.0
4973.339,212.0
4975.328,243.0
4977.3184,229.0
4979.309,242.0
4981.301,210.0
4983.2935,229.0
4985.2866,219.0
4987.281,235.0
4989.276,245.0
4991.2715,235.0
4993.268,232.0
4995.265,241.0
4997.263,231.0
4999.262,224.0
5001.2617,203.0
5003.262,207.0
5005.2637,256.0
5007.2656,236.0
5009.2686,257.0
5011.2725,227.0
5013.277,225.0
5015.282,242.0
5017.2886,220.0
5019.2954,233.0
5021.303,215.0
5023.3115,218.0
5025.321,202.0
5027.331,246.0
5029.342,232.0
5031.3535,236.0
5033.366,244.0
5035.3794,274.0
5037.3936,237.0
5039.4087,221.0
5041.4243,216.0
5043.441,237.0
5045.4585,249.0
5047.4766,242.0
5049.4956,234.0
5051.5156,215.0
5053.536,228.0
5055.5576,219.0
5057.58,226.0
5059.603,228.0
5061.627,217.0
5063.6514,236.0
5065.677,231.0
5067.703,254.0
5069.73,220.0
5071.758,244.0
5073.7866,213.0
5075.816,237.0
5077.846,211.0
5079.8774,222.0
5081.909,213.0
5083.942,200.0
5085.9756,217.0
5088.01,244.0
5090.045,226.0
5092.081,221.0
5094.1177,243.0
5096.1553,206.0
5098.194,202.0
5100.233,244.0
5102.273,247.0
5104.314,249.0
5106.3555,229.0
5108.398,235.0
5110.4414,230.0
5112.4854,228.0
5114.5303,212.0
5116.576,244.0
5118.6226,227.0
5120.67,231.0
5122.7183,217.0
5124.7676,244.0
5126.8174,240.0
5128.868,258.0
5130.92,244.0
5132.972,254.0
5135.0254,214.0
5137.0796,216.0
5139.1343,233.0
5141.19,252.0
5143.2466,252.0
5145.3037,257.0
5147.362,275.0
5149.421,245.0
5151.4805,267.0
5153.541,195.0
5155.6025,225.0
5157.6646,249.0
5159.7275,234.0
5161.7915,248.0
5163.8564,221.0
5165.922,210.0
5167.9883,248.0
5170.0557,213.0
5172.1235,260.0
5174.1924,210.0
5176.262,236.0
5178.3325,253.0
5180.404,225.0
5182.476,256.0
5184.549,233.0
5186.6226,211.0
5188.6973,244.0
5190.773,222.0
5192.849,241.0
5194.9263,214.0
5197.0044,235.0
5199.083,249.0
5201.1626,249.0
5203.243,253.0
5205.324,262.0
5207.4062,264.0
5209.4893,235.0
5211.573,224.0
5213.6577,227.0
5215.743,224.0
5217.8296,249.0
5219.9165,259.0
5222.0044,261.0
5224.0933,276.0
5226.183,244.0
5228.2734,239.0
5230.3647,276.0
5232.457,229.0
5234.55,254.0
5236.6436,225.0
5238.7383,240.0
5240.834,235.0
5242.93,236.0
5245.0273,254.0
5247.1255,251.0
5249.224,253.0
5251.3237,245.0
5253.4243,237.0
5255.526,243.0
5257.628,224.0
5259.731,256.0
5261.835,247.0
5263.9395,240.0
5266.045,248.0
5268.1514,253.0
5270.259,221.0
5272.3667,252.0
5274.4756,261.0
5276.5854,276.0
5278.6963,268.0
5280.8076,242.0
5282.92,250.0
5285.033,255.0
5287.147,258.0
5289.2617,238.0
5291.3774,238.0
5293.494,244.0
5295.6113,218.0
5297.7295,251.0
5299.8486,251.0
5301.9688,314.0
5304.0894,256.0
5306.211,249.0
5308.3335,224.0
5310.457,240.0
5312.581,214.0
5314.706,223.0
5316.832,317.0
5318.959,387.0
5321.0864,329.0
5323.215,273.0
5325.344,226.0
5327.4746,230.0
5329.6055,242.0
5331.7373,217.0
5333.87,243.0
5336.004,234.0
5338.138,226.0
5340.2734,222.0
5342.4097,255.0
5344.547,265.0
5346.6846,239.0
5348.823,225.0
5350.963,217.0
5353.1035,223.0
5355.2446,204.0
5357.3867,230.0
5359.53,265.0
5361.674,269.0
5363.8184,237.0
5365.964,232.0
5368.1104,253.0
5370.258,233.0
5372.406,238.0
5374.5547,254.0
5376.7046,287.0
5378.8555,259.0
5381.007,250.0
5383.159,238.0
5385.3125,254.0
5387.467,226.0
5389.6216,235.0
5391.7773,253.0
5393.934,276.0
5396.092,251.0
5398.25,259.0
5400.409,260.0
5402.5693,247.0
5404.7305,253.0
5406.8926,283.0
5409.055,279.0
5411.2188,318.0
5413.3833,280.0
5415.549,314.0
5417.715,271.0
5419.882,252.0
5422.05,256.0
5424.2188,244.0
5426.3887,255.0
5428.559,259.0
5430.7305,251.0
5432.903,256.0
5435.076,263.0
5437.25,210.0
5439.425,228.0
5441.6006,245.0
5443.7773,252.0
5445.955,286.0
5448.1333,260.0
5450.3125,242.0
5452.4927,189.0
5454.674,245.0
5456.8555,237.0
5459.038,250.0
5461.2217,263.0
5463.4062,222.0
5465.592,260.0
5467.778,226.0
5469.965,257.0
5472.153,268.0
5474.342,270.0
5476.5317,266.0
5478.722,255.0
5480.9136,257.0
5483.106,230.0
5485.2993,256.0
5487.4937,290.0
5489.6885,271.0
5491.8843,285.0
5494.081,246.0
5496.279,267.0
5498.4775,281.0
5500.677,255.0
5502.877,299.0
5505.078,284.0
5507.2803,306.0
5509.4834,264.0
5511.687,286.0
5513.8916,250.0
5516.097,270.0
5518.3037,281.0
5520.511,273.0
5522.719,324.0
5524.928,296.0
5527.138,262.0
5529.349,267.0
5531.561,260.0
5533.7734,235.0
5535.987,257.0
5538.201,278.0
5540.4165,248.0
5542.633,294.0
5544.85,272.0
5547.068,289.0
5549.2866,257.0
5551.5063,280.0
5553.727,256.0
5555.9487,310.0
5558.171,292.0
5560.394,261.0
5562.618,277.0
5564.8433,235.0
5567.0693,258.0
5569.2964,264.0
5571.524,260.0
5573.7524,258.0
5575.982,260.0
5578.2124,247.0
5580.444,257.0
5582.676,279.0
5584.9087,265.0
5587.1426,247.0
5589.3774,219.0
5591.6133,247.0
5593.85,253.0
5596.0874,234.0
5598.3257,286.0
5600.565,275.0
5602.805,263.0
5605.0464,246.0
5607.2886,271.0
5609.5312,230.0
5611.775,229.0
5614.0195,281.0
5616.265,253.0
5618.5117,285.0
5620.7593,228.0
5623.008,236.0
5625.257,216.0
5627.507,241.0
5629.758,277.0
5632.01,256.0
5634.2627,258.0
5636.5166,251.0
5638.771,253.0
5641.0264,236.0
5643.2827,239.0
5645.54,256.0
5647.7983,260.0
5650.0576,243.0
5652.318,242.0
5654.5786,267.0
5656.8403,280.0
5659.103,248.0
5661.3667,264.0
5663.6313,260.0
5665.897,257.0
5668.1636,236.0
5670.4307,294.0
5672.6987,252.0
5674.968,276.0
5677.238,248.0
5679.509,251.0
5681.781,241.0
5684.0537,283.0
5686.327,279.0
5688.6016,269.0
5690.877,274.0
5693.1533,287.0
5695.4307,255.0
5697.709,295.0
5699.9883,254.0
5702.268,262.0
5704.549,295.0
5706.8306,278.0
5709.1133,276.0
5711.397,268.0
5713.6816,270.0
5715.9673,278.0
5718.254,280.0
5720.541,316.0
5722.829,301.0
5725.118,291.0
5727.408,267.0
5729.699,293.0
5731.991,293.0
5734.284,278.0
5736.578,309.0
5738.8726,323.0
5741.168,318.0
5743.4644,287.0
5745.7617,291.0
5748.06,286.0
5750.3594,281.0
5752.6597,290.0
5754.961,354.0
5757.2627,323.0
5759.5654,306.0
5761.869,278.0
5764.174,302.0
5766.4795,273.0
5768.786,299.0
5771.0938,323.0
5773.4023,353.0
5775.712,307.0
5778.022,329.0
5780.333,308.0
5782.645,317.0
5784.958,328.0
5787.272,324.0
5789.587,365.0
5791.903,328.0
5794.2197,294.0
5796.5376,346.0
5798.8564,323.0
5801.176,370.0
5803.496,326.0
5805.8174,378.0
5808.1396,393.0
5810.463,357.0
5812.787,358.0
5815.1123,382.0
5817.4385,381.0
5819.7656,402.0
5822.0938,408.0
5824.4224,382.0
5826.752,405.0
5829.0825,376.0
5831.414,422.0
5833.7466,374.0
5836.08,383.0
5838.4146,444.0
5840.75,416.0
5843.0864,378.0
5845.424,378.0
5847.762,373.0
5850.101,405.0
5852.441,357.0
5854.7817,378.0
5857.1235,392.0
5859.4663,342.0
5861.81,366.0
5864.155,377.0
5866.5005,374.0
5868.847,365.0
5871.195,405.0
5873.5435,370.0
5875.893,356.0
5878.2437,360.0
5880.5947,352.0
5882.947,357.0
5885.3,407.0
5887.654,412.0
5890.009,431.0
5892.3647,412.0
5894.7217,345.0
5897.0796,382.0
5899.4385,396.0
5901.7983,383.0
5904.159,389.0
5906.521,458.0
5908.884,419.0
5911.2476,423.0
5913.612,409.0
5915.977,444.0
5918.3433,417.0
5920.7104,428.0
5923.0786,395.0
5925.4478,410.0
5927.818,455.0
5930.189,428.0
5932.561,447.0
5934.934,397.0
5937.308,389.0
5939.683,408.0
5942.059,476.0
5944.436,478.0
5946.814,462.0
5949.193,480.0
5951.5728,411.0
5953.9536,427.0
5956.335,384.0
5958.7173,446.0
5961.1006,493.0
5963.485,447.0
5965.87,480.0
5968.2563,450.0
5970.6436,412.0
5973.0317,481.0
5975.421,457.0
5977.811,490.0
5980.202,452.0
5982.594,479.0
5984.9873,461.0
5987.3813,440.0
5989.7764,446.0
5992.1724,486.0
5994.5693,531.0
5996.9673,468.0
5999.366,486.0
6001.766,513.0
6004.167,572.0
6006.569,469.0
6008.9717,513.0
6011.3755,533.0
6013.7803,501.0
6016.1855,465.0
6018.592,508.0
6020.999,474.0
6023.407,452.0
6025.8164,415.0
6028.2266,419.0
6030.6377,481.0
6033.05,440.0
6035.463,476.0
6037.877,467.0
6040.292,461.0
6042.708,377.0
6045.125,489.0
6047.543,459.0
6049.962,432.0
6052.382,377.0
6054.8027,367.0
6057.2246,369.0
6059.6475,363.0
6062.0713,499.0
6064.496,510.0
6066.922,470.0
6069.3486,390.0
6071.7764,409.0
6074.205,374.0
6076.635,354.0
6079.0654,371.0
6081.497,444.0
6083.9297,455.0
6086.3633,409.0
6088.798,392.0
6091.2334,375.0
6093.67,415.0
6096.1074,374.0
6098.546,376.0
6100.9854,428.0
6103.426,425.0
6105.867,397.0
6108.3096,435.0
6110.753,420.0
6113.1973,418.0
6115.6426,475.0
6118.089,468.0
6120.536,392.0
6122.9844,376.0
6125.4336,449.0
6127.884,418.0
6130.335,545.0
6132.787,580.0
6135.24,500.0
6137.6943,450.0
6140.1494,438.0
6142.6055,439.0
6145.0625,492.0
6147.5205,538.0
6149.9795,556.0
6152.4395,552.0
6154.9004,537.0
6157.3623,611.0
6159.825,640.0
6162.289,537.0
6164.754,524.0
6167.2197,432.0
6169.6865,469.0
6172.1543,565.0
6174.623,796.0
6177.093,871.0
6179.5635,659.0
6182.035,596.0
6184.508,538.0
6186.9814,537.0
6189.456,542.0
6191.9316,897.0
6194.408,1088.0
6196.8857,791.0
6199.3643,658.0
6201.844,613.0
6204.325,526.0
6206.807,518.0
6209.29,532.0
6211.774,527.0
6214.259,636.0
6216.7446,644.0
6219.2314,585.0
6221.719,542.0
6224.208,535.0
6226.6978,552.0
6229.1885,685.0
6231.68,682.0
6234.173,637.0
6236.6665,584.0
6239.161,554.0
6241.6567,546.0
6244.1533,600.0
6246.651,687.0
6249.1494,783.0
6251.649,689.0
6254.1494,606.0
6256.651,756.0
6259.1533,669.0
6261.6567,634.0
6264.1616,537.0
6266.6675,511.0
6269.1743,569.0
6271.682,856.0
6274.191,1245.0
6276.7007,927.0
6279.2114,641.0
6281.723,485.0
6284.236,468.0
6286.7495,523.0
6289.264,1237.0
6291.78,1735.0
6294.2964,1315.0
6296.814,751.0
6299.3325,581.0
6301.852,522.0
6304.3726,473.0
6306.8945,523.0
6309.4175,564.0
6311.9414,573.0
6314.4663,570.0
6316.992,463.0
6319.519,442.0
6322.047,410.0
6324.5757,424.0
6327.1055,436.0
6329.636,485.0
6332.168,402.0
6334.7007,460.0
6337.2344,367.0
6339.769,430.0
6342.305,450.0
6344.8423,405.0
6347.3804,420.0
6349.9194,368.0
6352.4595,383.0
6355.0005,394.0
6357.5425,375.0
6360.0854,422.0
6362.6294,379.0
6365.1743,411.0
6367.72,407.0
6370.267,477.0
6372.8154,434.0
6375.3647,415.0
6377.915,455.0
6380.4663,409.0
6383.0186,388.0
6385.572,431.0
6388.126,410.0
6390.681,422.0
6393.2373,404.0
6395.7944,410.0
6398.3525,389.0
6400.912,404.0
6403.4727,493.0
6406.034,449.0
6408.5967,424.0
6411.16,439.0
6413.7246,424.0
6416.29,422.0
6418.8564,424.0
6421.424,379.0
6423.992,383.0
6426.562,454.0
6429.133,460.0
6431.7046,434.0
6434.2773,419.0
6436.851,433.0
6439.426,437.0
6442.0015,416.0
6444.578,468.0
6447.156,537.0
6449.735,497.0
6452.315,416.0
6454.896,423.0
6457.478,413.0
6460.061,454.0
6462.645,445.0
6465.23,488.0
6467.816,415.0
6470.403,430.0
6472.991,425.0
6475.5806,448.0
6478.171,450.0
6480.762,441.0
6483.3545,433.0
6485.9478,426.0
6488.542,427.0
6491.137,467.0
6493.734,444.0
6496.3315,464.0
6498.93,419.0
6501.53,435.0
6504.1304,466.0
6506.732,479.0
6509.3345,472.0
6511.938,515.0
6514.543,503.0
6517.149,492.0
6519.756,489.0
6522.364,504.0
6524.9727,553.0
6527.5825,500.0
6530.1934,554.0
6532.8057,501.0
6535.419,485.0
6538.033,530.0
6540.6484,620.0
6543.2646,607.0
6545.882,529.0
6548.5,531.0
6551.1196,502.0
6553.74,501.0
6556.362,641.0
6558.9844,693.0
6561.608,620.0
6564.2324,550.0
6566.858,549.0
6569.485,493.0
6572.113,540.0
6574.7417,601.0
6577.3716,630.0
6580.0024,556.0
6582.6343,582.0
6585.267,578.0
6587.9014,525.0
6590.5366,621.0
6593.173,569.0
6595.81,575.0
6598.448,561.0
6601.0874,548.0
6603.728,565.0
6606.3696,564.0
6609.012,566.0
6611.656,578.0
6614.3003,567.0
6616.946,561.0
6619.593,621.0
6622.2407,576.0
6624.8896,595.0
6627.5396,565.0
6630.1904,560.0
6632.8423,545.0
6635.4956,546.0
6638.15,594.0
6640.805,638.0
6643.4614,620.0
6646.1187,603.0
6648.7773,542.0
6651.437,508.0
6654.0977,584.0
6656.7593,719.0
6659.422,663.0
6662.0854,569.0
6664.7505,539.0
6667.4165,516.0
6670.0835,513.0
6672.7515,521.0
6675.4204,545.0
6678.091,576.0
6680.762,574.0
6683.4346,547.0
6686.108,516.0
6688.782,478.0
6691.4575,530.0
6694.1343,554.0
6696.812,605.0
6699.4907,527.0
6702.1704,590.0
6704.851,533.0
6707.533,536.0
6710.2163,569.0
6712.9004,636.0
6715.5854,621.0
6718.2715,632.0
6720.959,632.0
6723.6475,654.0
6726.337,695.0
6729.0273,623.0
6731.7188,605.0
6734.4116,632.0
6737.1055,608.0
6739.8003,687.0
6742.496,757.0
6745.193,671.0
6747.891,628.0
6750.5903,632.0
6753.2905,598.0
6755.9917,729.0
6758.6943,900.0
6761.398,843.0
6764.1025,776.0
6766.808,735.0
6769.5146,672.0
6772.2227,659.0
6774.9316,730.0
6777.6416,776.0
6780.3525,790.0
6783.0645,795.0
6785.778,807.0
6788.492,739.0
6791.2075,787.0
6793.924,745.0
6796.6416,686.0
6799.3604,672.0
6802.08,704.0
6804.801,712.0
6807.5225,821.0
6810.2456,878.0
6812.9697,766.0
6815.695,646.0
6818.421,628.0
6821.1484,648.0
6823.877,828.0
6826.6064,894.0
6829.337,817.0
6832.069,644.0
6834.802,559.0
6837.5356,580.0
6840.2705,812.0
6843.007,1041.0
6845.744,899.0
6848.4824,666.0
6851.2217,615.0
6853.9624,616.0
6856.704,679.0
6859.447,746.0
6862.1904,698.0
6864.9355,622.0
6867.6816,590.0
6870.4287,594.0
6873.177,590.0
6875.9263,594.0
6878.677,561.0
6881.428,589.0
6884.1807,595.0
6886.9346,612.0
6889.6895,553.0
6892.4453,555.0
6895.202,608.0
6897.9604,606.0
6900.7197,604.0
6903.48,649.0
6906.241,582.0
6909.004,566.0
6911.7676,618.0
6914.532,642.0
6917.298,600.0
6920.065,621.0
6922.833,568.0
6925.602,538.0
6928.372,672.0
6931.1436,666.0
6933.916,597.0
6936.6895,594.0
6939.4644,571.0
6942.24,575.0
6945.017,641.0
6947.795,693.0
6950.574,656.0
6953.3545,658.0
6956.1357,669.0
6958.918,624.0
6961.7017,597.0
6964.4863,608.0
6967.272,576.0
6970.059,601.0
6972.847,674.0
6975.636,733.0
6978.4263,717.0
6981.218,708.0
6984.0103,709.0
6986.8037,674.0
6989.5986,703.0
6992.3945,687.0
6995.1914,793.0
6997.9893,790.0
7000.7886,845.0
7003.589,750.0
7006.39,706.0
7009.193,730.0
7011.9966,724.0
7014.8013,776.0
7017.6074,920.0
7020.4146,870.0
7023.2227,891.0
7026.0317,986.0
7028.8423,845.0
7031.654,740.0
7034.4663,685.0
7037.2803,656.0
7040.095,886.0
7042.911,1219.0
7045.7285,1047.0
7048.547,764.0
7051.366,675.0
7054.1865,712.0
7057.0083,999.0
7059.831,1526.0
7062.655,1440.0
7065.48,964.0
7068.306,802.0
7071.1333,728.0
7073.962,745.0
7076.7915,716.0
7079.622,759.0
7082.454,819.0
7085.287,801.0
7088.121,693.0
7090.9565,760.0
7093.793,746.0
7096.6304,813.0
7099.469,830.0
7102.309,757.0
7105.15,817.0
7107.992,810.0
7110.8354,854.0
7113.6797,899.0
7116.5254,882.0
7119.372,857.0
7122.2197,917.0
7125.069,1026.0
7127.919,1003.0
7130.77,939.0
7133.6226,883.0
7136.476,909.0
7139.3306,1128.0
7142.1865,1135.0
7145.0435,973.0
7147.9014,1097.0
7150.7607,929.0
7153.621,995.0
7156.4824,1384.0
7159.345,1495.0
7162.209,1253.0
7165.0737,1065.0
7167.94,1150.0
7170.807,1236.0
7173.6753,1265.0
7176.545,1188.0
7179.4155,1122.0
7182.287,1153.0
7185.16,1106.0
7188.034,1169.0
7190.909,1195.0
7193.7856,1137.0
7196.663,1470.0
7199.542,1520.0
7202.422,1112.0
7205.3027,933.0
7208.185,875.0
7211.0684,1081.0
7213.9526,1872.0
7216.8384,1842.0
7219.725,1223.0
7222.613,896.0
7225.502,785.0
7228.392,1127.0
7231.283,2518.0
7234.176,2667.0
7237.0693,1570.0
7239.9644,955.0
7242.8604,865.0
7245.7573,831.0
7248.656,869.0
7251.555,839.0
7254.4556,944.0
7257.3574,849.0
7260.2603,723.0
7263.1646,648.0
7266.07,688.0
7268.976,841.0
7271.884,804.0
7274.7925,745.0
7277.7026,695.0
7280.614,714.0
7283.526,726.0
7286.4395,781.0
7289.354,696.0
7292.2695,714.0
7295.1865,812.0
7298.1045,755.0
7301.024,757.0
7303.9443,679.0
7306.8657,686.0
7309.7886,803.0
7312.7124,1041.0
7315.6377,904.0
7318.564,701.0
7321.491,585.0
7324.42,604.0
7327.3496,783.0
7330.281,1114.0
7333.213,1012.0
7336.146,796.0
7339.0806,668.0
7342.016,624.0
7344.953,689.0
7347.891,827.0
7350.83,777.0
7353.7705,719.0
7356.712,680.0
7359.655,604.0
7362.5986,596.0
7365.5435,562.0
7368.4897,621.0
7371.437,627.0
7374.3857,693.0
7377.3354,675.0
7380.2866,637.0
7383.239,587.0
7386.192,550.0
7389.1465,553.0
7392.102,573.0
7395.059,595.0
7398.017,631.0
7400.976,666.0
7403.9365,572.0
7406.898,535.0
7409.861,471.0
7412.8247,501.0
7415.79,589.0
7418.7563,692.0
7421.7236,613.0
7424.6924,519.0
7427.662,472.0
7430.6333,488.0
7433.6055,649.0
7436.579,626.0
7439.5537,498.0
7442.5293,503.0
7445.5063,500.0
7448.4844,433.0
7451.464,450.0
7454.4443,398.0
7457.4263,459.0
7460.409,483.0
7463.3936,439.0
7466.379,430.0
7469.365,417.0
7472.353,410.0
7475.342,392.0
7478.332,435.0
7481.323,376.0
7484.316,479.0
7487.3096,526.0
7490.3047,419.0
7493.301,397.0
7496.2983,419.0
7499.297,434.0
7502.2964,465.0
7505.2974,434.0
7508.2993,427.0
7511.3027,413.0
7514.307,443.0
7517.313,421.0
7520.32,450.0
7523.328,421.0
7526.3374,429.0
7529.348,540.0
7532.36,458.0
7535.373,416.0
7538.387,418.0
7541.4023,406.0
7544.419,504.0
7547.4365,530.0
7550.4556,438.0
7553.4756,394.0
7556.497,407.0
7559.5195,477.0
7562.5435,518.0
7565.5684,550.0
7568.5947,473.0
7571.622,443.0
7574.651,382.0
7577.6807,383.0
7580.712,389.0
7583.744,390.0
7586.778,427.0
7589.8125,431.0
7592.8486,358.0
7595.8857,360.0
7598.9243,418.0
7601.964,433.0
7605.005,407.0
7608.047,424.0
7611.0903,377.0
7614.135,422.0
7617.18,480.0
7620.227,439.0
7623.275,392.0
7626.324,372.0
7629.3745,410.0
7632.4263,405.0
7635.479,427.0
7638.533,419.0
7641.5884,371.0
7644.645,384.0
7647.7026,411.0
7650.7617,392.0
7653.8223,398.0
7656.884,424.0
7659.947,422.0
7663.0107,421.0
7666.076,412.0
7669.1426,427.0
7672.2104,387.0
7675.2793,453.0
7678.3496,381.0
7681.421,380.0
7684.4937,423.0
7687.5674,407.0
7690.6426,423.0
7693.7188,496.0
7696.7964,469.0
7699.875,409.0
7702.955,492.0
7706.036,419.0
7709.1187,478.0
7712.202,482.0
7715.287,452.0
7718.373,459.0
7721.4604,517.0
7724.549,492.0
7727.6387,578.0
7730.7295,571.0
7733.822,493.0
7736.9155,540.0
7740.0103,534.0
7743.1064,565.0
7746.2036,517.0
7749.3022,590.0
7752.402,548.0
7755.503,570.0
7758.605,557.0
7761.7085,521.0
7764.813,584.0
7767.919,593.0
7771.026,652.0
7774.1343,666.0
7777.244,560.0
7780.355,544.0
7783.4673,599.0
7786.5806,694.0
7789.6953,773.0
7792.811,720.0
7795.928,680.0
7799.0464,644.0
7802.166,585.0
7805.287,608.0
7808.409,715.0
7811.5327,799.0
7814.657,750.0
7817.783,681.0
7820.91,587.0
7824.0386,661.0
7827.168,917.0
7830.299,895.0
7833.431,789.0
7836.5645,644.0
7839.699,628.0
7842.835,791.0
7845.972,954.0
7849.1104,890.0
7852.25,752.0
7855.391,713.0
7858.533,654.0
7861.677,694.0
7864.8213,703.0
7867.9673,696.0
7871.1143,646.0
7874.2627,691.0
7877.4126,711.0
7880.5635,693.0
7883.716,781.0
7886.869,705.0
7890.024,660.0
7893.18,619.0
7896.3374,698.0
7899.496,917.0
7902.656,850.0
7905.817,791.0
7908.979,680.0
7912.1426,677.0
7915.3076,927.0
7918.4736,1154.0
7921.641,992.0
7924.8096,840.0
7927.9795,745.0
7931.151,758.0
7934.323,719.0
7937.497,808.0
7940.672,821.0
7943.848,899.0
7947.026,810.0
7950.2046,765.0
7953.385,939.0
7956.566,845.0
7959.7485,969.0
7962.9326,867.0
7966.1177,904.0
7969.304,1066.0
7972.4917,1082.0
7975.6807,1030.0
7978.871,941.0
7982.0625,991.0
7985.2554,1128.0
7988.4497,1291.0
7991.645,1233.0
7994.842,1150.0
7998.0396,1126.0
8001.239,1228.0
8004.4395,1555.0
8007.641,1459.0
8010.844,1328.0
8014.0483,1317.0
8017.254,1394.0
8020.461,1409.0
8023.669,1471.0
8026.8784,1406.0
8030.0894,1508.0
8033.3013,1534.0
8036.5146,1646.0
8039.7295,1813.0
8042.9453,1767.0
8046.1626,1698.0
8049.381,1862.0
8052.6006,1962.0
8055.822,2251.0
8059.044,2282.0
8062.2676,2335.0
8065.4927,2479.0
8068.7188,2456.0
8071.9463,2515.0
8075.1753,2618.0
8078.4053,2837.0
8081.6367,3312.0
8084.869,3459.0
8088.103,3262.0
8091.3384,3063.0
8094.5747,2993.0
8097.8125,3889.0
8101.052,4987.0
8104.292,4810.0
8107.5337,4505.0
8110.777,4250.0
8114.021,3950.0
8117.2666,4790.0
8120.5137,5820.0
8123.7617,6399.0
8127.011,6724.0
8130.262,5506.0
8133.514,4956.0
8136.7676,5762.0
8140.0225,7346.0
8143.2783,9819.0
8146.5356,9036.0
8149.7944,6954.0
8153.054,8167.0
8156.3154,7843.0
8159.578,9031.0
8162.842,10702.0
8166.107,10788.0
8169.3735,15109.0
8172.641,14405.0
8175.91,9061.0
8179.1807,5467.0
8182.452,7051.0
8185.725,22592.0
8188.9995,28806.0
8192.275,13963.0
8195.553,6400.0
8198.831,5714.0
8202.11,22286.0
8205.392,52277.0
8208.674,32759.0
8211.957,12027.0
8215.242,5448.0
8218.528,4614.0
8221.815,4685.0
8225.1045,6553.0
8228.395,7936.0
8231.686,5546.0
8234.979,3075.0
8238.272,2512.0
8241.567,3249.0
8244.864,3490.0
8248.162,3106.0
8251.461,2561.0
8254.762,1953.0
8258.063,1682.0
8261.367,1785.0
8264.672,1975.0
8267.978,1920.0
8271.285,1789.0
8274.594,1516.0
8277.903,1444.0
8281.215,1386.0
8284.527,1479.0
8287.841,1632.0
8291.156,1603.0
8294.473,1398.0
8297.79,1274.0
8301.109,1404.0
8304.43,1653.0
8307.751,1643.0
8311.074,1620.0
8314.398,1612.0
8317.725,1535.0
8321.052,1378.0
8324.38,1384.0
8327.71,1602.0
8331.041,1962.0
8334.373,1743.0
8337.707,1379.0
8341.042,1314.0
8344.378,1473.0
8347.716,2121.0
8351.055,2199.0
8354.3955,1785.0
8357.737,1603.0
8361.08,1479.0
8364.425,1349.0
8367.7705,1351.0
8371.117,1398.0
8374.466,1707.0
8377.815,1850.0
8381.167,1300.0
8384.52,1124.0
8387.873,1144.0
8391.229,1678.0
8394.585,2005.0
8397.942,1523.0
8401.302,1243.0
8404.662,1084.0
8408.024,1174.0
8411.388,1104.0
8414.752,1191.0
8418.118,1089.0
8421.485,968.0
8424.854,916.0
8428.224,907.0
8431.595,1159.0
8434.968,1089.0
8438.342,968.0
8441.717,900.0
8445.094,934.0
8448.472,1002.0
8451.851,1000.0
8455.231,983.0
8458.613,973.0
8461.997,979.0
8465.382,1149.0
8468.768,1136.0
8472.155,1162.0
8475.544,1147.0
8478.935,1126.0
8482.326,1172.0
8485.719,1163.0
8489.113,1386.0
8492.509,1549.0
8495.906,1382.0
8499.305,1304.0
8502.704,1380.0
8506.105,1637.0
8509.508,1933.0
8512.911,1641.0
8516.316,1739.0
8519.723,1965.0
8523.131,1771.0
8526.54,2009.0
8529.95,2009.0
8533.362,2676.0
8536.775,3196.0
8540.19,2405.0
8543.606,1668.0
8547.023,1519.0
8550.442,3320.0
8553.862,4828.0
8557.284,2883.0
8560.707,1827.0
8564.131,1605.0
8567.557,4190.0
8570.983,7096.0
8574.412,4663.0
8577.842,2487.0
8581.272,1730.0
8584.705,1463.0
8588.139,1407.0
8591.574,1867.0
8595.011,2361.0
8598.449,1815.0
8601.889,1115.0
8605.329,1066.0
8608.771,1110.0
8612.215,1048.0
8615.66,978.0
8619.106,948.0
8622.554,858.0
8626.003,801.0
8629.453,805.0
8632.905,804.0
8636.358,883.0
8639.8125,843.0
8643.269,811.0
8646.726,731.0
8650.185,772.0
8653.645,754.0
8657.106,787.0
8660.569,741.0
8664.033,787.0
8667.499,803.0
8670.966,809.0
8674.435,819.0
8677.904,897.0
8681.375,826.0
8684.848,841.0
8688.321,770.0
8691.797,807.0
8695.273,995.0
8698.752,974.0
8702.231,881.0
8705.712,905.0
8709.194,891.0
8712.678,1086.0
8716.163,1126.0
8719.649,1007.0
8723.138,1008.0
8726.627,1103.0
8730.117,1132.0
8733.609,1052.0
8737.103,1144.0
8740.598,1154.0
8744.094,1138.0
8747.592,1154.0
8751.091,1203.0
8754.591,1419.0
8758.093,1392.0
8761.596,1320.0
8765.101,1192.0
8768.606,1384.0
8772.114,1700.0
8775.623,1607.0
8779.133,1516.0
8782.645,1611.0
8786.157,1568.0
8789.672,1552.0
8793.1875,1590.0
8796.705,2136.0
8800.224,2284.0
8803.744,1781.0
8807.266,1417.0
8810.788,1549.0
8814.3125,2939.0
8817.838,3099.0
8821.365,2056.0
8824.894,1593.0
8828.424,1776.0
8831.955,3292.0
8835.488,3506.0
8839.022,2533.0
8842.558,1984.0
8846.095,1628.0
8849.633,1472.0
8853.173,1672.0
8856.714,2248.0
8860.257,2543.0
8863.801,1938.0
8867.347,1455.0
8870.894,1567.0
8874.442,2406.0
8877.992,3182.0
8881.543,2391.0
8885.096,1774.0
8888.649,1431.0
8892.205,1447.0
8895.762,1653.0
8899.32,1967.0
8902.88,2013.0
8906.441,1583.0
8910.004,1311.0
8913.568,1574.0
8917.134,2240.0
8920.7,2157.0
8924.269,1640.0
8927.838,1401.0
8931.409,1570.0
8934.981,2488.0
8938.556,2288.0
8942.131,1751.0
8945.708,1531.0
8949.286,1308.0
8952.866,1148.0
8956.447,1463.0
8960.03,1599.0
8963.614,1494.0
8967.199,1282.0
8970.786,1151.0
8974.374,1234.0
8977.964,1336.0
8981.555,1253.0
8985.147,1176.0
8988.741,1111.0
8992.337,1165.0
8995.934,1244.0
8999.532,1146.0
9003.132,1078.0
9006.733,1136.0
9010.336,1166.0
9013.94,1130.0
9017.546,1108.0
9021.153,1129.0
9024.762,1177.0
9028.372,1210.0
9031.983,1096.0
9035.597,987.0
9039.211,1046.0
9042.826,1268.0
9046.443,1131.0
9050.062,983.0
9053.682,896.0
9057.303,1118.0
9060.926,1313.0
9064.55,1315.0
9068.176,1045.0
9071.803,904.0
9075.432,1086.0
9079.062,1321.0
9082.693,1160.0
9086.326,915.0
9089.961,922.0
9093.597,1074.0
9097.234,1150.0
9100.873,981.0
9104.514,945.0
9108.155,908.0
9111.799,804.0
9115.443,797.0
9119.09,903.0
9122.737,1009.0
9126.387,835.0
9130.037,744.0
9133.689,718.0
9137.343,859.0
9140.998,951.0
9144.654,872.0
9148.3125,811.0
9151.972,734.0
9155.633,726.0
9159.295,782.0
9162.959,1063.0
9166.624,1043.0
9170.291,785.0
9173.959,635.0
9177.629,835.0
9181.3,1233.0
9184.973,1105.0
9188.646,918.0
9192.322,660.0
9195.999,832.0
9199.678,1163.0
9203.357,954.0
9207.039,836.0
9210.722,728.0
9214.406,584.0
9218.092,617.0
9221.779,752.0
9225.468,989.0
9229.158,672.0
9232.85,595.0
9236.543,497.0
9240.237,794.0
9243.934,955.0
9247.631,725.0
9251.33,546.0
9255.03,479.0
9258.732,437.0
9262.436,482.0
9266.141,535.0
9269.847,479.0
9273.555,404.0
9277.264,390.0
9280.975,404.0
9284.687,461.0
9288.4,455.0
9292.116,393.0
9295.833,351.0
9299.552,394.0
9303.271,395.0
9306.993,372.0
9310.716,399.0
9314.44,340.0
9318.166,322.0
9321.894,357.0
9325.622,345.0
9329.353,356.0
9333.084,322.0
9336.817,312.0
9340.552,341.0
9344.288,337.0
9348.025,322.0
9351.765,313.0
9355.505,294.0
9359.247,333.0
9362.991,312.0
9366.736,317.0
9370.483,309.0
9374.231,310.0
9377.981,313.0
9381.732,308.0
9385.485,313.0
9389.239,331.0
9392.995,297.0
9396.752,339.0
9400.511,277.0
9404.2705,246.0
9408.032,328.0
9411.796,288.0
9415.561,272.0
9419.327,269.0
9423.095,326.0
9426.864,306.0
9430.635,306.0
9434.407,313.0
9438.181,269.0
9441.956,302.0
9445.732,318.0
9449.511,290.0
9453.291,281.0
9457.072,264.0
9460.855,302.0
9464.64,304.0
9468.426,304.0
9472.213,273.0
9476.002,225.0
9479.792,234.0
9483.584,287.0
9487.377,325.0
9491.172,274.0
9494.969,255.0
9498.767,250.0
9502.566,259.0
9506.367,326.0
9510.17,284.0
9513.974,248.0
9517.779,235.0
9521.586,216.0
9525.395,242.0
9529.205,261.0
9533.017,255.0
9536.83,247.0
9540.645,250.0
9544.461,243.0
9548.278,305.0
9552.098,293.0
9555.919,231.0
9559.741,229.0
9563.565,261.0
9567.391,243.0
9571.218,223.0
9575.046,237.0
9578.876,206.0
9582.708,224.0
9586.541,222.0
9590.376,227.0
9594.212,228.0
9598.05,209.0
9601.889,185.0
9605.7295,194.0
9609.572,202.0
9613.416,202.0
9617.262,200.0
9621.108,167.0
9624.957,216.0
9628.807,179.0
9632.658,195.0
9636.512,178.0
9640.366,195.0
9644.223,195.0
9648.08,192.0
9651.939,187.0
9655.8,160.0
9659.662,190.0
9663.526,180.0
9667.392,169.0
9671.259,183.0
9675.127,181.0
9678.997,198.0
9682.869,182.0
9686.742,196.0
9690.617,179.0
9694.493,166.0
9698.371,167.0
9702.25,173.0
9706.131,166.0
9710.014,184.0
9713.897,168.0
9717.783,170.0
9721.67,155.0
9725.559,175.0
9729.449,158.0
9733.341,179.0
9737.234,163.0
9741.129,155.0
9745.025,154.0
9748.924,178.0
9752.823,156.0
9756.725,179.0
9760.627,180.0
9764.531,163.0
9768.4375,161.0
9772.345,184.0
9776.254,153.0
9780.164,157.0
9784.076,142.0
9787.99,183.0
9791.905,176.0
9795.822,157.0
9799.74,170.0
9803.66,156.0
9807.582,183.0
9811.505,168.0
9815.43,166.0
9819.355,187.0
9823.283,187.0
9827.213,174.0
9831.144,154.0
9835.076,144.0
9839.01,148.0
9842.945,189.0
9846.883,171.0
9850.821,170.0
9854.762,158.0
9858.704,171.0
9862.647,192.0
9866.593,183.0
9870.539,184.0
9874.487,171.0
9878.4375,172.0
9882.389,190.0
9886.342,193.0
9890.296,183.0
9894.252,178.0
9898.21,189.0
9902.169,177.0
9906.13,166.0
9910.093,185.0
9914.057,181.0
9918.022,178.0
9921.989,205.0
9925.958,194.0
9929.929,171.0
9933.9,212.0
9937.874,179.0
9941.85,157.0
9945.826,178.0
9949.805,176.0
9953.784,189.0
9957.766,185.0
9961.749,178.0
9965.733,155.0
9969.72,171.0
9973.708,190.0
9977.697,165.0
9981.688,189.0
9985.681,167.0
9989.675,157.0
9993.671,200.0
9997.668,159.0
10001.667,154.0
10005.668,154.0
10009.67,201.0
10013.674,156.0
10017.68,190.0
10021.687,156.0
10025.695,158.0
10029.706,180.0
10033.718,159.0
10037.731,175.0
10041.746,167.0
10045.763,184.0
10049.781,175.0
10053.801,172.0
10057.822,173.0
10061.846,185.0
10065.87,185.0
10069.896,164.0
10073.925,182.0
10077.954,168.0
10081.985,163.0
10086.019,199.0
10090.053,162.0
10094.089,167.0
10098.127,147.0
10102.166,173.0
10106.207,167.0
10110.25,159.0
10114.294,170.0
10118.34,188.0
10122.387,169.0
10126.436,182.0
10130.486,167.0
10134.538,178.0
10138.592,175.0
10142.647,157.0
10146.704,177.0
10150.763,166.0
10154.823,176.0
10158.885,164.0
10162.948,177.0
10167.014,160.0
10171.08,173.0
10175.148,180.0
10179.219,170.0
10183.29,183.0
10187.363,174.0
10191.438,174.0
10195.515,189.0
10199.593,182.0
10203.673,155.0
10207.754,192.0
10211.837,188.0
10215.922,172.0
10220.008,167.0
10224.096,203.0
10228.186,185.0
10232.276,171.0
10236.369,178.0
10240.464,176.0
10244.56,188.0
10248.657,174.0
10252.757,189.0
10256.858,180.0
10260.961,174.0
10265.065,200.0
10269.172,197.0
10273.279,191.0
10277.389,157.0
10281.5,172.0
10285.612,169.0
10289.727,195.0
10293.843,165.0
10297.96,178.0
10302.079,177.0
10306.2,181.0
10310.322,166.0
10314.446,217.0
10318.572,194.0
10322.699,200.0
10326.828,180.0
10330.959,178.0
10335.092,197.0
10339.226,178.0
10343.361,184.0
10347.499,169.0
10351.638,198.0
10355.778,169.0
10359.921,202.0
10364.064,191.0
10368.21,184.0
10372.357,181.0
10376.507,200.0
10380.657,177.0
10384.81,168.0
10388.964,193.0
10393.119,178.0
10397.276,186.0
10401.436,192.0
10405.596,173.0
10409.758,210.0
10413.922,191.0
10418.088,193.0
10422.255,172.0
10426.424,204.0
10430.595,191.0
10434.767,205.0
10438.94,184.0
10443.116,201.0
10447.294,213.0
10451.473,178.0
10455.653,187.0
10459.836,177.0
10464.02,201.0
10468.205,213.0
10472.393,178.0
10476.581,172.0
10480.771,198.0
10484.964,196.0
10489.158,189.0
10493.354,185.0
10497.551,186.0
10501.75,197.0
10505.951,182.0
10510.153,166.0
10514.357,190.0
10518.563,160.0
10522.7705,198.0
10526.9795,185.0
10531.19,171.0
10535.403,191.0
10539.617,213.0
10543.833,189.0
10548.051,205.0
10552.27,184.0
10556.49,174.0
10560.713,186.0
10564.9375,185.0
10569.163,182.0
10573.391,221.0
10577.62,192.0
10581.852,166.0
10586.084,192.0
10590.318,197.0
10594.555,189.0
10598.793,182.0
10603.032,222.0
10607.273,210.0
10611.517,186.0
10615.761,190.0
10620.007,189.0
10624.255,197.0
10628.505,220.0
10632.756,181.0
10637.009,171.0
10641.264,175.0
10645.5205,197.0
10649.778,192.0
10654.038,192.0
10658.3,197.0
10662.563,182.0
10666.828,179.0
10671.095,180.0
10675.363,201.0
10679.634,218.0
10683.905,204.0
10688.179,213.0
10692.454,186.0
10696.731,195.0
10701.01,223.0
10705.29,201.0
10709.572,210.0
10713.856,214.0
10718.142,199.0
10722.429,185.0
10726.718,217.0
10731.009,225.0
10735.301,217.0
10739.595,210.0
10743.891,203.0
10748.188,197.0
10752.487,205.0
10756.788,195.0
10761.091,194.0
10765.3955,203.0
10769.702,195.0
10774.01,204.0
10778.319,207.0
10782.631,181.0
10786.944,184.0
10791.259,213.0
10795.575,217.0
10799.894,201.0
10804.214,195.0
10808.535,188.0
10812.858,181.0
10817.184,178.0
10821.511,194.0
10825.839,192.0
10830.169,208.0
10834.501,184.0
10838.835,232.0
10843.171,200.0
10847.508,226.0
10851.847,200.0
10856.1875,203.0
10860.53,192.0
10864.874,227.0
10869.22,202.0
10873.567,217.0
10877.917,196.0
10882.269,200.0
10886.621,211.0
10890.976,208.0
10895.332,208.0
10899.69,212.0
10904.051,213.0
10908.412,223.0
10912.775,246.0
10917.141,214.0
10921.508,257.0
10925.876,211.0
10930.246,220.0
10934.618,191.0
10938.992,234.0
10943.368,227.0
10947.745,236.0
10952.124,205.0
10956.505,194.0
10960.888,229.0
10965.272,227.0
10969.658,214.0
10974.046,220.0
10978.436,227.0
10982.827,224.0
10987.221,258.0
10991.615,210.0
10996.012,210.0
11000.41,245.0
11004.811,254.0
11009.213,220.0
11013.616,232.0
11018.021,245.0
11022.429,220.0
11026.838,203.0
11031.249,232.0
11035.661,237.0
11040.075,246.0
11044.491,252.0
11048.909,276.0
11053.329,258.0
11057.75,252.0
11062.173,210.0
11066.598,236.0
11071.024,220.0
11075.453,254.0
11079.884,219.0
11084.315,246.0
11088.749,230.0
11093.185,244.0
11097.622,235.0
11102.062,229.0
11106.502,258.0
11110.944,278.0
11115.389,245.0
11119.835,243.0
11124.283,262.0
11128.733,258.0
11133.185,243.0
11137.638,231.0
11142.093,252.0
11146.55,287.0
11151.009,233.0
11155.469,274.0
11159.931,265.0
11164.395,290.0
11168.86,319.0
11173.328,276.0
11177.798,266.0
11182.269,276.0
11186.741,298.0
11191.216,265.0
11195.692,271.0
11200.171,278.0
11204.651,319.0
11209.133,295.0
11213.616,293.0
11218.102,285.0
11222.589,290.0
11227.078,266.0
11231.569,277.0
11236.062,289.0
11240.556,292.0
11245.052,323.0
11249.55,294.0
11254.05,293.0
11258.552,313.0
11263.056,317.0
11267.561,340.0
11272.067,348.0
11276.576,333.0
11281.087,342.0
11285.6,334.0
11290.114,351.0
11294.63,319.0
11299.147,396.0
11303.667,382.0
11308.188,386.0
11312.712,386.0
11317.237,386.0
11321.765,392.0
11326.293,403.0
11330.823,400.0
11335.355,373.0
11339.89,395.0
11344.426,420.0
11348.964,417.0
11353.504,423.0
11358.045,443.0
11362.588,472.0
11367.133,449.0
11371.68,441.0
11376.229,443.0
11380.779,473.0
11385.332,485.0
11389.886,471.0
11394.441,520.0
11398.999,529.0
11403.559,526.0
11408.12,507.0
11412.684,543.0
11417.249,553.0
11421.816,591.0
11426.385,615.0
11430.955,598.0
11435.527,591.0
11440.102,612.0
11444.678,643.0
11449.256,603.0
11453.836,621.0
11458.417,627.0
11463.0,732.0
11467.585,727.0
11472.172,653.0
11476.761,694.0
11481.352,730.0
11485.944,730.0
11490.539,768.0
11495.136,835.0
11499.733,729.0
11504.333,760.0
11508.935,783.0
11513.538,844.0
11518.144,789.0
11522.751,794.0
11527.36,876.0
11531.972,885.0
11536.584,807.0
11541.198,859.0
11545.814,929.0
11550.433,871.0
11555.053,872.0
11559.675,914.0
11564.299,964.0
11568.925,908.0
11573.553,917.0
11578.183,1025.0
11582.813,903.0
11587.446,859.0
11592.081,912.0
11596.718,974.0
11601.356,893.0
11605.997,969.0
11610.64,1034.0
11615.284,1002.0
11619.931,888.0
11624.579,983.0
11629.229,1049.0
11633.88,924.0
11638.533,924.0
11643.188,1012.0
11647.846,1002.0
11652.505,850.0
11657.166,982.0
11661.829,1063.0
11666.494,836.0
11671.161,788.0
11675.83,1060.0
11680.5,1093.0
11685.172,832.0
11689.846,811.0
11694.521,923.0
11699.199,812.0
11703.879,742.0
11708.561,761.0
11713.244,748.0
11717.93,642.0
11722.617,640.0
11727.307,639.0
11731.998,569.0
11736.69,549.0
11741.385,551.0
11746.081,478.0
11750.779,511.0
11755.4795,540.0
11760.182,498.0
11764.886,457.0
11769.592,447.0
11774.3,430.0
11779.01,421.0
11783.722,427.0
11788.436,400.0
11793.151,419.0
11797.868,374.0
11802.587,403.0
11807.308,388.0
11812.03,359.0
11816.755,394.0
11821.481,387.0
11826.21,374.0
11830.94,385.0
11835.673,353.0
11840.407,329.0
11845.144,343.0
11849.882,367.0
11854.622,320.0
11859.364,348.0
11864.108,332.0
11868.8545,322.0
11873.602,302.0
11878.351,283.0
11883.102,305.0
11887.8545,279.0
11892.609,284.0
11897.366,288.0
11902.125,276.0
11906.886,299.0
11911.648,288.0
11916.413,269.0
11921.18,260.0
11925.948,278.0
11930.719,264.0
11935.491,222.0
11940.266,258.0
11945.042,202.0
11949.82,237.0
11954.601,236.0
11959.383,227.0
11964.167,219.0
11968.953,235.0
11973.74,226.0
11978.529,226.0
11983.32,237.0
11988.113,219.0
11992.908,224.0
