M/Z,Intensity
800.0,122.0
800.32,137.0
800.64014,52.0
800.9604,259.0
801.28076,601.0
801.60126,151.0
801.9219,134.0
802.2426,290.0
802.56354,158.0
802.8846,369.0
803.20575,259.0
803.52704,109.0
803.84845,155.0
804.17,197.0
804.49164,96.0
804.8134,68.0
805.1353,148.0
805.4574,93.0
805.7796,60.0
806.1019,128.0
806.4244,120.0
806.74695,42.0
807.06964,123.0
807.39246,105.0
807.7154,55.0
808.03845,101.0
808.3617,161.0
808.68506,47.0
809.00854,94.0
809.33215,165.0
809.6559,57.0
809.97974,83.0
810.3037,145.0
810.6278,63.0
810.9521,99.0
811.2765,126.0
811.601,63.0
811.92566,94.0
812.2504,125.0
812.5753,62.0
812.9003,87.0
813.22546,143.0
813.5508,62.0
813.8762,68.0
814.2018,154.0
814.52747,63.0
814.8533,91.0
815.1792,145.0
815.50525,78.0
815.8314,59.0
816.1578,109.0
816.48425,65.0
816.81085,199.0
817.1376,341.0
817.4644,128.0
817.7914,77.0
818.11847,220.0
818.44574,96.0
818.77313,88.0
819.10065,188.0
819.4283,96.0
819.75604,43.0
820.0839,135.0
820.412,98.0
820.7402,78.0
821.0685,146.0
821.3969,116.0
821.72546,62.0
822.05414,100.0
822.38293,118.0
822.7119,65.0
823.041,289.0
823.37024,104.0
823.6996,71.0
824.02905,208.0
824.35864,129.0
824.6884,353.0
825.0183,4904.0
825.3483,262.0
825.67847,184.0
826.0087,2159.0
826.3391,197.0
826.6696,64.0
827.0003,679.0
827.3311,147.0
827.66205,60.0
827.9931,212.0
828.3243,135.0
828.65564,43.0
828.9871,106.0
829.3187,150.0
829.65045,48.0
829.9823,64.0
830.3143,134.0
830.6464,49.0
830.9787,78.0
831.3111,143.0
831.6436,54.0
831.97626,102.0
832.309,121.0
832.64197,54.0
832.97504,159.0
833.3082,197.0
833.64154,54.0
833.975,102.0
834.3086,176.0
834.64233,54.0
834.9762,108.0
835.3102,147.0
835.6443,37.0
835.9785,119.0
836.3129,131.0
836.64746,51.0
836.9821,206.0
837.3169,127.0
837.6518,52.0
837.9869,132.0
838.3221,139.0
838.6574,97.0
838.99286,846.0
839.3284,152.0
839.6642,77.0
840.00006,451.0
840.33606,167.0
840.6722,135.0
841.0084,1043.0
841.34485,148.0
841.6814,89.0
842.01807,433.0
842.35486,152.0
842.6918,85.0
843.0289,306.0
843.3661,134.0
843.7034,61.0
844.0409,147.0
844.37854,123.0
844.7163,182.0
845.0542,809.0
845.3922,539.0
845.73035,143.0
846.06866,445.0
846.4071,336.0
846.74567,122.0
847.08435,329.0
847.42316,135.0
847.76215,86.0
848.10126,189.0
848.4405,90.0
848.77985,64.0
849.1194,139.0
849.45905,94.0
849.7988,59.0
850.13873,119.0
850.47876,97.0
850.819,67.0
851.1593,117.0
851.49976,81.0
851.84033,50.0
852.1811,114.0
852.522,84.0
852.863,53.0
853.2041,143.0
853.5454,74.0
853.88684,53.0
854.2284,142.0
854.57007,85.0
854.9119,632.0
855.2539,149.0
855.596,58.0
855.93823,293.0
856.2806,128.0
856.6231,63.0
856.96576,268.0
857.30853,138.0
857.6514,52.0
857.9945,152.0
858.3377,136.0
858.681,65.0
859.0245,191.0
859.3681,141.0
859.71185,63.0
860.0557,141.0
860.3997,122.0
860.7439,1150.0
861.0882,1938.0
861.4326,235.0
861.77716,726.0
862.1219,695.0
862.46674,145.0
862.8117,355.0
863.15686,282.0
863.50214,106.0
863.84753,182.0
864.19305,154.0
864.53876,76.0
864.8846,166.0
865.2305,151.0
865.5766,71.0
865.92285,115.0
866.2692,130.0
866.6157,69.0
866.96234,340.0
867.30914,152.0
867.65607,59.0
868.0031,199.0
868.35034,108.0
868.6977,53.0
869.04517,141.0
869.39276,99.0
869.74054,44.0
870.08844,85.0
870.43646,80.0
870.7846,80.0
871.13293,113.0
871.4814,89.0
871.82996,66.0
872.1787,111.0
872.5276,73.0
872.8766,114.0
873.2257,134.0
873.575,83.0
873.92444,96.0
874.274,137.0
874.6237,56.0
874.9736,95.0
875.32355,141.0
875.6737,49.0
876.024,100.0
876.3744,167.0
876.7249,261.0
877.0756,465.0
877.42645,191.0
877.7774,236.0
878.12854,201.0
878.4798,141.0
878.8312,182.0
879.18274,155.0
879.5344,94.0
879.8862,103.0
880.23816,153.0
880.5903,73.0
880.9425,102.0
881.29486,150.0
881.6474,63.0
882.00006,94.0
882.35284,110.0
882.7058,71.0
883.0589,192.0
883.4121,106.0
883.7655,52.0
884.119,132.0
884.47266,143.0
884.8264,76.0
885.18036,126.0
885.5344,89.0
885.8886,64.0
886.243,115.0
886.5975,55.0
886.9521,87.0
887.3069,133.0
887.6618,35.0
888.01685,90.0
888.3721,115.0
888.7274,55.0
889.0829,138.0
889.43854,413.0
889.7943,77.0
890.1502,129.0
890.5063,221.0
890.8625,82.0
891.2188,129.0
891.5753,116.0
891.93195,81.0
892.2887,131.0
892.6456,71.0
893.0027,112.0
893.35986,117.0
893.7172,56.0
894.0747,104.0
894.4323,130.0
894.7901,72.0
895.148,119.0
895.50604,100.0
895.86426,67.0
896.2226,114.0
896.58105,49.0
896.9397,78.0
897.29846,110.0
897.6574,40.0
898.0165,70.0
898.3757,118.0
898.73505,76.0
899.09454,104.0
899.45416,108.0
899.81396,74.0
900.1739,133.0
900.53394,100.0
900.89417,59.0
901.2545,122.0
901.615,63.0
901.97565,82.0
902.3364,105.0
902.6974,44.0
903.0585,93.0
903.4197,114.0
903.78107,59.0
904.1426,106.0
904.5042,135.0
904.866,79.0
905.22797,150.0
905.5901,98.0
905.95233,80.0
906.3147,163.0
906.67725,53.0
907.0399,86.0
907.4027,115.0
907.7657,40.0
908.1288,96.0
908.49207,88.0
908.85547,58.0
909.219,127.0
909.5827,62.0
909.94653,57.0
910.3105,109.0
910.6746,54.0
911.0389,114.0
911.4033,113.0
911.7679,49.0
912.13257,96.0
912.49744,64.0
912.8624,53.0
913.2276,96.0
913.5929,67.0
913.9583,60.0
914.3239,123.0
914.68964,54.0
915.05554,90.0
915.4216,102.0
915.7877,53.0
916.15405,98.0
916.5205,83.0
916.88715,60.0
917.2539,154.0
917.6208,60.0
917.98785,86.0
918.35504,143.0
918.7224,45.0
919.0899,96.0
919.4575,100.0
919.8253,59.0
920.19324,182.0
920.56134,62.0
920.92957,74.0
921.2979,204.0
921.66644,67.0
922.0351,84.0
922.40393,158.0
922.7729,59.0
923.14197,115.0
923.5112,100.0
923.8806,72.0
924.2502,112.0
924.6199,42.0
924.98975,81.0
925.35974,105.0
925.72986,49.0
926.10016,112.0
926.4706,86.0
926.8412,63.0
927.2119,106.0
927.5828,67.0
927.95386,70.0
928.325,120.0
928.69635,55.0
929.0678,118.0
929.43945,121.0
929.8112,46.0
930.18317,102.0
930.55524,65.0
930.9274,59.0
931.2998,114.0
931.6723,39.0
932.045,74.0
932.4178,101.0
932.7908,50.0
933.1639,117.0
933.5372,297.0
933.9106,54.0
934.2841,193.0
934.65784,89.0
935.0317,85.0
935.4057,157.0
935.77985,34.0
936.1542,106.0
936.5286,71.0
936.90326,54.0
937.278,108.0
937.65295,56.0
938.028,84.0
938.4032,100.0
938.77856,38.0
939.15405,83.0
939.5297,88.0
939.9055,70.0
940.2815,104.0
940.6576,49.0
941.0339,79.0
941.4103,91.0
941.78687,50.0
942.1636,124.0
942.54047,66.0
942.9175,78.0
943.2947,124.0
943.672,38.0
944.04944,105.0
944.42706,101.0
944.8048,61.0
945.18274,92.0
945.5608,64.0
945.939,78.0
946.3174,133.0
946.6959,42.0
947.0746,99.0
947.4534,103.0
947.8324,76.0
948.21155,214.0
948.5908,81.0
948.9703,68.0
949.34985,154.0
949.7296,63.0
950.1095,107.0
950.48956,82.0
950.86975,47.0
951.2501,117.0
951.6306,57.0
952.0113,63.0
952.3921,108.0
952.7731,49.0
953.1542,81.0
953.53546,95.0
953.9169,53.0
954.29846,112.0
954.6802,56.0
955.0621,71.0
955.4441,96.0
955.8263,43.0
956.2086,91.0
956.5911,48.0
956.97375,61.0
957.35657,108.0
957.7395,56.0
958.1226,101.0
958.50586,75.0
958.8893,54.0
959.2728,82.0
959.65656,51.0
960.0404,82.0
960.42444,99.0
960.8086,57.0
961.19293,92.0
961.5774,81.0
961.96204,78.0
962.3468,116.0
962.73175,53.0
963.1168,84.0
963.5021,69.0
963.88745,80.0
964.273,109.0
964.6587,53.0
965.04456,107.0
965.4306,166.0
965.8168,61.0
966.2031,106.0
966.5896,78.0
966.97626,73.0
967.36304,112.0
967.75,60.0
968.1371,109.0
968.52435,86.0
968.91174,65.0
969.2993,117.0
969.687,73.0
970.0749,172.0
970.4629,125.0
970.8511,94.0
971.23944,122.0
971.6279,69.0
972.0166,88.0
972.4054,83.0
972.7944,54.0
973.1835,98.0
973.57275,69.0
973.96216,65.0
974.35175,103.0
974.7415,42.0
975.1314,91.0
975.5215,81.0
975.9117,60.0
976.30206,121.0
976.69257,51.0
977.08325,100.0
977.47406,269.0
977.86505,79.0
978.2562,150.0
978.6475,121.0
979.039,106.0
979.4306,137.0
979.8224,74.0
980.2143,127.0
980.6064,89.0
980.99866,74.0
981.39105,95.0
981.7836,81.0
982.17633,123.0
982.5692,72.0
982.9622,106.0
983.3554,103.0
983.7488,53.0
984.1423,127.0
984.53595,65.0
984.92975,85.0
985.3237,79.0
985.71783,72.0
986.1121,127.0
986.5066,88.0
986.9012,89.0
987.29596,113.0
987.69086,65.0
988.08594,113.0
988.4812,95.0
988.8766,62.0
989.27216,89.0
989.66785,53.0
990.0637,100.0
990.4597,84.0
990.8559,60.0
991.25226,108.0
991.64874,59.0
992.0454,184.0
992.4422,103.0
992.8392,105.0
993.2363,133.0
993.6336,65.0
994.03107,120.0
994.42865,106.0
994.8264,81.0
995.22437,123.0
995.62244,66.0
996.0207,109.0
996.4191,91.0
996.8177,54.0
997.21643,103.0
997.6153,59.0
998.01434,71.0
998.4136,91.0
998.8129,52.0
999.21246,93.0
999.6121,50.0
1000.01196,93.0
1000.412,98.0
1000.81213,59.0
1001.21246,109.0
1001.613,58.0
1002.0136,95.0
1002.4144,106.0
1002.81537,60.0
1003.2165,110.0
1003.6178,60.0
1004.0192,81.0
1004.42084,113.0
1004.82263,67.0
1005.22455,94.0
1005.62665,72.0
1006.0289,196.0
1006.4313,108.0
1006.83386,112.0
1007.2366,124.0
1007.63947,85.0
1008.04254,204.0
1008.44574,95.0
1008.8491,134.0
1009.2527,184.0
1009.6564,85.0
1010.06024,144.0
1010.4643,118.0
1010.86847,67.0
1011.2728,93.0
1011.6773,57.0
1012.082,142.0
1012.4868,87.0
1012.8918,92.0
1013.29694,95.0
1013.7023,85.0
1014.1077,313.0
1014.51337,87.0
1014.9192,207.0
1015.32513,108.0
1015.73126,63.0
1016.1376,144.0
1016.544,69.0
1016.9506,101.0
1017.3574,136.0
1017.76434,50.0
1018.17145,86.0
1018.57874,71.0
1018.98615,70.0
1019.39374,100.0
1019.8015,54.0
1020.2094,89.0
1020.6175,69.0
1021.02576,56.0
1021.43414,214.0
1021.8427,86.0
1022.25146,143.0
1022.66034,117.0
1023.0694,83.0
1023.47864,119.0
1023.888,96.0
1024.2976,105.0
1024.7073,69.0
1025.1172,98.0
1025.5272,99.0
1025.9374,73.0
1026.3478,120.0
1026.7583,59.0
1027.169,101.0
1027.5798,65.0
1027.9908,185.0
1028.4021,97.0
1028.8135,108.0
1029.225,122.0
1029.6367,91.0
1030.0486,381.0
1030.4606,95.0
1030.8728,234.0
1031.2852,114.0
1031.6976,76.0
1032.1104,148.0
1032.5232,80.0
1032.9362,83.0
1033.3494,111.0
1033.7627,106.0
1034.1761,143.0
1034.5898,62.0
1035.0037,121.0
1035.4177,126.0
1035.8319,127.0
1036.2462,118.0
1036.6608,81.0
1037.0754,109.0
1037.4902,122.0
1037.9053,88.0
1038.3204,109.0
1038.7357,65.0
1039.1512,77.0
1039.5669,88.0
1039.9827,72.0
1040.3987,133.0
1040.8148,45.0
1041.2312,79.0
1041.6477,73.0
1042.0643,74.0
1042.4812,101.0
1042.8982,53.0
1043.3153,99.0
1043.7327,110.0
1044.1501,134.0
1044.5677,84.0
1044.9856,95.0
1045.4036,97.0
1045.8218,83.0
1046.2401,121.0
1046.6586,70.0
1047.0773,83.0
1047.4961,82.0
1047.915,72.0
1048.3342,113.0
1048.7535,65.0
1049.1731,91.0
1049.5928,129.0
1050.0126,509.0
1050.4326,144.0
1050.8528,324.0
1051.2731,129.0
1051.6936,123.0
1052.1143,238.0
1052.5352,89.0
1052.9562,141.0
1053.3773,191.0
1053.7987,128.0
1054.2202,141.0
1054.6418,97.0
1055.0637,106.0
1055.4857,106.0
1055.908,109.0
1056.3303,110.0
1056.7528,79.0
1057.1755,84.0
1057.5984,77.0
1058.0215,85.0
1058.4447,100.0
1058.868,58.0
1059.2916,112.0
1059.7153,95.0
1060.1392,119.0
1060.5632,111.0
1060.9874,115.0
1061.4119,146.0
1061.8364,68.0
1062.2611,118.0
1062.686,64.0
1063.1111,76.0
1063.5364,98.0
1063.9618,64.0
1064.3873,95.0
1064.8131,50.0
1065.239,136.0
1065.6652,271.0
1066.0914,475.0
1066.5178,147.0
1066.9445,338.0
1067.3712,132.0
1067.7982,186.0
1068.2253,111.0
1068.6526,89.0
1069.0801,115.0
1069.5077,91.0
1069.9355,112.0
1070.3635,103.0
1070.7916,71.0
1071.22,106.0
1071.6484,135.0
1072.0771,276.0
1072.506,98.0
1072.9349,214.0
1073.3641,122.0
1073.7935,133.0
1074.223,114.0
1074.6527,75.0
1075.0825,85.0
1075.5126,87.0
1075.9427,90.0
1076.3732,92.0
1076.8037,67.0
1077.2344,110.0
1077.6653,86.0
1078.0963,174.0
1078.5276,80.0
1078.959,127.0
1079.3906,108.0
1079.8224,108.0
1080.2543,100.0
1080.6864,65.0
1081.1187,87.0
1081.5511,98.0
1081.9838,166.0
1082.4165,115.0
1082.8495,110.0
1083.2826,91.0
1083.716,90.0
1084.1494,82.0
1084.5831,81.0
1085.017,85.0
1085.4509,100.0
1085.8851,75.0
1086.3195,95.0
1086.754,58.0
1087.1887,89.0
1087.6235,104.0
1088.0586,137.0
1088.4938,97.0
1088.9292,88.0
1089.3647,96.0
1089.8005,91.0
1090.2365,173.0
1090.6725,89.0
1091.1088,96.0
1091.5452,121.0
1091.9818,67.0
1092.4186,148.0
1092.8556,74.0
1093.2927,120.0
1093.7301,88.0
1094.1676,109.0
1094.6052,75.0
1095.0431,84.0
1095.4811,100.0
1095.9193,99.0
1096.3577,92.0
1096.7963,67.0
1097.235,119.0
1097.6738,133.0
1098.1129,83.0
1098.5521,126.0
1098.9916,82.0
1099.4312,105.0
1099.871,75.0
1100.3109,105.0
1100.751,77.0
1101.1913,89.0
1101.6317,75.0
1102.0724,86.0
1102.5132,100.0
1102.9542,73.0
1103.3954,113.0
1103.8368,88.0
1104.2783,83.0
1104.72,72.0
1105.1619,84.0
1105.6039,85.0
1106.0461,71.0
1106.4885,114.0
1106.9312,57.0
1107.3739,96.0
1107.8169,53.0
1108.26,112.0
1108.7034,58.0
1109.1469,90.0
1109.5905,159.0
1110.0343,102.0
1110.4783,111.0
1110.9225,67.0
1111.3668,109.0
1111.8114,59.0
1112.2561,91.0
1112.701,75.0
1113.1461,90.0
1113.5914,98.0
1114.0369,80.0
1114.4824,90.0
1114.9282,56.0
1115.3741,95.0
1115.8203,74.0
1116.2666,79.0
1116.7131,77.0
1117.1598,78.0
1117.6067,77.0
1118.0537,91.0
1118.501,113.0
1118.9484,59.0
1119.396,106.0
1119.8438,61.0
1120.2917,83.0
1120.7399,59.0
1121.1881,90.0
1121.6366,76.0
1122.0852,95.0
1122.534,68.0
1122.983,59.0
1123.4323,111.0
1123.8816,56.0
1124.3312,92.0
1124.7809,71.0
1125.2308,86.0
1125.6809,69.0
1126.1312,75.0
1126.5817,99.0
1127.0323,50.0
1127.4832,91.0
1127.9342,50.0
1128.3854,88.0
1128.8367,52.0
1129.2882,86.0
1129.7399,59.0
1130.1918,82.0
1130.6438,75.0
1131.0961,76.0
1131.5485,79.0
1132.0011,77.0
1132.4539,98.0
1132.9069,68.0
1133.36,96.0
1133.8134,46.0
1134.2668,103.0
1134.7206,67.0
1135.1744,85.0
1135.6285,91.0
1136.0828,65.0
1136.5372,90.0
1136.9918,66.0
1137.4467,99.0
1137.9016,54.0
1138.3568,74.0
1138.8121,52.0
1139.2677,93.0
1139.7234,67.0
1140.1793,82.0
1140.6354,77.0
1141.0917,71.0
1141.5481,150.0
1142.0048,64.0
1142.4615,142.0
1142.9186,60.0
1143.3757,89.0
1143.8331,71.0
1144.2906,119.0
1144.7484,62.0
1145.2063,90.0
1145.6644,72.0
1146.1227,69.0
1146.5812,87.0
1147.0398,72.0
1147.4987,88.0
1147.9576,75.0
1148.4169,121.0
1148.8762,64.0
1149.3358,120.0
1149.7955,55.0
1150.2555,96.0
1150.7156,77.0
1151.1759,90.0
1151.6364,75.0
1152.097,68.0
1152.5579,81.0
1153.0189,73.0
1153.4801,126.0
1153.9415,55.0
1154.4031,124.0
1154.8649,60.0
1155.3268,90.0
1155.789,68.0
1156.2512,107.0
1156.7137,65.0
1157.1764,81.0
1157.6393,81.0
1158.1023,70.0
1158.5656,95.0
1159.0289,54.0
1159.4926,96.0
1159.9563,57.0
1160.4203,77.0
1160.8844,67.0
1161.3488,74.0
1161.8134,49.0
1162.2781,91.0
1162.743,64.0
1163.2081,79.0
1163.6735,59.0
1164.1389,72.0
1164.6046,72.0
1165.0704,63.0
1165.5365,97.0
1166.0027,52.0
1166.4691,88.0
1166.9357,61.0
1167.4025,91.0
1167.8694,58.0
1168.3365,103.0
1168.8038,62.0
1169.2714,92.0
1169.739,81.0
1170.2069,93.0
1170.675,70.0
1171.1433,75.0
1171.6118,79.0
1172.0804,72.0
1172.5493,84.0
1173.0183,62.0
1173.4875,125.0
1173.9569,70.0
1174.4265,97.0
1174.8962,66.0
1175.3662,89.0
1175.8363,72.0
1176.3066,103.0
1176.7772,67.0
1177.2479,84.0
1177.7189,64.0
1178.19,88.0
1178.6613,66.0
1179.1327,62.0
1179.6044,73.0
1180.0762,76.0
1180.5482,91.0
1181.0204,92.0
1181.4928,86.0
1181.9655,76.0
1182.4382,79.0
1182.9113,66.0
1183.3844,74.0
1183.8578,56.0
1184.3313,78.0
1184.805,52.0
1185.2789,134.0
1185.753,106.0
1186.2273,76.0
1186.7018,111.0
1187.1765,75.0
1187.6514,85.0
1188.1265,61.0
1188.6017,74.0
1189.0771,60.0
1189.5527,82.0
1190.0286,61.0
1190.5045,83.0
1190.9807,65.0
1191.4572,96.0
1191.9337,59.0
1192.4105,94.0
1192.8875,60.0
1193.3646,90.0
1193.8419,65.0
1194.3195,113.0
1194.7972,80.0
1195.2751,107.0
1195.7533,49.0
1196.2316,80.0
1196.7101,102.0
1197.1887,102.0
1197.6676,104.0
1198.1467,84.0
1198.626,101.0
1199.1055,83.0
1199.5851,110.0
1200.065,83.0
1200.5449,85.0
1201.0251,87.0
1201.5056,83.0
1201.9862,68.0
1202.467,101.0
1202.948,59.0
1203.4292,78.0
1203.9105,66.0
1204.3921,88.0
1204.8739,55.0
1205.3558,85.0
1205.838,58.0
1206.3203,85.0
1206.8029,67.0
1207.2855,70.0
1207.7684,55.0
1208.2516,84.0
1208.7349,52.0
1209.2184,58.0
1209.702,69.0
1210.1859,69.0
1210.67,78.0
1211.1543,73.0
1211.6388,81.0
1212.1234,77.0
1212.6083,79.0
1213.0933,81.0
1213.5785,89.0
1214.064,73.0
1214.5496,87.0
1215.0354,54.0
1215.5214,94.0
1216.0076,54.0
1216.494,96.0
1216.9806,89.0
1217.4674,78.0
1217.9543,79.0
1218.4415,87.0
1218.929,91.0
1219.4165,105.0
1219.9043,109.0
1220.3922,73.0
1220.8804,73.0
1221.3688,101.0
1221.8573,57.0
1222.3461,96.0
1222.835,78.0
1223.3241,98.0
1223.8135,85.0
1224.303,87.0
1224.7927,90.0
1225.2826,99.0
1225.7727,69.0
1226.2631,76.0
1226.7535,77.0
1227.2443,87.0
1227.7351,71.0
1228.2262,76.0
1228.7175,68.0
1229.209,99.0
1229.7007,116.0
1230.1925,85.0
1230.6846,111.0
1231.1769,83.0
1231.6693,77.0
1232.162,71.0
1232.6549,91.0
1233.148,85.0
1233.6412,75.0
1234.1346,93.0
1234.6283,91.0
1235.1222,98.0
1235.6162,69.0
1236.1105,87.0
1236.6049,88.0
1237.0995,91.0
1237.5944,81.0
1238.0894,65.0
1238.5846,90.0
1239.0801,111.0
1239.5757,79.0
1240.0715,90.0
1240.5675,90.0
1241.0637,136.0
1241.5602,107.0
1242.0568,126.0
1242.5536,88.0
1243.0507,110.0
1243.5479,125.0
1244.0453,60.0
1244.5428,100.0
1245.0406,88.0
1245.5387,86.0
1246.0369,87.0
1246.5353,118.0
1247.0339,109.0
1247.5327,132.0
1248.0317,73.0
1248.531,97.0
1249.0304,85.0
1249.53,95.0
1250.0298,64.0
1250.5298,95.0
1251.03,98.0
1251.5304,94.0
1252.031,70.0
1252.5319,87.0
1253.0328,55.0
1253.534,80.0
1254.0355,65.0
1254.5371,91.0
1255.039,123.0
1255.541,91.0
1256.0432,89.0
1256.5457,98.0
1257.0482,105.0
1257.551,72.0
1258.0541,80.0
1258.5573,77.0
1259.0607,66.0
1259.5643,85.0
1260.0681,65.0
1260.5721,101.0
1261.0764,140.0
1261.5808,109.0
1262.0854,126.0
1262.5903,91.0
1263.0953,148.0
1263.6006,105.0
1264.1061,134.0
1264.6117,111.0
1265.1176,117.0
1265.6237,93.0
1266.1299,72.0
1266.6364,104.0
1267.1431,92.0
1267.6499,80.0
1268.157,93.0
1268.6642,95.0
1269.1716,78.0
1269.6793,92.0
1270.1871,72.0
1270.6952,110.0
1271.2035,83.0
1271.7119,104.0
1272.2206,75.0
1272.7295,76.0
1273.2385,97.0
1273.7478,105.0
1274.2573,96.0
1274.767,96.0
1275.2769,96.0
1275.787,82.0
1276.2972,87.0
1276.8077,239.0
1277.3185,108.0
1277.8295,165.0
1278.3406,100.0
1278.8519,124.0
1279.3635,75.0
1279.8752,104.0
1280.3872,90.0
1280.8994,88.0
1281.4117,100.0
1281.9243,90.0
1282.4371,114.0
1282.9501,159.0
1283.4633,120.0
1283.9767,103.0
1284.4902,102.0
1285.004,103.0
1285.5181,113.0
1286.0322,78.0
1286.5466,106.0
1287.0613,83.0
1287.576,110.0
1288.0911,73.0
1288.6063,125.0
1289.1218,110.0
1289.6375,95.0
1290.1533,109.0
1290.6694,78.0
1291.1857,118.0
1291.7021,95.0
1292.2189,110.0
1292.7357,103.0
1293.2528,92.0
1293.7701,108.0
1294.2876,74.0
1294.8053,87.0
1295.3232,88.0
1295.8414,68.0
1296.3597,92.0
1296.8783,73.0
1297.3971,86.0
1297.916,60.0
1298.4352,127.0
1298.9546,105.0
1299.4741,87.0
1299.9939,63.0
1300.5139,90.0
1301.0342,68.0
1301.5546,123.0
1302.0752,52.0
1302.5961,78.0
1303.1171,84.0
1303.6383,111.0
1304.1598,79.0
1304.6814,103.0
1305.2032,78.0
1305.7253,115.0
1306.2477,99.0
1306.7701,104.0
1307.2928,79.0
1307.8158,77.0
1308.3389,78.0
1308.8622,73.0
1309.3857,81.0
1309.9095,48.0
1310.4335,88.0
1310.9576,70.0
1311.482,105.0
1312.0066,53.0
1312.5314,80.0
1313.0564,56.0
1313.5817,77.0
1314.107,84.0
1314.6327,76.0
1315.1586,70.0
1315.6847,86.0
1316.2109,83.0
1316.7374,75.0
1317.2642,85.0
1317.791,102.0
1318.3181,111.0
1318.8455,63.0
1319.373,90.0
1319.9008,62.0
1320.4287,81.0
1320.9569,68.0
1321.4854,98.0
1322.0139,73.0
1322.5427,104.0
1323.0718,63.0
1323.601,74.0
1324.1304,83.0
1324.66,111.0
1325.19,88.0
1325.72,90.0
1326.2502,85.0
1326.7808,89.0
1327.3115,84.0
1327.8424,62.0
1328.3735,82.0
1328.9049,68.0
1329.4365,109.0
1329.9683,59.0
1330.5002,93.0
1331.0325,69.0
1331.565,129.0
1332.0975,78.0
1332.6304,107.0
1333.1635,89.0
1333.6968,92.0
1334.2302,76.0
1334.7639,73.0
1335.2979,82.0
1335.832,72.0
1336.3663,82.0
1336.9009,64.0
1337.4357,82.0
1337.9707,52.0
1338.5059,81.0
1339.0413,57.0
1339.5769,109.0
1340.1128,47.0
1340.6488,96.0
1341.185,70.0
1341.7216,95.0
1342.2583,75.0
1342.7952,80.0
1343.3323,75.0
1343.8696,68.0
1344.4072,82.0
1344.945,63.0
1345.4829,85.0
1346.0211,71.0
1346.5596,88.0
1347.0981,56.0
1347.637,95.0
1348.176,68.0
1348.7153,88.0
1349.2548,96.0
1349.7944,60.0
1350.3344,72.0
1350.8745,57.0
1351.4149,80.0
1351.9554,59.0
1352.4962,83.0
1353.0372,58.0
1353.5785,82.0
1354.1199,58.0
1354.6615,82.0
1355.2034,71.0
1355.7455,74.0
1356.2878,69.0
1356.8303,59.0
1357.373,73.0
1357.916,51.0
1358.4592,76.0
1359.0026,61.0
1359.5461,105.0
1360.09,62.0
1360.634,90.0
1361.1783,85.0
1361.7228,109.0
1362.2675,74.0
1362.8124,79.0
1363.3575,102.0
1363.9028,67.0
1364.4484,94.0
1364.9941,57.0
1365.5402,78.0
1366.0864,72.0
1366.6328,99.0
1367.1794,73.0
1367.7263,111.0
1368.2734,71.0
1368.8208,73.0
1369.3683,83.0
1369.916,65.0
1370.464,69.0
1371.0122,65.0
1371.5607,93.0
1372.1093,56.0
1372.6581,83.0
1373.2072,60.0
1373.7565,75.0
1374.306,91.0
1374.8557,71.0
1375.4056,130.0
1375.9558,59.0
1376.5062,105.0
1377.0569,60.0
1377.6077,110.0
1378.1587,70.0
1378.71,100.0
1379.2615,73.0
1379.8132,76.0
1380.3651,79.0
1380.9172,64.0
1381.4696,79.0
1382.0222,59.0
1382.5751,88.0
1383.128,86.0
1383.6813,227.0
1384.2347,119.0
1384.7885,173.0
1385.3424,131.0
1385.8965,86.0
1386.4508,108.0
1387.0054,63.0
1387.5602,95.0
1388.1152,68.0
1388.6705,110.0
1389.226,65.0
1389.7816,78.0
1390.3375,98.0
1390.8937,84.0
1391.4501,96.0
1392.0067,63.0
1392.5635,101.0
1393.1205,66.0
1393.6777,94.0
1394.2352,74.0
1394.793,95.0
1395.3508,93.0
1395.9089,65.0
1396.4673,110.0
1397.0259,78.0
1397.5847,104.0
1398.1438,86.0
1398.703,86.0
1399.2625,75.0
1399.8221,84.0
1400.3821,95.0
1400.9423,58.0
1401.5027,71.0
1402.0632,62.0
1402.624,84.0
1403.185,68.0
1403.7463,82.0
1404.3079,94.0
1404.8696,77.0
1405.4315,137.0
1405.9937,66.0
1406.556,115.0
1407.1187,71.0
1407.6815,114.0
1408.2446,90.0
1408.808,100.0
1409.3715,84.0
1409.9352,64.0
1410.4991,83.0
1411.0634,61.0
1411.6278,99.0
1412.1925,63.0
1412.7573,69.0
1413.3224,96.0
1413.8877,79.0
1414.4532,85.0
1415.019,67.0
1415.5851,88.0
1416.1514,73.0
1416.7178,79.0
1417.2844,98.0
1417.8513,92.0
1418.4185,96.0
1418.9858,85.0
1419.5535,116.0
1420.1213,71.0
1420.6893,76.0
1421.2576,81.0
1421.826,86.0
1422.3948,104.0
1422.9637,66.0
1423.533,89.0
1424.1024,73.0
1424.672,80.0
1425.2418,67.0
1425.8119,66.0
1426.3822,78.0
1426.9528,88.0
1427.5236,96.0
1428.0946,74.0
1428.6659,90.0
1429.2373,71.0
1429.809,84.0
1430.3809,93.0
1430.953,66.0
1431.5254,101.0
1432.098,100.0
1432.6709,112.0
1433.244,100.0
1433.8173,98.0
1434.3907,84.0
1434.9645,82.0
1435.5385,80.0
1436.1127,94.0
1436.6871,99.0
1437.2618,92.0
1437.8368,79.0
1438.412,90.0
1438.9873,93.0
1439.5629,87.0
1440.1387,69.0
1440.7147,74.0
1441.291,67.0
1441.8676,66.0
1442.4443,79.0
1443.0214,67.0
1443.5985,84.0
1444.1759,79.0
1444.7535,109.0
1445.3314,89.0
1445.9095,88.0
1446.4879,100.0
1447.0665,73.0
1447.6454,103.0
1448.2245,80.0
1448.8038,83.0
1449.3833,100.0
1449.963,85.0
1450.543,112.0
1451.1232,85.0
1451.7036,111.0
1452.2843,101.0
1452.8652,79.0
1453.4464,84.0
1454.0278,91.0
1454.6095,109.0
1455.1913,96.0
1455.7733,92.0
1456.3556,102.0
1456.9381,80.0
1457.5209,75.0
1458.1039,84.0
1458.6871,96.0
1459.2706,77.0
1459.8544,81.0
1460.4384,94.0
1461.0226,69.0
1461.6069,123.0
1462.1915,100.0
1462.7764,128.0
1463.3615,92.0
1463.9468,98.0
1464.5323,103.0
1465.1182,76.0
1465.7042,116.0
1466.2905,96.0
1466.8771,104.0
1467.4639,85.0
1468.0509,68.0
1468.6382,109.0
1469.2256,86.0
1469.8132,92.0
1470.4011,88.0
1470.9893,62.0
1471.5776,87.0
1472.1663,77.0
1472.7551,85.0
1473.3442,77.0
1473.9336,89.0
1474.5232,96.0
1475.113,80.0
1475.7031,106.0
1476.2935,70.0
1476.884,74.0
1477.4747,86.0
1478.0657,99.0
1478.6569,119.0
1479.2483,83.0
1479.84,78.0
1480.4319,93.0
1481.024,65.0
1481.6165,99.0
1482.2091,76.0
1482.802,92.0
1483.3951,87.0
1483.9885,104.0
1484.5822,101.0
1485.176,58.0
1485.7701,95.0
1486.3645,89.0
1486.9591,67.0
1487.5538,96.0
1488.1488,107.0
1488.744,130.0
1489.3395,75.0
1489.9352,97.0
1490.5311,88.0
1491.1273,78.0
1491.7238,98.0
1492.3204,78.0
1492.9174,69.0
1493.5145,88.0
1494.1119,79.0
1494.7096,99.0
1495.3075,75.0
1495.9056,96.0
1496.504,101.0
1497.1027,69.0
1497.7015,107.0
1498.3007,60.0
1498.9,76.0
1499.4996,88.0
1500.0995,83.0
1500.6996,101.0
1501.2998,77.0
1501.9003,59.0
1502.501,85.0
1503.1019,64.0
1503.7031,91.0
1504.3046,89.0
1504.9062,68.0
1505.5082,99.0
1506.1104,84.0
1506.7128,98.0
1507.3154,81.0
1507.9183,90.0
1508.5215,89.0
1509.1249,68.0
1509.7285,102.0
1510.3324,67.0
1510.9365,76.0
1511.5409,90.0
1512.1455,87.0
1512.7504,130.0
1513.3555,106.0
1513.9608,116.0
1514.5664,94.0
1515.1722,62.0
1515.7783,98.0
1516.3846,88.0
1516.9912,90.0
1517.598,84.0
1518.2051,63.0
1518.8124,80.0
1519.4199,104.0
1520.0277,63.0
1520.6357,80.0
1521.244,67.0
1521.8525,72.0
1522.4613,98.0
1523.0703,70.0
1523.6796,92.0
1524.2891,78.0
1524.8988,75.0
1525.5088,91.0
1526.119,70.0
1526.7295,77.0
1527.3402,84.0
1527.9512,66.0
1528.5624,90.0
1529.1738,78.0
1529.7855,78.0
1530.3975,70.0
1531.0096,59.0
1531.6221,94.0
1532.2347,74.0
1532.8477,74.0
1533.4608,70.0
1534.0742,80.0
1534.6879,87.0
1535.3018,101.0
1535.9159,80.0
1536.5303,87.0
1537.1449,62.0
1537.7598,92.0
1538.3749,80.0
1538.9902,69.0
1539.6058,89.0
1540.2217,61.0
1540.8378,63.0
1541.4541,79.0
1542.0707,63.0
1542.6875,108.0
1543.3046,74.0
1543.9219,76.0
1544.5394,81.0
1545.1572,51.0
1545.7753,93.0
1546.3936,84.0
1547.0121,66.0
1547.6309,75.0
1548.2499,68.0
1548.8691,66.0
1549.4886,72.0
1550.1084,59.0
1550.7284,73.0
1551.3486,112.0
1551.9691,70.0
1552.5898,102.0
1553.2109,64.0
1553.8323,91.0
1554.4539,86.0
1555.0757,71.0
1555.6978,98.0
1556.3201,82.0
1556.9426,66.0
1557.5654,93.0
1558.1885,54.0
1558.8118,103.0
1559.4353,89.0
1560.0591,82.0
1560.6831,84.0
1561.3074,80.0
1561.9319,70.0
1562.5566,76.0
1563.1816,74.0
1563.8069,76.0
1564.4324,76.0
1565.0581,70.0
1565.6841,84.0
1566.3103,67.0
1566.9368,65.0
1567.5636,82.0
1568.1907,61.0
1568.818,91.0
1569.4456,97.0
1570.0734,66.0
1570.7014,92.0
1571.3297,84.0
1571.9583,64.0
1572.587,89.0
1573.2161,61.0
1573.8453,80.0
1574.4749,75.0
1575.1046,56.0
1575.7346,90.0
1576.3649,81.0
1576.9954,65.0
1577.6261,68.0
1578.2572,61.0
1578.8885,75.0
1579.5201,81.0
1580.152,77.0
1580.784,85.0
1581.4164,64.0
1582.049,62.0
1582.6818,80.0
1583.3148,71.0
1583.9481,55.0
1584.5817,75.0
1585.2155,66.0
1585.8495,79.0
1586.4839,84.0
1587.1185,77.0
1587.7534,78.0
1588.3885,68.0
1589.0239,61.0
1589.6595,90.0
1590.2954,72.0
1590.9315,58.0
1591.5679,80.0
1592.2045,56.0
1592.8413,79.0
1593.4784,92.0
1594.1158,68.0
1594.7535,67.0
1595.3915,114.0
1596.0297,80.0
1596.6681,107.0
1597.3068,92.0
1597.9457,65.0
1598.5848,71.0
1599.2242,57.0
1599.8639,73.0
1600.5038,67.0
1601.144,59.0
1601.7845,68.0
1602.4253,89.0
1603.0663,70.0
1603.7075,99.0
1604.349,69.0
1604.9907,57.0
1605.6327,94.0
1606.2749,71.0
1606.9174,60.0
1607.5602,73.0
1608.2032,61.0
1608.8466,82.0
1609.4901,74.0
1610.1339,56.0
1610.778,68.0
1611.4222,82.0
1612.0668,73.0
1612.7115,83.0
1613.3567,83.0
1614.0021,69.0
1614.6477,70.0
1615.2936,64.0
1615.9397,72.0
1616.586,85.0
1617.2327,67.0
1617.8795,82.0
1618.5266,91.0
1619.1741,66.0
1619.8218,79.0
1620.4697,89.0
1621.1179,85.0
1621.7664,90.0
1622.415,101.0
1623.064,64.0
1623.7131,111.0
1624.3627,95.0
1625.0125,66.0
1625.6625,99.0
1626.3127,60.0
1626.9633,76.0
1627.614,83.0
1628.265,57.0
1628.9163,77.0
1629.5679,105.0
1630.2197,62.0
1630.8718,78.0
1631.5242,86.0
1632.1768,66.0
1632.8296,94.0
1633.4827,68.0
1634.1361,81.0
1634.7898,86.0
1635.4437,89.0
1636.0979,57.0
1636.7523,67.0
1637.407,60.0
1638.0619,56.0
1638.7172,78.0
1639.3727,81.0
1640.0284,91.0
1640.6844,116.0
1641.3407,95.0
1641.9972,82.0
1642.6539,105.0
1643.311,78.0
1643.9684,93.0
1644.626,120.0
1645.2838,104.0
1645.9419,99.0
1646.6002,98.0
1647.2589,76.0
1647.9178,76.0
1648.577,90.0
1649.2365,77.0
1649.8961,93.0
1650.556,92.0
1651.2163,49.0
1651.8768,82.0
1652.5376,79.0
1653.1986,67.0
1653.8599,79.0
1654.5214,80.0
1655.1832,68.0
1655.8453,66.0
1656.5077,78.0
1657.1703,74.0
1657.8331,83.0
1658.4962,77.0
1659.1597,70.0
1659.8234,76.0
1660.4873,83.0
1661.1515,58.0
1661.8159,78.0
1662.4806,97.0
1663.1456,77.0
1663.8109,90.0
1664.4764,84.0
1665.1422,54.0
1665.8082,81.0
1666.4746,87.0
1667.1412,65.0
1667.8081,94.0
1668.4752,84.0
1669.1426,66.0
1669.8102,89.0
1670.4781,93.0
1671.1464,60.0
1671.8148,74.0
1672.4835,90.0
1673.1525,72.0
1673.8218,83.0
1674.4913,93.0
1675.1611,63.0
1675.8312,88.0
1676.5015,75.0
1677.1721,64.0
1677.843,80.0
1678.5142,94.0
1679.1855,74.0
1679.8572,81.0
1680.5292,67.0
1681.2014,61.0
1681.8739,87.0
1682.5466,92.0
1683.2196,78.0
1683.893,104.0
1684.5665,107.0
1685.2404,65.0
1685.9144,85.0
1686.5887,69.0
1687.2634,66.0
1687.9384,71.0
1688.6135,79.0
1689.289,71.0
1689.9646,76.0
1690.6406,72.0
1691.3169,74.0
1691.9934,64.0
1692.6702,80.0
1693.3473,76.0
1694.0247,61.0
1694.7023,96.0
1695.3801,56.0
1696.0582,57.0
1696.7367,74.0
1697.4154,68.0
1698.0944,59.0
1698.7736,72.0
1699.4531,86.0
1700.1329,74.0
1700.813,101.0
1701.4933,98.0
1702.1738,83.0
1702.8547,89.0
1703.5359,84.0
1704.2173,72.0
1704.8989,88.0
1705.5809,95.0
1706.2632,64.0
1706.9457,75.0
1707.6284,78.0
1708.3115,78.0
1708.9949,71.0
1709.6785,90.0
1710.3623,71.0
1711.0465,72.0
1711.731,77.0
1712.4156,86.0
1713.1006,75.0
1713.7858,89.0
1714.4713,74.0
1715.1571,59.0
1715.8431,65.0
1716.5294,96.0
1717.2161,69.0
1717.903,76.0
1718.5901,66.0
1719.2775,71.0
1719.9652,63.0
1720.6532,87.0
1721.3414,67.0
1722.0299,81.0
1722.7188,92.0
1723.4078,81.0
1724.0972,78.0
1724.7869,92.0
1725.4768,78.0
1726.167,50.0
1726.8574,98.0
1727.5482,90.0
1728.2393,69.0
1728.9305,95.0
1729.6221,93.0
1730.314,71.0
1731.0061,66.0
1731.6985,81.0
1732.3911,67.0
1733.0841,58.0
1733.7773,85.0
1734.4708,62.0
1735.1647,73.0
1735.8588,76.0
1736.5531,94.0
1737.2477,71.0
1737.9426,67.0
1738.6378,90.0
1739.3333,75.0
1740.0289,71.0
1740.725,79.0
1741.4213,59.0
1742.1178,56.0
1742.8147,84.0
1743.5118,59.0
1744.2092,59.0
1744.9069,83.0
1745.6049,71.0
1746.3031,65.0
1747.0016,65.0
1747.7004,67.0
1748.3995,71.0
1749.0989,69.0
1749.7985,99.0
1750.4984,80.0
1751.1986,75.0
1751.899,69.0
1752.5999,66.0
1753.3009,59.0
1754.0022,67.0
1754.7039,75.0
1755.4058,62.0
1756.1079,53.0
1756.8103,73.0
1757.5131,90.0
1758.2161,70.0
1758.9193,64.0
1759.6229,79.0
1760.3268,61.0
1761.0309,61.0
1761.7354,94.0
1762.4401,85.0
1763.145,68.0
1763.8502,66.0
1764.5558,93.0
1765.2616,78.0
1765.9677,74.0
1766.6741,90.0
1767.3807,69.0
1768.0876,69.0
1768.7949,81.0
1769.5024,72.0
1770.2102,58.0
1770.9183,81.0
1771.6267,88.0
1772.3353,60.0
1773.0443,52.0
1773.7535,91.0
1774.463,77.0
1775.1729,52.0
1775.8829,69.0
1776.5933,72.0
1777.304,53.0
1778.0149,62.0
1778.7261,73.0
1779.4376,78.0
1780.1494,69.0
1780.8615,69.0
1781.5739,79.0
1782.2865,55.0
1782.9994,64.0
1783.7126,73.0
1784.4261,84.0
1785.1399,56.0
1785.854,86.0
1786.5684,76.0
1787.283,57.0
1787.9979,71.0
1788.7131,100.0
1789.4286,78.0
1790.1444,67.0
1790.8605,100.0
1791.5768,73.0
1792.2935,58.0
1793.0104,62.0
1793.7275,83.0
1794.4451,70.0
1795.1628,65.0
1795.8809,84.0
1796.5992,70.0
1797.3179,72.0
1798.0367,63.0
1798.756,85.0
1799.4755,80.0
1800.1953,71.0
1800.9154,80.0
1801.6357,77.0
1802.3564,61.0
1803.0774,82.0
1803.7986,71.0
1804.5201,68.0
1805.242,87.0
1805.964,135.0
1806.6864,158.0
1807.409,110.0
1808.1321,72.0
1808.8553,97.0
1809.5789,86.0
1810.3027,60.0
1811.0269,83.0
1811.7512,84.0
1812.476,93.0
1813.2009,70.0
1813.9261,73.0
1814.6517,89.0
1815.3776,95.0
1816.1038,69.0
1816.8302,86.0
1817.5569,74.0
1818.2839,61.0
1819.0112,64.0
1819.7389,79.0
1820.4668,64.0
1821.195,47.0
1821.9235,72.0
1822.6522,60.0
1823.3812,63.0
1824.1106,76.0
1824.8402,84.0
1825.5702,79.0
1826.3004,62.0
1827.0309,76.0
1827.7617,119.0
1828.4928,84.0
1829.2242,63.0
1829.9559,99.0
1830.6879,75.0
1831.4202,72.0
1832.1527,63.0
1832.8856,58.0
1833.6188,80.0
1834.3522,65.0
1835.0859,71.0
1835.82,69.0
1836.5543,83.0
1837.289,62.0
1838.0238,69.0
1838.759,85.0
1839.4945,85.0
1840.2303,73.0
1840.9664,88.0
1841.7028,86.0
1842.4395,73.0
1843.1764,55.0
1843.9137,80.0
1844.6512,71.0
1845.3892,60.0
1846.1273,65.0
1846.8657,76.0
1847.6045,69.0
1848.3435,66.0
1849.0829,68.0
1849.8225,87.0
1850.5624,83.0
1851.3026,56.0
1852.0431,78.0
1852.7839,93.0
1853.525,69.0
1854.2665,70.0
1855.0082,71.0
1855.7501,89.0
1856.4924,84.0
1857.235,53.0
1857.9779,87.0
1858.7211,96.0
1859.4646,90.0
1860.2084,65.0
1860.9525,74.0
1861.6969,64.0
1862.4415,77.0
1863.1865,55.0
1863.9318,64.0
1864.6774,74.0
1865.4232,54.0
1866.1694,53.0
1866.9159,63.0
1867.6627,60.0
1868.4098,64.0
1869.1571,70.0
1869.9048,93.0
1870.6527,71.0
1871.401,68.0
1872.1495,70.0
1872.8984,86.0
1873.6476,78.0
1874.3971,71.0
1875.1469,70.0
1875.8969,100.0
1876.6472,81.0
1877.3978,83.0
1878.1488,69.0
1878.9,75.0
1879.6516,77.0
1880.4034,64.0
1881.1556,61.0
1881.9081,74.0
1882.6609,62.0
1883.414,71.0
1884.1674,64.0
1884.921,112.0
1885.675,139.0
1886.4293,77.0
1887.1838,84.0
1887.9387,81.0
1888.6938,77.0
1889.4493,76.0
1890.2051,79.0
1890.9612,58.0
1891.7175,83.0
1892.4742,74.0
1893.2312,71.0
1893.9885,47.0
1894.7461,90.0
1895.504,91.0
1896.2622,65.0
1897.0208,100.0
1897.7795,93.0
1898.5387,95.0
1899.2981,61.0
1900.0579,75.0
1900.8179,67.0
1901.5782,71.0
1902.3389,60.0
1903.0999,78.0
1903.8611,72.0
1904.6227,68.0
1905.3845,76.0
1906.1467,64.0
1906.9092,62.0
1907.672,77.0
1908.435,58.0
1909.1985,63.0
1909.9622,54.0
1910.7262,73.0
1911.4905,71.0
1912.2551,77.0
1913.02,88.0
1913.7853,268.0
1914.5508,234.0
1915.3167,159.0
1916.0828,174.0
1916.8492,126.0
1917.616,104.0
1918.383,72.0
1919.1504,68.0
1919.9181,59.0
1920.686,75.0
1921.4543,60.0
1922.2229,72.0
1922.9918,58.0
1923.761,80.0
1924.5305,70.0
1925.3003,57.0
1926.0704,68.0
1926.8408,73.0
1927.6116,69.0
1928.3826,60.0
1929.1539,63.0
1929.9255,95.0
1930.6975,77.0
1931.4698,45.0
1932.2424,63.0
1933.0154,72.0
1933.7886,69.0
1934.5621,74.0
1935.3359,53.0
1936.1101,73.0
1936.8845,81.0
1937.6593,101.0
1938.4343,75.0
1939.2097,62.0
1939.9854,81.0
1940.7614,83.0
1941.5376,81.0
1942.3142,70.0
1943.0912,57.0
1943.8684,71.0
1944.646,69.0
1945.4238,72.0
1946.202,61.0
1946.9805,65.0
1947.7593,65.0
1948.5383,65.0
1949.3177,68.0
1950.0975,64.0
1950.8776,67.0
1951.658,83.0
1952.4386,69.0
1953.2196,78.0
1954.0009,69.0
1954.7825,80.0
1955.5643,80.0
1956.3466,79.0
1957.1292,56.0
1957.912,66.0
1958.6952,68.0
1959.4786,76.0
1960.2625,55.0
1961.0465,51.0
1961.8309,62.0
1962.6157,60.0
1963.4008,75.0
1964.1862,55.0
1964.9718,63.0
1965.7578,79.0
1966.5441,63.0
1967.3307,66.0
1968.1177,61.0
1968.9049,80.0
1969.6925,79.0
1970.4803,111.0
1971.2686,95.0
1972.057,110.0
1972.8458,109.0
1973.635,72.0
1974.4244,65.0
1975.2142,57.0
1976.0043,70.0
1976.7947,76.0
1977.5854,83.0
1978.3765,64.0
1979.1678,47.0
1979.9595,68.0
1980.7515,55.0
1981.5438,66.0
1982.3364,46.0
1983.1294,60.0
1983.9226,65.0
1984.7162,91.0
1985.5101,80.0
1986.3043,68.0
1987.0989,65.0
1987.8937,68.0
1988.6888,66.0
1989.4844,58.0
1990.2802,65.0
1991.0763,62.0
1991.8727,72.0
1992.6694,63.0
1993.4666,100.0
1994.2639,85.0
1995.0616,67.0
1995.8596,80.0
1996.658,75.0
1997.4567,57.0
1998.2556,60.0
1999.0549,73.0
1999.8546,85.0
2000.6545,63.0
2001.4548,68.0
2002.2554,56.0
2003.0563,55.0
2003.8575,67.0
2004.659,73.0
2005.4609,60.0
2006.2631,65.0
2007.0656,56.0
2007.8684,61.0
2008.6715,84.0
2009.475,74.0
2010.2788,88.0
2011.0829,79.0
2011.8873,134.0
2012.6921,90.0
2013.4972,72.0
2014.3026,77.0
2015.1083,67.0
2015.9143,73.0
2016.7207,82.0
2017.5273,63.0
2018.3344,48.0
2019.1417,49.0
2019.9493,70.0
2020.7573,77.0
2021.5657,61.0
2022.3743,70.0
2023.1832,54.0
2023.9926,64.0
2024.8021,73.0
2025.612,62.0
2026.4224,87.0
2027.2329,71.0
2028.0438,52.0
2028.855,88.0
2029.6665,85.0
2030.4784,71.0
2031.2905,65.0
2032.103,68.0
2032.9159,49.0
2033.729,77.0
2034.5425,84.0
2035.3563,68.0
2036.1704,77.0
2036.9849,69.0
2037.7997,46.0
2038.6147,78.0
2039.4302,72.0
2040.246,73.0
2041.062,60.0
2041.8784,75.0
2042.6952,76.0
2043.5123,76.0
2044.3297,56.0
2045.1475,69.0
2045.9656,66.0
2046.7839,79.0
2047.6027,79.0
2048.4216,57.0
2049.241,52.0
2050.0605,59.0
2050.8806,81.0
2051.701,66.0
2052.5217,74.0
2053.3428,64.0
2054.164,67.0
2054.9858,61.0
2055.8079,84.0
2056.6301,74.0
2057.453,70.0
2058.276,44.0
2059.099,63.0
2059.9229,52.0
2060.7468,68.0
2061.571,59.0
2062.3958,66.0
2063.2207,58.0
2064.046,63.0
2064.8716,76.0
2065.6975,61.0
2066.5237,66.0
2067.3503,72.0
2068.1772,65.0
2069.0046,64.0
2069.8323,68.0
2070.6602,70.0
2071.4885,58.0
2072.3171,61.0
2073.146,56.0
2073.9753,58.0
2074.805,57.0
2075.6348,66.0
2076.465,64.0
2077.2957,56.0
2078.1265,70.0
2078.9578,55.0
2079.7893,73.0
2080.6213,78.0
2081.4536,52.0
2082.2861,72.0
2083.1191,81.0
2083.9524,93.0
2084.786,97.0
2085.6199,66.0
2086.454,58.0
2087.2886,65.0
2088.1235,65.0
2088.9587,59.0
2089.7944,50.0
2090.6304,73.0
2091.4666,71.0
2092.3032,64.0
2093.1401,58.0
2093.9773,71.0
2094.815,68.0
2095.6528,65.0
2096.4912,57.0
2097.3298,76.0
2098.1687,56.0
2099.008,69.0
2099.8477,55.0
2100.6875,67.0
2101.5278,46.0
2102.3684,60.0
2103.2095,66.0
2104.0508,63.0
2104.8923,74.0
2105.7344,59.0
2106.5767,69.0
2107.4192,57.0
2108.2622,77.0
2109.1055,71.0
2109.9492,73.0
2110.7932,51.0
2111.6375,66.0
2112.4822,67.0
2113.3271,72.0
2114.1724,64.0
2115.018,61.0
2115.864,50.0
2116.7104,71.0
2117.5571,69.0
2118.404,59.0
2119.2515,58.0
2120.099,63.0
2120.9473,54.0
2121.7957,62.0
2122.6443,66.0
2123.4934,69.0
2124.3428,68.0
2125.1926,74.0
2126.0427,60.0
2126.893,75.0
2127.744,81.0
2128.595,68.0
2129.4463,47.0
2130.298,58.0
2131.1501,55.0
2132.0027,68.0
2132.8555,75.0
2133.7085,71.0
2134.562,67.0
2135.4158,74.0
2136.27,64.0
2137.1245,60.0
2137.9792,66.0
2138.8345,72.0
2139.69,68.0
2140.546,67.0
2141.402,82.0
2142.2585,96.0
2143.1155,111.0
2143.9727,115.0
2144.8303,69.0
2145.6882,62.0
2146.5464,63.0
2147.405,69.0
2148.264,68.0
2149.1233,56.0
2149.983,68.0
2150.843,82.0
2151.7034,72.0
2152.564,78.0
2153.425,50.0
2154.2864,60.0
2155.1482,70.0
2156.0103,70.0
2156.8726,71.0
2157.7354,73.0
2158.5984,74.0
2159.462,77.0
2160.3257,68.0
2161.1897,65.0
2162.0542,88.0
2162.919,77.0
2163.7842,81.0
2164.6497,92.0
2165.5156,84.0
2166.3818,52.0
2167.2483,80.0
2168.1152,84.0
2168.9824,81.0
2169.85,87.0
2170.718,50.0
2171.5864,71.0
2172.455,65.0
2173.324,49.0
2174.1934,68.0
2175.063,58.0
2175.933,67.0
2176.8035,68.0
2177.674,60.0
2178.5452,65.0
2179.4165,66.0
2180.2883,67.0
2181.1604,83.0
2182.033,73.0
2182.9058,66.0
2183.7788,60.0
2184.6523,65.0
2185.5261,74.0
2186.4004,82.0
2187.275,70.0
2188.15,63.0
2189.0251,64.0
2189.9006,74.0
2190.7766,62.0
2191.6528,78.0
2192.5295,66.0
2193.4065,68.0
2194.284,82.0
2195.1616,87.0
2196.0398,87.0
2196.9182,79.0
2197.7969,70.0
2198.676,81.0
2199.5554,62.0
2200.4353,65.0
2201.3154,67.0
2202.196,60.0
2203.077,66.0
2203.9583,84.0
2204.8398,77.0
2205.7217,62.0
2206.604,84.0
2207.4866,66.0
2208.3696,63.0
2209.253,60.0
2210.1367,72.0
2211.0208,81.0
2211.9053,69.0
2212.79,71.0
2213.675,81.0
2214.5605,74.0
2215.4463,82.0
2216.3325,90.0
2217.219,77.0
2218.106,79.0
2218.9932,71.0
2219.8809,62.0
2220.7688,78.0
2221.6572,75.0
2222.546,76.0
2223.4348,63.0
2224.3242,61.0
2225.2139,72.0
2226.104,68.0
2226.9944,58.0
2227.8853,58.0
2228.7764,73.0
2229.668,61.0
2230.5598,66.0
2231.4521,66.0
2232.3447,78.0
2233.2375,80.0
2234.1309,82.0
2235.0244,96.0
2235.9185,68.0
2236.8127,58.0
2237.7075,64.0
2238.6025,69.0
2239.498,60.0
2240.3938,66.0
2241.29,48.0
2242.1865,62.0
2243.0835,58.0
2243.9807,75.0
2244.8784,64.0
2245.7764,73.0
2246.6746,62.0
2247.5732,71.0
2248.4722,77.0
2249.3716,68.0
2250.2712,87.0
2251.1714,66.0
2252.0718,73.0
2252.9727,62.0
2253.8738,73.0
2254.7754,98.0
2255.6772,57.0
2256.5796,69.0
2257.4822,76.0
2258.3853,87.0
2259.2886,74.0
2260.1924,85.0
2261.0964,86.0
2262.001,82.0
2262.9058,69.0
2263.811,75.0
2264.7166,75.0
2265.6226,67.0
2266.5288,70.0
2267.4353,66.0
2268.3423,64.0
2269.2495,63.0
2270.1572,47.0
2271.0652,65.0
2271.9736,62.0
2272.8823,85.0
2273.7915,100.0
2274.701,77.0
2275.6108,110.0
2276.521,125.0
2277.4316,113.0
2278.3425,105.0
2279.254,89.0
2280.1655,78.0
2281.0776,70.0
2281.99,81.0
2282.9028,86.0
2283.816,84.0
2284.7295,84.0
2285.6433,72.0
2286.5576,53.0
2287.4722,71.0
2288.3872,63.0
2289.3025,55.0
2290.2183,55.0
2291.1343,60.0
2292.0508,88.0
2292.9675,91.0
2293.8848,105.0
2294.8022,86.0
2295.7202,86.0
2296.6384,81.0
2297.5571,83.0
2298.476,92.0
2299.3955,68.0
2300.3152,84.0
2301.2354,77.0
2302.1558,80.0
2303.0767,92.0
2303.9978,89.0
2304.9194,81.0
2305.8413,66.0
2306.7637,76.0
2307.6863,60.0
2308.6094,86.0
2309.5327,80.0
2310.4565,84.0
2311.3806,71.0
2312.3052,83.0
2313.23,75.0
2314.1553,73.0
2315.081,75.0
2316.007,75.0
2316.9336,74.0
2317.8604,69.0
2318.7876,104.0
2319.715,122.0
2320.643,120.0
2321.5713,87.0
2322.5,77.0
2323.429,76.0
2324.3584,81.0
2325.288,101.0
2326.2183,85.0
2327.1487,80.0
2328.0796,74.0
2329.0107,84.0
2329.9424,85.0
2330.8743,81.0
2331.8066,72.0
2332.7393,75.0
2333.6724,69.0
2334.6057,64.0
2335.5396,73.0
2336.4739,72.0
2337.4084,77.0
2338.3435,75.0
2339.2788,71.0
2340.2146,72.0
2341.1506,81.0
2342.0872,73.0
2343.024,81.0
2343.9612,83.0
2344.8987,105.0
2345.8367,119.0
2346.775,115.0
2347.7136,86.0
2348.6526,86.0
2349.592,90.0
2350.532,74.0
2351.4722,81.0
2352.4128,82.0
2353.3538,68.0
2354.2952,78.0
2355.2368,75.0
2356.179,87.0
2357.1213,87.0
2358.0642,82.0
2359.0073,82.0
2359.951,80.0
2360.895,85.0
2361.8394,95.0
2362.7842,81.0
2363.7292,74.0
2364.6748,82.0
2365.6206,81.0
2366.567,86.0
2367.5134,84.0
2368.4604,65.0
2369.4077,93.0
2370.3555,87.0
2371.3037,78.0
2372.2522,70.0
2373.2012,86.0
2374.1504,76.0
2375.1,65.0
2376.05,70.0
2377.0005,82.0
2377.9512,72.0
2378.9023,77.0
2379.854,101.0
2380.806,68.0
2381.7583,62.0
2382.711,69.0
2383.664,78.0
2384.6174,86.0
2385.5713,85.0
2386.5256,74.0
2387.4802,83.0
2388.4353,99.0
2389.3906,90.0
2390.3464,86.0
2391.3025,76.0
2392.259,71.0
2393.2158,66.0
2394.173,74.0
2395.1309,74.0
2396.0889,74.0
2397.0474,81.0
2398.006,78.0
2398.9653,70.0
2399.9248,52.0
2400.8848,71.0
2401.8452,70.0
2402.806,67.0
2403.767,61.0
2404.7285,83.0
2405.6904,82.0
2406.6526,67.0
2407.6152,71.0
2408.5784,70.0
2409.5417,66.0
2410.5056,76.0
2411.4697,68.0
2412.4343,64.0
2413.3994,78.0
2414.3647,101.0
2415.3306,71.0
2416.2966,68.0
2417.2632,77.0
2418.23,58.0
2419.1973,61.0
2420.165,73.0
2421.133,89.0
2422.1016,67.0
2423.0703,73.0
2424.0396,89.0
2425.0093,71.0
2425.9792,85.0
2426.9497,78.0
2427.9204,68.0
2428.8916,60.0
2429.863,62.0
2430.835,85.0
2431.8074,84.0
2432.78,91.0
2433.7532,79.0
2434.7266,62.0
2435.7004,84.0
2436.6748,86.0
2437.6494,72.0
2438.6245,70.0
2439.5999,62.0
2440.5757,64.0
2441.552,55.0
2442.5286,51.0
2443.5056,76.0
2444.483,76.0
2445.4607,66.0
2446.439,67.0
2447.4175,90.0
2448.3965,89.0
2449.3757,75.0
2450.3555,88.0
2451.3357,76.0
2452.3162,77.0
2453.297,65.0
2454.2783,67.0
2455.26,67.0
2456.2422,82.0
2457.2246,71.0
2458.2075,61.0
2459.191,72.0
2460.1746,61.0
2461.1587,56.0
2462.143,83.0
2463.128,70.0
2464.1133,70.0
2465.0989,88.0
2466.085,90.0
2467.0713,89.0
2468.058,78.0
2469.0454,63.0
2470.033,66.0
2471.021,66.0
2472.0095,54.0
2472.9983,65.0
2473.9875,65.0
2474.977,67.0
2475.967,68.0
2476.9575,71.0
2477.9482,69.0
2478.9395,76.0
2479.931,76.0
2480.9229,80.0
2481.9153,80.0
2482.908,87.0
2483.9011,72.0
2484.8948,68.0
2485.8887,89.0
2486.883,73.0
2487.878,79.0
2488.873,70.0
2489.8687,62.0
2490.8645,68.0
2491.8608,67.0
2492.8577,70.0
2493.8547,85.0
2494.8523,71.0
2495.8503,70.0
2496.8486,65.0
2497.8474,88.0
2498.8464,92.0
2499.846,86.0
2500.846,79.0
2501.8462,68.0
2502.847,52.0
2503.8481,86.0
2504.8496,85.0
2505.8516,63.0
2506.854,65.0
2507.8567,73.0
2508.8599,65.0
2509.8635,62.0
2510.8674,81.0
2511.8718,90.0
2512.8765,78.0
2513.8816,69.0
2514.8872,87.0
2515.893,84.0
2516.8994,65.0
2517.9062,68.0
2518.9133,72.0
2519.921,92.0
2520.929,80.0
2521.9373,69.0
2522.946,61.0
2523.9553,76.0
2524.9648,59.0
2525.9749,63.0
2526.9854,66.0
2527.996,62.0
2529.0073,66.0
2530.019,71.0
2531.031,70.0
2532.0435,69.0
2533.0562,84.0
2534.0693,74.0
2535.083,87.0
2536.097,70.0
2537.1113,83.0
2538.1262,68.0
2539.1414,68.0
2540.157,71.0
2541.173,68.0
2542.1895,68.0
2543.2063,58.0
2544.2236,75.0
2545.2412,77.0
2546.2593,72.0
2547.2778,78.0
2548.2966,78.0
2549.316,76.0
2550.3357,79.0
2551.3557,87.0
2552.3762,92.0
2553.3972,71.0
2554.4185,62.0
2555.4402,76.0
2556.4624,80.0
2557.485,66.0
2558.508,61.0
2559.5315,89.0
2560.5554,58.0
2561.5796,90.0
2562.6042,82.0
2563.6294,106.0
2564.6548,85.0
2565.6807,100.0
2566.707,68.0
2567.7336,83.0
2568.7607,61.0
2569.7883,70.0
2570.8162,74.0
2571.8445,68.0
2572.8733,72.0
2573.9023,68.0
2574.932,74.0
2575.962,68.0
2576.9922,78.0
2578.023,87.0
2579.0542,79.0
2580.086,82.0
2581.118,74.0
2582.1504,84.0
2583.1833,63.0
2584.2166,69.0
2585.2502,64.0
2586.2844,59.0
2587.3188,73.0
2588.3538,93.0
2589.3892,72.0
2590.4248,78.0
2591.461,84.0
2592.4976,81.0
2593.5347,109.0
2594.572,94.0
2595.6099,84.0
2596.6482,57.0
2597.6868,72.0
2598.7258,75.0
2599.7654,77.0
2600.8052,81.0
2601.8455,84.0
2602.8862,84.0
2603.9275,62.0
2604.969,86.0
2606.011,67.0
2607.0535,90.0
2608.0962,82.0
2609.1394,77.0
2610.183,95.0
2611.2273,73.0
2612.2717,91.0
2613.3167,84.0
2614.362,77.0
2615.4077,66.0
2616.4539,69.0
2617.5005,76.0
2618.5476,66.0
2619.595,95.0
2620.6428,77.0
2621.6912,89.0
2622.7397,80.0
2623.7888,79.0
2624.8384,92.0
2625.8884,68.0
2626.9387,69.0
2627.9895,85.0
2629.0408,92.0
2630.0923,90.0
2631.1443,86.0
2632.1968,69.0
2633.2498,78.0
2634.303,91.0
2635.3567,81.0
2636.411,90.0
2637.4653,82.0
2638.5203,80.0
2639.5757,89.0
2640.6316,82.0
2641.6877,83.0
2642.7444,60.0
2643.8015,80.0
2644.8591,77.0
2645.917,93.0
2646.9753,91.0
2648.0342,99.0
2649.0935,111.0
2650.153,86.0
2651.2131,83.0
2652.2737,73.0
2653.3345,86.0
2654.3958,84.0
2655.4575,59.0
2656.5198,64.0
2657.5823,67.0
2658.6453,84.0
2659.7087,73.0
2660.7727,78.0
2661.837,91.0
2662.9016,85.0
2663.9668,112.0
2665.0325,167.0
2666.0984,148.0
2667.1648,117.0
2668.2317,105.0
2669.299,88.0
2670.3667,90.0
2671.4348,78.0
2672.5034,74.0
2673.5725,78.0
2674.6418,79.0
2675.7117,75.0
2676.782,73.0
2677.8528,72.0
2678.9238,87.0
2679.9954,67.0
2681.0674,89.0
2682.14,92.0
2683.2126,79.0
2684.286,79.0
2685.3596,58.0
2686.4338,86.0
2687.5083,74.0
2688.5833,69.0
2689.6587,76.0
2690.7346,74.0
2691.8108,84.0
2692.8875,103.0
2693.9646,95.0
2695.0422,101.0
2696.1204,74.0
2697.1987,78.0
2698.2776,70.0
2699.357,85.0
2700.4368,92.0
2701.5168,70.0
2702.5974,77.0
2703.6785,82.0
2704.76,83.0
2705.8418,66.0
2706.924,93.0
2708.0068,78.0
2709.09,88.0
2710.1738,77.0
2711.2578,72.0
2712.3423,89.0
2713.4272,88.0
2714.5127,94.0
2715.5984,78.0
2716.6846,90.0
2717.7712,63.0
2718.8584,64.0
2719.946,93.0
2721.034,75.0
2722.1223,78.0
2723.2112,104.0
2724.3005,106.0
2725.3901,84.0
2726.4802,68.0
2727.5708,80.0
2728.6619,59.0
2729.7534,95.0
2730.8452,85.0
2731.9375,94.0
2733.0303,89.0
2734.1235,108.0
2735.2173,136.0
2736.3113,156.0
2737.4058,120.0
2738.5007,96.0
2739.5962,73.0
2740.6921,71.0
2741.7883,83.0
2742.885,74.0
2743.9822,82.0
2745.0798,68.0
2746.178,88.0
2747.2764,93.0
2748.3752,88.0
2749.4746,95.0
2750.5745,94.0
2751.6748,85.0
2752.7754,83.0
2753.8765,80.0
2754.978,73.0
2756.08,59.0
2757.1826,64.0
2758.2854,68.0
2759.3887,94.0
2760.4924,65.0
2761.5967,94.0
2762.7014,93.0
2763.8064,94.0
2764.9119,84.0
2766.0178,73.0
2767.1243,62.0
2768.2312,66.0
2769.3384,75.0
2770.446,75.0
2771.5542,63.0
2772.6628,80.0
2773.772,79.0
2774.8816,74.0
2775.9915,88.0
2777.1018,103.0
2778.2126,86.0
2779.324,101.0
2780.4358,89.0
2781.5479,84.0
2782.6604,76.0
2783.7734,71.0
2784.887,82.0
2786.001,88.0
2787.1155,74.0
2788.2302,74.0
2789.3455,76.0
2790.4612,69.0
2791.5774,126.0
2792.694,167.0
2793.8113,221.0
2794.9287,251.0
2796.0466,205.0
2797.165,150.0
2798.284,141.0
2799.4033,147.0
2800.5232,123.0
2801.6433,109.0
2802.764,95.0
2803.885,127.0
2805.0066,111.0
2806.1287,141.0
2807.2512,170.0
2808.374,219.0
2809.4973,159.0
2810.621,143.0
2811.7454,122.0
2812.87,118.0
2813.9954,138.0
2815.1208,143.0
2816.2468,150.0
2817.3733,153.0
2818.5002,124.0
2819.6277,131.0
2820.7556,123.0
2821.884,107.0
2823.0127,124.0
2824.1418,114.0
2825.2715,121.0
2826.4016,121.0
2827.5322,110.0
2828.6633,128.0
2829.7947,127.0
2830.9265,139.0
2832.0588,139.0
2833.1917,136.0
2834.325,140.0
2835.4587,114.0
2836.593,145.0
2837.7275,122.0
2838.8625,118.0
2839.998,101.0
2841.134,119.0
2842.2705,88.0
2843.4075,115.0
2844.545,129.0
2845.6829,139.0
2846.821,161.0
2847.9597,159.0
2849.0989,164.0
2850.2385,144.0
2851.3787,141.0
2852.5193,175.0
2853.6604,131.0
2854.8018,118.0
2855.9436,123.0
2857.086,139.0
2858.2288,135.0
2859.372,148.0
2860.5159,135.0
2861.6602,128.0
2862.805,117.0
2863.95,118.0
2865.0955,162.0
2866.2415,194.0
2867.388,176.0
2868.535,147.0
2869.6824,134.0
2870.8303,147.0
2871.9788,155.0
2873.1274,138.0
2874.2766,141.0
2875.4263,138.0
2876.5764,127.0
2877.727,144.0
2878.8782,125.0
2880.0298,132.0
2881.182,129.0
2882.3345,142.0
2883.4873,123.0
2884.6406,115.0
2885.7944,103.0
2886.9487,167.0
2888.1035,199.0
2889.2588,209.0
2890.4146,217.0
2891.5708,231.0
2892.7275,184.0
2893.8845,166.0
2895.042,125.0
2896.2,112.0
2897.3584,136.0
2898.5173,108.0
2899.6768,93.0
2900.8367,131.0
2901.997,103.0
2903.158,115.0
2904.3193,128.0
2905.481,118.0
2906.643,157.0
2907.8057,242.0
2908.9688,316.0
2910.1323,261.0
2911.2964,238.0
2912.461,171.0
2913.626,137.0
2914.7915,123.0
2915.9575,124.0
2917.124,106.0
2918.2908,103.0
2919.458,119.0
2920.6257,118.0
2921.794,162.0
2922.9626,203.0
2924.1318,179.0
2925.3015,189.0
2926.4717,149.0
2927.6423,136.0
2928.8135,129.0
2929.985,132.0
2931.157,147.0
2932.3293,128.0
2933.5022,153.0
2934.6755,139.0
2935.8494,141.0
2937.0237,101.0
2938.1985,127.0
2939.3738,136.0
2940.5496,149.0
2941.7258,148.0
2942.9026,127.0
2944.0798,137.0
2945.2576,132.0
2946.4358,131.0
2947.6143,142.0
2948.7932,160.0
2949.9727,131.0
2951.1526,142.0
2952.333,137.0
2953.514,121.0
2954.6953,106.0
2955.8772,107.0
2957.0596,105.0
2958.2424,127.0
2959.4258,133.0
2960.6096,144.0
2961.794,98.0
2962.9788,101.0
2964.164,127.0
2965.3496,126.0
2966.5356,131.0
2967.7222,120.0
2968.9092,120.0
2970.0967,108.0
2971.2847,131.0
2972.4731,124.0
2973.662,139.0
2974.8516,117.0
2976.0415,136.0
2977.232,143.0
2978.4229,120.0
2979.6143,122.0
2980.8062,95.0
2981.9985,125.0
2983.1914,123.0
2984.3848,103.0
2985.5786,119.0
2986.773,112.0
2987.9678,118.0
2989.1628,124.0
2990.3584,110.0
2991.5544,107.0
2992.751,126.0
2993.948,110.0
2995.1455,119.0
2996.3435,136.0
2997.542,132.0
2998.741,123.0
2999.9404,103.0
3001.1404,132.0
3002.3408,135.0
3003.5417,124.0
3004.7432,105.0
3005.945,127.0
3007.1475,117.0
3008.3503,120.0
3009.5537,146.0
3010.7576,132.0
3011.962,110.0
3013.1667,132.0
3014.372,112.0
3015.578,132.0
3016.7842,117.0
3017.991,105.0
3019.1982,118.0
3020.406,141.0
3021.6143,119.0
3022.823,128.0
3024.0322,111.0
3025.242,144.0
3026.4521,136.0
3027.6628,130.0
3028.874,122.0
3030.0857,123.0
3031.2976,139.0
3032.51,106.0
3033.723,136.0
3034.9363,98.0
3036.1501,119.0
3037.3645,145.0
3038.5793,138.0
3039.7947,115.0
3041.0105,128.0
3042.2268,111.0
3043.4436,138.0
3044.661,139.0
3045.8787,103.0
3047.097,125.0
3048.3157,130.0
3049.535,129.0
3050.7546,126.0
3051.9749,123.0
3053.1956,142.0
3054.4167,128.0
3055.6384,133.0
3056.8606,111.0
3058.0833,115.0
3059.3064,118.0
3060.53,131.0
3061.7542,137.0
3062.9788,121.0
3064.2039,145.0
3065.4294,126.0
3066.6555,135.0
3067.882,119.0
3069.1091,142.0
3070.3367,138.0
3071.5647,116.0
3072.7932,129.0
3074.0222,109.0
3075.2517,117.0
3076.4817,140.0
3077.7124,149.0
3078.9436,129.0
3080.1753,109.0
3081.4075,116.0
3082.6401,127.0
3083.8733,127.0
3085.107,113.0
3086.341,140.0
3087.5757,136.0
3088.8108,113.0
3090.0464,106.0
3091.2825,125.0
3092.519,134.0
3093.756,151.0
3094.9937,147.0
3096.2317,134.0
3097.4702,136.0
3098.7092,106.0
3099.9487,115.0
3101.1887,103.0
3102.4292,101.0
3103.6702,132.0
3104.9116,118.0
3106.1536,99.0
3107.396,117.0
3108.639,127.0
3109.8823,137.0
3111.1262,161.0
3112.3706,163.0
3113.6155,144.0
3114.8608,120.0
3116.1067,119.0
3117.353,115.0
3118.5999,112.0
3119.8474,112.0
3121.0955,103.0
3122.344,126.0
3123.593,108.0
3124.8425,117.0
3126.0925,139.0
3127.343,142.0
3128.594,155.0
3129.8455,129.0
3131.0974,117.0
3132.3499,121.0
3133.6028,124.0
3134.8562,127.0
3136.11,124.0
3137.3645,140.0
3138.6194,112.0
3139.8748,125.0
3141.1306,106.0
3142.387,111.0
3143.6438,118.0
3144.9014,124.0
3146.1594,124.0
3147.418,132.0
3148.677,126.0
3149.9365,124.0
3151.1965,115.0
3152.457,124.0
3153.718,139.0
3154.9795,133.0
3156.2415,130.0
3157.504,114.0
3158.7668,121.0
3160.0303,96.0
3161.2942,127.0
3162.5586,95.0
3163.8237,105.0
3165.0894,93.0
3166.3555,113.0
3167.622,97.0
3168.8892,127.0
3170.1567,122.0
3171.4248,119.0
3172.6934,135.0
3173.9624,124.0
3175.232,125.0
3176.502,104.0
3177.7725,129.0
3179.0435,126.0
3180.3152,112.0
3181.5874,102.0
3182.86,103.0
3184.1333,127.0
3185.407,121.0
3186.6812,140.0
3187.9558,119.0
3189.231,134.0
3190.5066,112.0
3191.7827,102.0
3193.0593,121.0
3194.3367,123.0
3195.6145,139.0
3196.8928,146.0
3198.1716,115.0
3199.451,119.0
3200.7307,118.0
3202.011,109.0
3203.2917,125.0
3204.573,119.0
3205.8547,116.0
3207.137,88.0
3208.42,101.0
3209.7034,134.0
3210.9873,108.0
3212.2717,137.0
3213.5566,128.0
3214.842,129.0
3216.128,142.0
3217.4143,124.0
3218.7012,133.0
3219.9888,116.0
3221.2769,117.0
3222.5654,111.0
3223.8545,132.0
3225.144,131.0
3226.434,147.0
3227.7246,132.0
3229.0156,129.0
3230.3071,112.0
3231.5994,139.0
3232.892,107.0
3234.1853,126.0
3235.479,121.0
3236.7732,108.0
3238.0679,144.0
3239.363,139.0
3240.6587,144.0
3241.9548,132.0
3243.2517,125.0
3244.549,142.0
3245.847,103.0
3247.1453,104.0
3248.444,114.0
3249.7434,97.0
3251.0432,96.0
3252.3438,126.0
3253.6448,127.0
3254.9463,125.0
3256.2483,121.0
3257.5508,126.0
3258.8538,112.0
3260.1572,126.0
3261.4612,112.0
3262.7659,112.0
3264.071,90.0
3265.3767,127.0
3266.6829,136.0
3267.9895,119.0
3269.2966,121.0
3270.6042,147.0
3271.9126,132.0
3273.2214,141.0
3274.5308,121.0
3275.8406,111.0
3277.151,96.0
3278.4617,121.0
3279.773,137.0
3281.085,116.0
3282.3975,114.0
3283.7104,99.0
3285.024,116.0
3286.338,136.0
3287.6523,145.0
3288.9673,118.0
3290.283,112.0
3291.599,133.0
3292.9158,100.0
3294.233,129.0
3295.5505,113.0
3296.8687,122.0
3298.1875,106.0
3299.5068,123.0
3300.8267,136.0
3302.147,110.0
3303.4678,105.0
3304.789,132.0
3306.111,127.0
3307.4336,112.0
3308.7566,121.0
3310.08,112.0
3311.404,111.0
3312.7285,112.0
3314.0537,118.0
3315.3794,101.0
3316.7056,115.0
3318.0322,125.0
3319.3594,125.0
3320.687,105.0
3322.0154,110.0
3323.3442,140.0
3324.6736,125.0
3326.0034,121.0
3327.3337,129.0
3328.6648,104.0
3329.9963,121.0
3331.3284,111.0
3332.661,124.0
3333.994,128.0
3335.3274,115.0
3336.6616,122.0
3337.9963,124.0
3339.3315,160.0
3340.6672,123.0
3342.0034,147.0
3343.3403,123.0
3344.6777,110.0
3346.0156,107.0
3347.354,104.0
3348.6929,116.0
3350.0322,106.0
3351.3723,122.0
3352.713,134.0
3354.054,102.0
3355.3955,106.0
3356.7375,113.0
3358.0803,128.0
3359.4236,126.0
3360.7673,117.0
3362.1116,106.0
3363.4563,107.0
3364.8018,124.0
3366.1477,126.0
3367.4941,123.0
3368.841,140.0
3370.1887,129.0
3371.5369,137.0
3372.8855,116.0
3374.2346,128.0
3375.5842,130.0
3376.9346,125.0
3378.2854,118.0
3379.6367,139.0
3380.9885,135.0
3382.3408,114.0
3383.6938,128.0
3385.0474,115.0
3386.4014,142.0
3387.7559,116.0
3389.1108,140.0
3390.4666,113.0
3391.8228,118.0
3393.1794,120.0
3394.5366,121.0
3395.8945,133.0
3397.253,116.0
3398.6118,131.0
3399.9712,130.0
3401.3313,127.0
3402.692,130.0
3404.053,132.0
3405.4146,111.0
3406.7766,141.0
3408.1394,124.0
3409.5027,143.0
3410.8665,127.0
3412.2307,120.0
3413.5957,142.0
3414.9612,149.0
3416.3271,116.0
3417.6936,143.0
3419.0608,114.0
3420.4285,129.0
3421.7966,127.0
3423.1653,134.0
3424.5347,143.0
3425.9045,131.0
3427.275,133.0
3428.6458,142.0
3430.017,145.0
3431.3892,139.0
3432.7617,140.0
3434.1348,126.0
3435.5083,148.0
3436.8826,136.0
3438.2573,113.0
3439.6326,119.0
3441.0083,122.0
3442.3848,119.0
3443.7617,121.0
3445.1392,120.0
3446.5173,115.0
3447.896,123.0
3449.2751,119.0
3450.6548,118.0
3452.0352,148.0
3453.416,124.0
3454.7974,123.0
3456.1792,141.0
3457.5618,124.0
3458.9448,118.0
3460.3284,118.0
3461.7124,119.0
3463.0972,111.0
3464.4824,132.0
3465.8682,131.0
3467.2544,133.0
3468.6414,115.0
3470.0288,117.0
3471.4167,131.0
3472.8054,140.0
3474.1946,131.0
3475.5842,135.0
3476.9744,121.0
3478.3652,148.0
3479.7566,133.0
3481.1484,130.0
3482.541,127.0
3483.934,146.0
3485.3276,144.0
3486.7217,129.0
3488.1165,142.0
3489.5117,156.0
3490.9075,125.0
3492.304,133.0
3493.701,129.0
3495.0984,145.0
3496.4963,151.0
3497.895,142.0
3499.2942,145.0
3500.6938,153.0
3502.0942,142.0
3503.495,161.0
3504.8965,139.0
3506.2983,151.0
3507.701,148.0
3509.104,123.0
3510.5076,149.0
3511.9119,125.0
3513.3167,134.0
3514.722,153.0
3516.128,125.0
3517.5344,126.0
3518.9414,128.0
3520.3489,146.0
3521.757,170.0
3523.1658,171.0
3524.575,137.0
3525.9849,123.0
3527.3953,172.0
3528.8062,153.0
3530.2178,177.0
3531.63,206.0
3533.0425,154.0
3534.4558,145.0
3535.8696,130.0
3537.284,138.0
3538.6987,134.0
3540.1143,123.0
3541.5303,140.0
3542.9468,140.0
3544.364,139.0
3545.7817,132.0
3547.2,145.0
3548.619,127.0
3550.0383,140.0
3551.4583,130.0
3552.879,118.0
3554.3,125.0
3555.7217,132.0
3557.144,131.0
3558.567,155.0
3559.9902,141.0
3561.4143,120.0
3562.8389,158.0
3564.264,144.0
3565.6897,145.0
3567.116,118.0
3568.5427,137.0
3569.9702,148.0
3571.3982,178.0
3572.8267,161.0
3574.2559,168.0
3575.6855,151.0
3577.1157,162.0
3578.5466,132.0
3579.978,157.0
3581.41,165.0
3582.8425,144.0
3584.2756,146.0
3585.7092,165.0
3587.1436,163.0
3588.5784,165.0
3590.014,141.0
3591.45,165.0
3592.8865,177.0
3594.3237,164.0
3595.7615,158.0
3597.1997,156.0
3598.6387,184.0
3600.0781,186.0
3601.518,192.0
3602.9587,159.0
3604.4,176.0
3605.8416,158.0
3607.284,200.0
3608.7268,237.0
3610.1704,201.0
3611.6145,130.0
3613.059,141.0
3614.5044,155.0
3615.9502,217.0
3617.3965,286.0
3618.8435,229.0
3620.291,171.0
3621.739,136.0
3623.1877,149.0
3624.637,145.0
3626.087,138.0
3627.5374,141.0
3628.9883,161.0
3630.44,159.0
3631.892,133.0
3633.3447,145.0
3634.798,170.0
3636.252,157.0
3637.7065,191.0
3639.1616,135.0
3640.6172,159.0
3642.0735,171.0
3643.5303,159.0
3644.9878,154.0
3646.4458,197.0
3647.9043,151.0
3649.3635,142.0
3650.8232,162.0
3652.2837,151.0
3653.7446,133.0
3655.206,144.0
3656.6682,169.0
3658.1309,149.0
3659.594,161.0
3661.0579,142.0
3662.5222,154.0
3663.9873,150.0
3665.453,147.0
3666.919,177.0
3668.3857,145.0
3669.853,162.0
3671.321,147.0
3672.7896,126.0
3674.2585,154.0
3675.7283,182.0
3677.1985,194.0
3678.6694,192.0
3680.1409,195.0
3681.613,164.0
3683.0857,144.0
3684.5588,156.0
3686.0327,147.0
3687.507,155.0
3688.9822,150.0
3690.4578,150.0
3691.9338,151.0
3693.4106,153.0
3694.888,169.0
3696.366,161.0
3697.8445,168.0
3699.3237,195.0
3700.8035,150.0
3702.2837,153.0
3703.7646,150.0
3705.246,134.0
3706.7283,152.0
3708.211,156.0
3709.6943,210.0
3711.1782,180.0
3712.6626,162.0
3714.1477,161.0
3715.6333,161.0
3717.1196,177.0
3718.6064,182.0
3720.094,175.0
3721.582,143.0
3723.0706,157.0
3724.5598,152.0
3726.0496,160.0
3727.54,151.0
3729.031,167.0
3730.5227,151.0
3732.015,141.0
3733.5078,200.0
3735.0012,205.0
3736.495,220.0
3737.9897,183.0
3739.4849,160.0
3740.9807,161.0
3742.477,183.0
3743.974,199.0
3745.4717,171.0
3746.97,186.0
3748.4688,173.0
3749.968,258.0
3751.468,430.0
3752.9685,489.0
3754.4697,319.0
3755.9714,206.0
3757.4739,179.0
3758.9768,229.0
3760.4805,160.0
3761.9846,178.0
3763.4895,159.0
3764.9949,205.0
3766.501,216.0
3768.0076,232.0
3769.515,189.0
3771.0227,194.0
3772.531,171.0
3774.04,195.0
3775.5496,228.0
3777.0598,171.0
3778.5706,171.0
3780.082,185.0
3781.594,209.0
3783.1067,252.0
3784.6199,208.0
3786.1338,193.0
3787.6482,199.0
3789.1633,167.0
3790.679,177.0
3792.1953,171.0
3793.7122,161.0
3795.2297,162.0
3796.7478,187.0
3798.2666,179.0
3799.786,218.0
3801.306,187.0
3802.8264,167.0
3804.3477,146.0
3805.8694,194.0
3807.3918,192.0
3808.9148,185.0
3810.4385,193.0
3811.9626,188.0
3813.4875,188.0
3815.013,210.0
3816.539,240.0
3818.0657,208.0
3819.593,202.0
3821.1208,181.0
3822.6494,177.0
3824.1785,195.0
3825.7083,186.0
3827.2385,146.0
3828.7695,191.0
3830.301,192.0
3831.8333,173.0
3833.366,200.0
3834.8994,206.0
3836.4333,183.0
3837.968,186.0
3839.5032,181.0
3841.039,207.0
3842.5754,154.0
3844.1125,199.0
3845.6501,191.0
3847.1885,236.0
3848.7273,246.0
3850.2668,235.0
3851.807,227.0
3853.3477,191.0
3854.889,194.0
3856.431,177.0
3857.9734,181.0
3859.5166,194.0
3861.0603,183.0
3862.6047,171.0
3864.1497,198.0
3865.6953,188.0
3867.2417,213.0
3868.7886,195.0
3870.3362,194.0
3871.8843,216.0
3873.433,212.0
3874.9824,195.0
3876.5325,190.0
3878.083,193.0
3879.6343,186.0
3881.186,200.0
3882.7385,230.0
3884.2915,189.0
3885.8452,185.0
3887.3997,198.0
3888.9546,162.0
3890.5103,180.0
3892.0664,190.0
3893.6233,156.0
3895.1807,166.0
3896.7388,193.0
3898.2974,186.0
3899.8567,209.0
3901.4167,258.0
3902.9773,236.0
3904.5386,201.0
3906.1003,202.0
3907.6628,210.0
3909.2258,164.0
3910.7896,196.0
3912.3538,168.0
3913.9187,210.0
3915.4844,218.0
3917.0505,232.0
3918.6174,196.0
3920.1848,216.0
3921.753,167.0
3923.3215,210.0
3924.8909,193.0
3926.461,178.0
3928.0315,158.0
3929.6028,164.0
3931.1746,169.0
3932.747,198.0
3934.32,178.0
3935.8938,184.0
3937.4683,164.0
3939.0432,156.0
3940.619,176.0
3942.195,192.0
3943.772,193.0
3945.3494,195.0
3946.9275,179.0
3948.5063,164.0
3950.0857,219.0
3951.6658,184.0
3953.2463,174.0
3954.8276,195.0
3956.4097,162.0
3957.9922,161.0
3959.5754,216.0
3961.1592,170.0
3962.7437,159.0
3964.3289,159.0
3965.9146,179.0
3967.501,164.0
3969.088,161.0
3970.6755,145.0
3972.264,188.0
3973.8528,185.0
3975.4424,180.0
3977.0325,166.0
3978.6233,156.0
3980.2148,191.0
3981.807,180.0
3983.3997,150.0
3984.993,200.0
3986.587,168.0
3988.1816,165.0
3989.7769,150.0
3991.3728,181.0
3992.9692,181.0
3994.5664,205.0
3996.1643,187.0
3997.7627,179.0
3999.3618,177.0
4000.9617,178.0
4002.562,205.0
4004.163,190.0
4005.7646,209.0
4007.367,163.0
4008.97,184.0
4010.5735,189.0
4012.1777,200.0
4013.7827,199.0
4015.3882,212.0
4016.9944,196.0
4018.601,185.0
4020.2085,215.0
4021.8167,208.0
4023.4253,199.0
4025.0347,209.0
4026.6448,177.0
4028.2554,203.0
4029.8667,195.0
4031.4788,198.0
4033.0913,182.0
4034.7046,198.0
4036.3184,230.0
4037.9329,232.0
4039.548,258.0
4041.1638,237.0
4042.7803,279.0
4044.3975,243.0
4046.0151,217.0
4047.6335,229.0
4049.2527,248.0
4050.8723,373.0
4052.4927,340.0
4054.1138,313.0
4055.7354,247.0
4057.3577,249.0
4058.9807,364.0
4060.6042,417.0
4062.2285,368.0
4063.8535,292.0
4065.479,294.0
4067.1052,331.0
4068.7322,354.0
4070.3596,360.0
4071.9878,479.0
4073.6167,461.0
4075.246,376.0
4076.8762,363.0
4078.507,368.0
4080.1384,430.0
4081.7705,506.0
4083.4033,495.0
4085.0366,617.0
4086.6707,629.0
4088.3054,512.0
4089.9407,363.0
4091.5767,396.0
4093.2134,855.0
4094.8506,1314.0
4096.489,833.0
4098.1274,417.0
4099.7666,341.0
4101.4067,926.0
4103.0474,2483.0
4104.6885,2040.0
4106.3306,904.0
4107.973,476.0
4109.616,376.0
4111.2603,334.0
4112.905,414.0
4114.55,631.0
4116.196,518.0
4117.8423,323.0
4119.4893,257.0
4121.137,244.0
4122.7856,313.0
4124.4346,302.0
4126.0845,291.0
4127.735,258.0
4129.3857,228.0
4131.0376,209.0
4132.69,211.0
4134.343,228.0
4135.9966,219.0
4137.651,224.0
4139.306,210.0
4140.962,184.0
4142.618,197.0
4144.2754,209.0
4145.933,225.0
4147.5913,214.0
4149.2505,193.0
4150.91,192.0
4152.5703,244.0
4154.2314,206.0
4155.893,211.0
4157.5557,227.0
4159.2188,189.0
4160.8823,195.0
4162.547,214.0
4164.212,231.0
4165.8774,236.0
4167.544,244.0
4169.211,222.0
4170.8784,236.0
4172.547,232.0
4174.216,238.0
4175.8857,292.0
4177.556,254.0
4179.227,233.0
4180.899,194.0
4182.5713,218.0
4184.244,207.0
4185.918,228.0
4187.5923,265.0
4189.267,242.0
4190.943,222.0
4192.619,210.0
4194.2964,229.0
4195.974,213.0
4197.6523,311.0
4199.3315,247.0
4201.011,218.0
4202.6914,221.0
4204.3726,266.0
4206.054,204.0
4207.737,226.0
4209.42,199.0
4211.1035,231.0
4212.788,198.0
4214.473,205.0
4216.1587,220.0
4217.845,224.0
4219.532,242.0
4221.22,226.0
4222.9087,234.0
4224.5977,209.0
4226.2876,190.0
4227.978,233.0
4229.6694,210.0
4231.3613,196.0
4233.0537,244.0
4234.747,195.0
4236.441,202.0
4238.1353,203.0
4239.8306,219.0
4241.5264,210.0
4243.223,238.0
4244.9204,202.0
4246.618,243.0
4248.317,256.0
4250.016,219.0
4251.7163,275.0
4253.417,237.0
4255.118,251.0
4256.8203,238.0
4258.523,240.0
4260.2266,254.0
4261.9307,242.0
4263.6353,247.0
4265.341,288.0
4267.047,296.0
4268.754,358.0
4270.4614,296.0
4272.1694,257.0
4273.8784,221.0
4275.588,291.0
4277.2983,372.0
4279.0093,337.0
4280.7207,270.0
4282.433,254.0
4284.146,376.0
4285.86,599.0
4287.574,492.0
4289.289,330.0
4291.005,239.0
4292.721,232.0
4294.4385,209.0
4296.1562,266.0
4297.8745,317.0
4299.5938,294.0
4301.3135,241.0
4303.034,220.0
4304.7554,217.0
4306.477,239.0
4308.1997,205.0
4309.923,230.0
4311.647,196.0
4313.3716,199.0
4315.097,183.0
4316.823,180.0
4318.55,208.0
4320.2773,196.0
4322.0054,203.0
4323.7344,215.0
4325.464,232.0
4327.194,218.0
4328.925,216.0
4330.6562,186.0
4332.3887,234.0
4334.1216,221.0
4335.8555,205.0
4337.59,183.0
4339.3247,199.0
4341.0605,201.0
4342.797,178.0
4344.534,182.0
4346.272,207.0
4348.0103,206.0
4349.7495,239.0
4351.4893,213.0
4353.23,219.0
4354.971,208.0
4356.7134,228.0
4358.456,239.0
4360.199,199.0
4361.9434,189.0
4363.688,227.0
4365.4336,203.0
4367.1797,192.0
4368.927,202.0
4370.6743,208.0
4372.4224,224.0
4374.1714,208.0
4375.921,224.0
4377.6714,206.0
4379.4224,222.0
4381.1743,234.0
4382.927,208.0
4384.6797,221.0
4386.4336,227.0
4388.188,228.0
4389.9434,219.0
4391.699,251.0
4393.456,232.0
4395.2134,231.0
4396.9717,230.0
4398.7305,254.0
4400.4897,250.0
4402.25,265.0
4404.0107,228.0
4405.7725,233.0
4407.5347,325.0
4409.298,307.0
4411.0615,268.0
4412.826,221.0
4414.5913,252.0
4416.357,335.0
4418.1235,374.0
4419.8906,341.0
4421.6587,284.0
4423.4272,276.0
4425.197,238.0
4426.967,271.0
4428.738,301.0
4430.5093,285.0
4432.2812,292.0
4434.054,253.0
4435.8276,256.0
4437.602,307.0
4439.377,361.0
4441.153,317.0
4442.929,276.0
4444.7065,269.0
4446.4844,308.0
4448.263,283.0
4450.0425,302.0
4451.8223,353.0
4453.603,286.0
4455.3843,280.0
4457.1665,308.0
4458.949,315.0
4460.733,339.0
4462.517,308.0
4464.3022,307.0
4466.088,303.0
4467.8745,357.0
4469.6616,365.0
4471.4497,335.0
4473.2383,302.0
4475.0273,321.0
4476.8174,280.0
4478.608,298.0
4480.3994,311.0
4482.1914,371.0
4483.9844,345.0
4485.778,275.0
4487.5723,272.0
4489.367,333.0
4491.163,359.0
4492.9595,299.0
4494.757,311.0
4496.5547,327.0
4498.3535,342.0
4500.153,346.0
4501.953,348.0
4503.754,367.0
4505.555,360.0
4507.3574,342.0
4509.16,331.0
4510.964,357.0
4512.768,360.0
4514.573,400.0
4516.379,334.0
4518.1855,319.0
4519.9927,326.0
4521.801,382.0
4523.6094,355.0
4525.419,314.0
4527.229,316.0
4529.04,321.0
4530.8516,432.0
4532.664,438.0
4534.477,299.0
4536.291,321.0
4538.1055,376.0
4539.921,372.0
4541.737,328.0
4543.5537,314.0
4545.371,293.0
4547.1895,307.0
4549.0083,284.0
4550.828,271.0
4552.6484,291.0
4554.4697,290.0
4556.2915,274.0
4558.1143,239.0
4559.9375,282.0
4561.7617,240.0
4563.5864,292.0
4565.4116,227.0
4567.238,272.0
4569.0645,227.0
4570.892,264.0
4572.72,255.0
4574.5493,244.0
4576.379,258.0
4578.2095,243.0
4580.0405,236.0
4581.8726,261.0
4583.705,232.0
4585.5386,248.0
4587.3726,245.0
4589.2075,245.0
4591.043,243.0
4592.8794,276.0
4594.7163,237.0
4596.554,222.0
4598.3926,248.0
4600.232,236.0
4602.0723,286.0
4603.913,291.0
4605.755,254.0
4607.597,235.0
4609.4404,254.0
4611.284,241.0
4613.129,274.0
4614.974,264.0
4616.8203,247.0
4618.667,224.0
4620.5146,279.0
4622.363,238.0
4624.212,229.0
4626.0615,232.0
4627.912,264.0
4629.763,237.0
4631.615,242.0
4633.468,222.0
4635.3213,235.0
4637.1753,231.0
4639.0303,245.0
4640.8857,222.0
4642.742,232.0
4644.599,262.0
4646.457,277.0
4648.3154,224.0
4650.175,229.0
4652.0347,253.0
4653.8955,250.0
4655.757,231.0
4657.619,214.0
4659.4824,223.0
4661.346,244.0
4663.211,212.0
4665.076,239.0
4666.9424,244.0
4668.809,222.0
4670.677,252.0
4672.545,218.0
4674.414,246.0
4676.2837,230.0
4678.1543,239.0
4680.0254,260.0
4681.8975,238.0
4683.77,229.0
4685.6436,255.0
4687.5176,229.0
4689.3926,246.0
4691.2686,246.0
4693.145,244.0
4695.0225,236.0
4696.9004,243.0
4698.7793,247.0
4700.6587,234.0
4702.539,233.0
4704.42,221.0
4706.302,243.0
4708.184,229.0
4710.0674,226.0
4711.951,251.0
4713.836,279.0
4715.7217,231.0
4717.608,240.0
4719.495,239.0
4721.383,243.0
4723.2715,220.0
4725.1606,217.0
4727.051,246.0
4728.9414,240.0
4730.833,248.0
4732.725,205.0
4734.618,225.0
4736.512,229.0
4738.4067,234.0
4740.3022,199.0
4742.198,203.0
4744.095,233.0
4745.9927,231.0
4747.891,261.0
4749.79,221.0
4751.69,221.0
4753.591,203.0
4755.492,196.0
4757.3945,218.0
4759.2974,184.0
4761.201,217.0
4763.1055,210.0
4765.0107,226.0
4766.9165,220.0
4768.823,208.0
4770.731,224.0
4772.639,208.0
4774.5483,209.0
4776.458,221.0
4778.3687,219.0
4780.28,211.0
4782.192,195.0
4784.105,194.0
4786.0186,200.0
4787.933,206.0
4789.848,156.0
4791.764,200.0
4793.6807,198.0
4795.598,187.0
4797.5166,206.0
4799.4355,209.0
4801.3555,177.0
4803.276,156.0
4805.1973,217.0
4807.119,214.0
4809.042,182.0
4810.966,175.0
4812.89,219.0
4814.8154,188.0
4816.741,191.0
4818.668,184.0
4820.595,184.0
4822.5234,177.0
4824.4526,185.0
4826.3823,185.0
4828.313,192.0
4830.244,200.0
4832.1763,195.0
4834.1094,158.0
4836.043,186.0
4837.9775,179.0
4839.9126,190.0
4841.8486,197.0
4843.785,162.0
4845.7227,179.0
4847.661,188.0
4849.6,175.0
4851.54,183.0
4853.4805,171.0
4855.422,166.0
4857.3643,195.0
4859.307,172.0
4861.251,143.0
4863.1953,164.0
4865.1406,196.0
4867.087,195.0
4869.0337,211.0
4870.9814,167.0
4872.9297,182.0
4874.879,173.0
4876.829,174.0
4878.78,180.0
4880.7314,186.0
4882.6836,185.0
4884.6367,187.0
4886.5903,178.0
4888.545,159.0
4890.5005,152.0
4892.4565,187.0
4894.4136,188.0
4896.3716,170.0
4898.33,178.0
4900.2896,168.0
4902.2495,187.0
4904.2104,179.0
4906.1724,159.0
4908.135,204.0
4910.098,181.0
4912.062,195.0
4914.027,170.0
4915.9927,181.0
4917.959,161.0
4919.9263,161.0
4921.894,179.0
4923.863,163.0
4925.8325,194.0
4927.8027,168.0
4929.774,185.0
4931.7456,186.0
4933.7183,219.0
4935.692,198.0
4937.666,170.0
4939.641,177.0
4941.617,187.0
4943.5938,185.0
4945.5713,200.0
4947.5493,184.0
4949.5283,157.0
4951.5083,196.0
4953.489,205.0
4955.47,190.0
4957.4526,190.0
4959.4355,196.0
4961.4194,168.0
4963.404,184.0
4965.389,174.0
4967.3755,207.0
4969.3623,173.0
4971.35,175.0
4973.339,175.0
4975.328,184.0
4977.3184,193.0
4979.309,182.0
4981.301,201.0
4983.2935,183.0
4985.2866,198.0
4987.281,200.0
4989.276,195.0
4991.2715,208.0
4993.268,206.0
4995.265,205.0
4997.263,203.0
4999.262,165.0
5001.2617,159.0
5003.262,176.0
5005.2637,217.0
5007.2656,200.0
5009.2686,211.0
5011.2725,201.0
5013.277,205.0
5015.282,170.0
5017.2886,184.0
5019.2954,176.0
5021.303,189.0
5023.3115,190.0
5025.321,189.0
5027.331,187.0
5029.342,194.0
5031.3535,190.0
5033.366,206.0
5035.3794,186.0
5037.3936,199.0
5039.4087,199.0
5041.4243,199.0
5043.441,213.0
5045.4585,177.0
5047.4766,230.0
5049.4956,205.0
5051.5156,208.0
5053.536,207.0
5055.5576,222.0
5057.58,220.0
5059.603,197.0
5061.627,208.0
5063.6514,198.0
5065.677,176.0
5067.703,198.0
5069.73,212.0
5071.758,210.0
5073.7866,209.0
5075.816,187.0
5077.846,183.0
5079.8774,185.0
5081.909,197.0
5083.942,211.0
5085.9756,194.0
5088.01,220.0
5090.045,214.0
5092.081,213.0
5094.1177,200.0
5096.1553,205.0
5098.194,224.0
5100.233,198.0
5102.273,205.0
5104.314,221.0
5106.3555,228.0
5108.398,215.0
5110.4414,191.0
5112.4854,213.0
5114.5303,202.0
5116.576,181.0
5118.6226,177.0
5120.67,223.0
5122.7183,179.0
5124.7676,173.0
5126.8174,206.0
5128.868,222.0
5130.92,208.0
5132.972,184.0
5135.0254,205.0
5137.0796,204.0
5139.1343,192.0
5141.19,217.0
5143.2466,228.0
5145.3037,258.0
5147.362,255.0
5149.421,217.0
5151.4805,202.0
5153.541,214.0
5155.6025,223.0
5157.6646,228.0
5159.7275,188.0
5161.7915,215.0
5163.8564,233.0
5165.922,218.0
5167.9883,191.0
5170.0557,218.0
5172.1235,214.0
5174.1924,194.0
5176.262,237.0
5178.3325,211.0
5180.404,214.0
5182.476,189.0
5184.549,192.0
5186.6226,214.0
5188.6973,211.0
5190.773,208.0
5192.849,232.0
5194.9263,199.0
5197.0044,184.0
5199.083,194.0
5201.1626,198.0
5203.243,245.0
5205.324,237.0
5207.4062,210.0
5209.4893,207.0
5211.573,198.0
5213.6577,219.0
5215.743,198.0
5217.8296,226.0
5219.9165,218.0
5222.0044,247.0
5224.0933,223.0
5226.183,215.0
5228.2734,237.0
5230.3647,223.0
5232.457,217.0
5234.55,208.0
5236.6436,220.0
5238.7383,218.0
5240.834,221.0
5242.93,204.0
5245.0273,223.0
5247.1255,245.0
5249.224,214.0
5251.3237,195.0
5253.4243,232.0
5255.526,207.0
5257.628,235.0
5259.731,234.0
5261.835,237.0
5263.9395,226.0
5266.045,245.0
5268.1514,209.0
5270.259,194.0
5272.3667,227.0
5274.4756,240.0
5276.5854,198.0
5278.6963,205.0
5280.8076,244.0
5282.92,241.0
5285.033,221.0
5287.147,260.0
5289.2617,231.0
5291.3774,199.0
5293.494,208.0
5295.6113,219.0
5297.7295,226.0
5299.8486,232.0
5301.9688,293.0
5304.0894,248.0
5306.211,223.0
5308.3335,215.0
5310.457,242.0
5312.581,195.0
5314.706,251.0
5316.832,245.0
5318.959,292.0
5321.0864,251.0
5323.215,262.0
5325.344,216.0
5327.4746,213.0
5329.6055,246.0
5331.7373,212.0
5333.87,203.0
5336.004,212.0
5338.138,193.0
5340.2734,247.0
5342.4097,238.0
5344.547,231.0
5346.6846,248.0
5348.823,231.0
5350.963,241.0
5353.1035,226.0
5355.2446,220.0
5357.3867,224.0
5359.53,250.0
5361.674,230.0
5363.8184,260.0
5365.964,224.0
5368.1104,225.0
5370.258,212.0
5372.406,234.0
5374.5547,250.0
5376.7046,260.0
5378.8555,258.0
5381.007,247.0
5383.159,263.0
5385.3125,224.0
5387.467,259.0
5389.6216,236.0
5391.7773,255.0
5393.934,252.0
5396.092,231.0
5398.25,269.0
5400.409,243.0
5402.5693,239.0
5404.7305,239.0
5406.8926,243.0
5409.055,280.0
5411.2188,289.0
5413.3833,286.0
5415.549,261.0
5417.715,238.0
5419.882,256.0
5422.05,236.0
5424.2188,262.0
5426.3887,252.0
5428.559,253.0
5430.7305,231.0
5432.903,252.0
5435.076,274.0
5437.25,218.0
5439.425,255.0
5441.6006,208.0
5443.7773,238.0
5445.955,237.0
5448.1333,257.0
5450.3125,234.0
5452.4927,249.0
5454.674,238.0
5456.8555,255.0
5459.038,244.0
5461.2217,274.0
5463.4062,247.0
5465.592,250.0
5467.778,245.0
5469.965,256.0
5472.153,271.0
5474.342,275.0
5476.5317,259.0
5478.722,277.0
5480.9136,245.0
5483.106,238.0
5485.2993,227.0
5487.4937,280.0
5489.6885,294.0
5491.8843,283.0
5494.081,267.0
5496.279,239.0
5498.4775,277.0
5500.677,270.0
5502.877,275.0
5505.078,249.0
5507.2803,252.0
5509.4834,259.0
5511.687,283.0
5513.8916,275.0
5516.097,271.0
5518.3037,277.0
5520.511,299.0
5522.719,327.0
5524.928,302.0
5527.138,262.0
5529.349,283.0
5531.561,271.0
5533.7734,255.0
5535.987,250.0
5538.201,282.0
5540.4165,274.0
5542.633,280.0
5544.85,255.0
5547.068,235.0
5549.2866,241.0
5551.5063,281.0
5553.727,281.0
5555.9487,270.0
5558.171,304.0
5560.394,283.0
5562.618,259.0
5564.8433,296.0
5567.0693,276.0
5569.2964,268.0
5571.524,258.0
5573.7524,262.0
5575.982,271.0
5578.2124,272.0
5580.444,258.0
5582.676,279.0
5584.9087,267.0
5587.1426,211.0
5589.3774,236.0
5591.6133,246.0
5593.85,264.0
5596.0874,259.0
5598.3257,256.0
5600.565,291.0
5602.805,263.0
5605.0464,274.0
5607.2886,250.0
5609.5312,257.0
5611.775,222.0
5614.0195,260.0
5616.265,242.0
5618.5117,240.0
5620.7593,269.0
5623.008,234.0
5625.257,275.0
5627.507,241.0
5629.758,224.0
5632.01,255.0
5634.2627,238.0
5636.5166,222.0
5638.771,222.0
5641.0264,255.0
5643.2827,233.0
5645.54,256.0
5647.7983,235.0
5650.0576,243.0
5652.318,235.0
5654.5786,234.0
5656.8403,243.0
5659.103,260.0
5661.3667,286.0
5663.6313,279.0
5665.897,239.0
5668.1636,266.0
5670.4307,238.0
5672.6987,272.0
5674.968,258.0
5677.238,269.0
5679.509,269.0
5681.781,235.0
5684.0537,243.0
5686.327,271.0
5688.6016,256.0
5690.877,274.0
5693.1533,249.0
5695.4307,251.0
5697.709,283.0
5699.9883,273.0
5702.268,256.0
5704.549,265.0
5706.8306,277.0
5709.1133,261.0
5711.397,269.0
5713.6816,262.0
5715.9673,296.0
5718.254,309.0
5720.541,285.0
5722.829,260.0
5725.118,295.0
5727.408,287.0
5729.699,290.0
5731.991,239.0
5734.284,286.0
5736.578,313.0
5738.8726,296.0
5741.168,309.0
5743.4644,311.0
5745.7617,277.0
5748.06,269.0
5750.3594,312.0
5752.6597,290.0
5754.961,285.0
5757.2627,310.0
5759.5654,306.0
5761.869,311.0
5764.174,283.0
5766.4795,304.0
5768.786,293.0
5771.0938,284.0
5773.4023,310.0
5775.712,275.0
5778.022,305.0
5780.333,317.0
5782.645,274.0
5784.958,284.0
5787.272,331.0
5789.587,311.0
5791.903,327.0
5794.2197,264.0
5796.5376,345.0
5798.8564,322.0
5801.176,332.0
5803.496,307.0
5805.8174,371.0
5808.1396,340.0
5810.463,362.0
5812.787,320.0
5815.1123,345.0
5817.4385,348.0
5819.7656,319.0
5822.0938,373.0
5824.4224,305.0
5826.752,311.0
5829.0825,327.0
5831.414,425.0
5833.7466,335.0
5836.08,345.0
5838.4146,431.0
5840.75,421.0
5843.0864,329.0
5845.424,382.0
5847.762,364.0
5850.101,362.0
5852.441,351.0
5854.7817,343.0
5857.1235,387.0
5859.4663,343.0
5861.81,395.0
5864.155,370.0
5866.5005,342.0
5868.847,335.0
5871.195,368.0
5873.5435,348.0
5875.893,384.0
5878.2437,349.0
5880.5947,381.0
5882.947,342.0
5885.3,344.0
5887.654,372.0
5890.009,368.0
5892.3647,345.0
5894.7217,343.0
5897.0796,353.0
5899.4385,359.0
5901.7983,369.0
5904.159,379.0
5906.521,352.0
5908.884,411.0
5911.2476,378.0
5913.612,386.0
5915.977,398.0
5918.3433,379.0
5920.7104,397.0
5923.0786,358.0
5925.4478,395.0
5927.818,375.0
5930.189,394.0
5932.561,390.0
5934.934,415.0
5937.308,371.0
5939.683,413.0
5942.059,424.0
5944.436,402.0
5946.814,353.0
5949.193,401.0
5951.5728,423.0
5953.9536,392.0
5956.335,413.0
5958.7173,439.0
5961.1006,447.0
5963.485,396.0
5965.87,409.0
5968.2563,389.0
5970.6436,412.0
5973.0317,434.0
5975.421,458.0
5977.811,405.0
5980.202,391.0
5982.594,385.0
5984.9873,412.0
5987.3813,421.0
5989.7764,357.0
5992.1724,448.0
5994.5693,440.0
5996.9673,409.0
5999.366,409.0
6001.766,415.0
6004.167,471.0
6006.569,448.0
6008.9717,458.0
6011.3755,460.0
6013.7803,396.0
6016.1855,465.0
6018.592,481.0
6020.999,450.0
6023.407,412.0
6025.8164,379.0
6028.2266,445.0
6030.6377,405.0
6033.05,409.0
6035.463,420.0
6037.877,440.0
6040.292,424.0
6042.708,380.0
6045.125,426.0
6047.543,407.0
6049.962,401.0
6052.382,363.0
6054.8027,362.0
6057.2246,347.0
6059.6475,366.0
6062.0713,426.0
6064.496,460.0
6066.922,423.0
6069.3486,376.0
6071.7764,371.0
6074.205,360.0
6076.635,346.0
6079.0654,397.0
6081.497,423.0
6083.9297,419.0
6086.3633,388.0
6088.798,442.0
6091.2334,400.0
6093.67,382.0
6096.1074,392.0
6098.546,382.0
6100.9854,414.0
6103.426,395.0
6105.867,395.0
6108.3096,385.0
6110.753,427.0
6113.1973,423.0
6115.6426,424.0
6118.089,425.0
6120.536,411.0
6122.9844,410.0
6125.4336,450.0
6127.884,440.0
6130.335,457.0
6132.787,570.0
6135.24,468.0
6137.6943,435.0
6140.1494,447.0
6142.6055,434.0
6145.0625,502.0
6147.5205,522.0
6149.9795,577.0
6152.4395,542.0
6154.9004,481.0
6157.3623,551.0
6159.825,588.0
6162.289,521.0
6164.754,500.0
6167.2197,513.0
6169.6865,455.0
6172.1543,519.0
6174.623,707.0
6177.093,746.0
6179.5635,617.0
6182.035,539.0
6184.508,519.0
6186.9814,544.0
6189.456,558.0
6191.9316,777.0
6194.408,840.0
6196.8857,684.0
6199.3643,641.0
6201.844,561.0
6204.325,554.0
6206.807,547.0
6209.29,540.0
6211.774,540.0
6214.259,560.0
6216.7446,658.0
6219.2314,578.0
6221.719,520.0
6224.208,499.0
6226.6978,508.0
6229.1885,622.0
6231.68,666.0
6234.173,680.0
6236.6665,589.0
6239.161,556.0
6241.6567,478.0
6244.1533,510.0
6246.651,608.0
6249.1494,730.0
6251.649,664.0
6254.1494,625.0
6256.651,696.0
6259.1533,627.0
6261.6567,605.0
6264.1616,523.0
6266.6675,473.0
6269.1743,531.0
6271.682,745.0
6274.191,979.0
6276.7007,781.0
6279.2114,602.0
6281.723,475.0
6284.236,444.0
6286.7495,476.0
6289.264,948.0
6291.78,1288.0
6294.2964,1022.0
6296.814,652.0
6299.3325,544.0
6301.852,498.0
6304.3726,520.0
6306.8945,494.0
6309.4175,505.0
6311.9414,487.0
6314.4663,516.0
6316.992,499.0
6319.519,454.0
6322.047,424.0
6324.5757,414.0
6327.1055,414.0
6329.636,418.0
6332.168,435.0
6334.7007,481.0
6337.2344,434.0
6339.769,449.0
6342.305,402.0
6344.8423,468.0
6347.3804,438.0
6349.9194,433.0
6352.4595,429.0
6355.0005,434.0
6357.5425,410.0
6360.0854,422.0
6362.6294,446.0
6365.1743,440.0
6367.72,450.0
6370.267,491.0
6372.8154,449.0
6375.3647,376.0
6377.915,424.0
6380.4663,432.0
6383.0186,468.0
6385.572,460.0
6388.126,455.0
6390.681,462.0
6393.2373,496.0
6395.7944,457.0
6398.3525,465.0
6400.912,449.0
6403.4727,462.0
6406.034,469.0
6408.5967,465.0
6411.16,448.0
6413.7246,469.0
6416.29,445.0
6418.8564,395.0
6421.424,472.0
6423.992,442.0
6426.562,447.0
6429.133,479.0
6431.7046,508.0
6434.2773,437.0
6436.851,451.0
6439.426,469.0
6442.0015,450.0
6444.578,442.0
6447.156,472.0
6449.735,529.0
6452.315,451.0
6454.896,445.0
6457.478,444.0
6460.061,444.0
6462.645,431.0
6465.23,482.0
6467.816,470.0
6470.403,428.0
6472.991,511.0
6475.5806,467.0
6478.171,453.0
6480.762,474.0
6483.3545,450.0
6485.9478,418.0
6488.542,458.0
6491.137,437.0
6493.734,490.0
6496.3315,507.0
6498.93,447.0
6501.53,456.0
6504.1304,442.0
6506.732,473.0
6509.3345,450.0
6511.938,453.0
6514.543,515.0
6517.149,508.0
6519.756,475.0
6522.364,464.0
6524.9727,475.0
6527.5825,521.0
6530.1934,469.0
6532.8057,492.0
6535.419,506.0
6538.033,468.0
6540.6484,589.0
6543.2646,541.0
6545.882,551.0
6548.5,525.0
6551.1196,544.0
6553.74,554.0
6556.362,560.0
6558.9844,657.0
6561.608,548.0
6564.2324,542.0
6566.858,546.0
6569.485,549.0
6572.113,531.0
6574.7417,575.0
6577.3716,585.0
6580.0024,558.0
6582.6343,548.0
6585.267,553.0
6587.9014,550.0
6590.5366,544.0
6593.173,573.0
6595.81,546.0
6598.448,535.0
6601.0874,506.0
6603.728,524.0
6606.3696,483.0
6609.012,517.0
6611.656,562.0
6614.3003,546.0
6616.946,517.0
6619.593,567.0
6622.2407,552.0
6624.8896,493.0
6627.5396,513.0
6630.1904,557.0
6632.8423,498.0
6635.4956,573.0
6638.15,574.0
6640.805,631.0
6643.4614,551.0
6646.1187,516.0
6648.7773,479.0
6651.437,477.0
6654.0977,533.0
6656.7593,660.0
6659.422,543.0
6662.0854,569.0
6664.7505,567.0
6667.4165,495.0
6670.0835,465.0
6672.7515,478.0
6675.4204,494.0
6678.091,483.0
6680.762,501.0
6683.4346,491.0
6686.108,455.0
6688.782,478.0
6691.4575,462.0
6694.1343,547.0
6696.812,532.0
6699.4907,584.0
6702.1704,541.0
6704.851,478.0
6707.533,481.0
6710.2163,557.0
6712.9004,526.0
6715.5854,504.0
6718.2715,506.0
6720.959,489.0
6723.6475,537.0
6726.337,545.0
6729.0273,508.0
6731.7188,517.0
6734.4116,503.0
6737.1055,541.0
6739.8003,585.0
6742.496,599.0
6745.193,608.0
6747.891,559.0
6750.5903,526.0
6753.2905,536.0
6755.9917,614.0
6758.6943,692.0
6761.398,657.0
6764.1025,612.0
6766.808,599.0
6769.5146,530.0
6772.2227,546.0
6774.9316,622.0
6777.6416,602.0
6780.3525,596.0
6783.0645,673.0
6785.778,558.0
6788.492,610.0
6791.2075,620.0
6793.924,601.0
6796.6416,598.0
6799.3604,579.0
6802.08,570.0
6804.801,613.0
6807.5225,723.0
6810.2456,733.0
6812.9697,661.0
6815.695,567.0
6818.421,517.0
6821.1484,603.0
6823.877,791.0
6826.6064,821.0
6829.337,632.0
6832.069,543.0
6834.802,496.0
6837.5356,587.0
6840.2705,624.0
6843.007,811.0
6845.744,730.0
6848.4824,575.0
6851.2217,530.0
6853.9624,615.0
6856.704,730.0
6859.447,678.0
6862.1904,606.0
6864.9355,566.0
6867.6816,547.0
6870.4287,534.0
6873.177,510.0
6875.9263,522.0
6878.677,508.0
6881.428,498.0
6884.1807,513.0
6886.9346,531.0
6889.6895,469.0
6892.4453,489.0
6895.202,528.0
6897.9604,480.0
6900.7197,488.0
6903.48,548.0
6906.241,531.0
6909.004,506.0
6911.7676,486.0
6914.532,560.0
6917.298,518.0
6920.065,531.0
6922.833,508.0
6925.602,533.0
6928.372,535.0
6931.1436,519.0
6933.916,526.0
6936.6895,479.0
6939.4644,524.0
6942.24,499.0
6945.017,540.0
6947.795,562.0
6950.574,552.0
6953.3545,492.0
6956.1357,547.0
6958.918,521.0
6961.7017,536.0
6964.4863,540.0
6967.272,568.0
6970.059,488.0
6972.847,542.0
6975.636,578.0
6978.4263,576.0
6981.218,588.0
6984.0103,616.0
6986.8037,551.0
6989.5986,573.0
6992.3945,590.0
6995.1914,595.0
6997.9893,672.0
7000.7886,655.0
7003.589,664.0
7006.39,637.0
7009.193,601.0
7011.9966,600.0
7014.8013,626.0
7017.6074,652.0
7020.4146,680.0
7023.2227,746.0
7026.0317,759.0
7028.8423,712.0
7031.654,624.0
7034.4663,554.0
7037.2803,550.0
7040.095,734.0
7042.911,892.0
7045.7285,804.0
7048.547,592.0
7051.366,580.0
7054.1865,583.0
7057.0083,714.0
7059.831,1162.0
7062.655,1163.0
7065.48,762.0
7068.306,663.0
7071.1333,563.0
7073.962,596.0
7076.7915,609.0
7079.622,548.0
7082.454,634.0
7085.287,598.0
7088.121,600.0
7090.9565,590.0
7093.793,569.0
7096.6304,593.0
7099.469,655.0
7102.309,594.0
7105.15,594.0
7107.992,643.0
7110.8354,639.0
7113.6797,683.0
7116.5254,715.0
7119.372,684.0
7122.2197,690.0
7125.069,747.0
7127.919,746.0
7130.77,717.0
7133.6226,672.0
7136.476,671.0
7139.3306,825.0
7142.1865,880.0
7145.0435,781.0
7147.9014,776.0
7150.7607,728.0
7153.621,780.0
7156.4824,1026.0
7159.345,1073.0
7162.209,920.0
7165.0737,801.0
7167.94,825.0
7170.807,846.0
7173.6753,903.0
7176.545,803.0
7179.4155,813.0
7182.287,848.0
7185.16,740.0
7188.034,922.0
7190.909,855.0
7193.7856,814.0
7196.663,984.0
7199.542,1122.0
7202.422,830.0
7205.3027,659.0
7208.185,650.0
7211.0684,787.0
7213.9526,1342.0
7216.8384,1309.0
7219.725,856.0
7222.613,643.0
7225.502,581.0
7228.392,795.0
7231.283,1835.0
7234.176,1888.0
7237.0693,1190.0
7239.9644,776.0
7242.8604,631.0
7245.7573,634.0
7248.656,631.0
7251.555,595.0
7254.4556,751.0
7257.3574,662.0
7260.2603,564.0
7263.1646,560.0
7266.07,567.0
7268.976,569.0
7271.884,587.0
7274.7925,585.0
7277.7026,516.0
7280.614,563.0
7283.526,538.0
7286.4395,558.0
7289.354,565.0
7292.2695,574.0
7295.1865,650.0
7298.1045,613.0
7301.024,579.0
7303.9443,555.0
7306.8657,518.0
7309.7886,587.0
7312.7124,789.0
7315.6377,695.0
7318.564,543.0
7321.491,490.0
7324.42,469.0
7327.3496,628.0
7330.281,872.0
7333.213,777.0
7336.146,654.0
7339.0806,534.0
7342.016,500.0
7344.953,564.0
7347.891,619.0
7350.83,656.0
7353.7705,583.0
7356.712,560.0
7359.655,519.0
7362.5986,460.0
7365.5435,492.0
7368.4897,514.0
7371.437,550.0
7374.3857,559.0
7377.3354,531.0
7380.2866,547.0
7383.239,581.0
7386.192,534.0
7389.1465,448.0
7392.102,463.0
7395.059,455.0
7398.017,553.0
7400.976,556.0
7403.9365,543.0
7406.898,475.0
7409.861,443.0
7412.8247,438.0
7415.79,471.0
7418.7563,588.0
7421.7236,573.0
7424.6924,499.0
7427.662,483.0
7430.6333,442.0
7433.6055,591.0
7436.579,559.0
7439.5537,492.0
7442.5293,505.0
7445.5063,487.0
7448.4844,481.0
7451.464,429.0
7454.4443,455.0
7457.4263,471.0
7460.409,442.0
7463.3936,419.0
7466.379,420.0
7469.365,416.0
7472.353,438.0
7475.342,398.0
7478.332,423.0
7481.323,442.0
7484.316,486.0
7487.3096,519.0
7490.3047,524.0
7493.301,404.0
7496.2983,420.0
7499.297,408.0
7502.2964,477.0
7505.2974,400.0
7508.2993,400.0
7511.3027,436.0
7514.307,427.0
7517.313,399.0
7520.32,406.0
7523.328,384.0
7526.3374,432.0
7529.348,479.0
7532.36,478.0
7535.373,420.0
7538.387,410.0
7541.4023,447.0
7544.419,442.0
7547.4365,506.0
7550.4556,427.0
7553.4756,403.0
7556.497,435.0
7559.5195,452.0
7562.5435,532.0
7565.5684,540.0
7568.5947,433.0
7571.622,457.0
7574.651,450.0
7577.6807,446.0
7580.712,425.0
7583.744,415.0
7586.778,495.0
7589.8125,462.0
7592.8486,425.0
7595.8857,421.0
7598.9243,500.0
7601.964,482.0
7605.005,460.0
7608.047,405.0
7611.0903,393.0
7614.135,511.0
7617.18,565.0
7620.227,515.0
7623.275,461.0
7626.324,415.0
7629.3745,383.0
7632.4263,482.0
7635.479,482.0
7638.533,470.0
7641.5884,458.0
7644.645,403.0
7647.7026,435.0
7650.7617,396.0
7653.8223,439.0
7656.884,470.0
7659.947,440.0
7663.0107,426.0
7666.076,477.0
7669.1426,440.0
7672.2104,450.0
7675.2793,471.0
7678.3496,457.0
7681.421,454.0
7684.4937,426.0
7687.5674,462.0
7690.6426,444.0
7693.7188,509.0
7696.7964,489.0
7699.875,483.0
7702.955,455.0
7706.036,477.0
7709.1187,454.0
7712.202,524.0
7715.287,517.0
7718.373,511.0
7721.4604,495.0
7724.549,467.0
7727.6387,467.0
7730.7295,488.0
7733.822,491.0
7736.9155,520.0
7740.0103,474.0
7743.1064,572.0
7746.2036,586.0
7749.3022,534.0
7752.402,601.0
7755.503,556.0
7758.605,598.0
7761.7085,555.0
7764.813,575.0
7767.919,651.0
7771.026,670.0
7774.1343,622.0
7777.244,557.0
7780.355,521.0
7783.4673,546.0
7786.5806,668.0
7789.6953,752.0
7792.811,674.0
7795.928,614.0
7799.0464,564.0
7802.166,588.0
7805.287,584.0
7808.409,622.0
7811.5327,703.0
7814.657,690.0
7817.783,589.0
7820.91,625.0
7824.0386,603.0
7827.168,780.0
7830.299,832.0
7833.431,689.0
7836.5645,607.0
7839.699,592.0
7842.835,651.0
7845.972,822.0
7849.1104,731.0
7852.25,662.0
7855.391,637.0
7858.533,616.0
7861.677,614.0
7864.8213,647.0
7867.9673,588.0
7871.1143,657.0
7874.2627,650.0
7877.4126,638.0
7880.5635,628.0
7883.716,704.0
7886.869,652.0
7890.024,649.0
7893.18,631.0
7896.3374,671.0
7899.496,727.0
7902.656,750.0
7905.817,693.0
7908.979,644.0
7912.1426,649.0
7915.3076,764.0
7918.4736,935.0
7921.641,863.0
7924.8096,740.0
7927.9795,787.0
7931.151,678.0
7934.323,714.0
7937.497,741.0
7940.672,817.0
7943.848,812.0
7947.026,805.0
7950.2046,810.0
7953.385,866.0
7956.566,857.0
7959.7485,863.0
7962.9326,842.0
7966.1177,965.0
7969.304,955.0
7972.4917,979.0
7975.6807,921.0
7978.871,932.0
7982.0625,1094.0
7985.2554,1178.0
7988.4497,1208.0
7991.645,1154.0
7994.842,997.0
7998.0396,1023.0
8001.239,1133.0
8004.4395,1352.0
8007.641,1259.0
8010.844,1241.0
8014.0483,1296.0
8017.254,1272.0
8020.461,1249.0
8023.669,1323.0
8026.8784,1312.0
8030.0894,1340.0
8033.3013,1432.0
8036.5146,1573.0
8039.7295,1637.0
8042.9453,1617.0
8046.1626,1489.0
8049.381,1508.0
8052.6006,1746.0
8055.822,2047.0
8059.044,2112.0
8062.2676,1811.0
8065.4927,2018.0
8068.7188,2208.0
8071.9463,2257.0
8075.1753,2290.0
8078.4053,2390.0
8081.6367,2733.0
8084.869,2984.0
8088.103,2742.0
8091.3384,2425.0
8094.5747,2379.0
8097.8125,3184.0
8101.052,4073.0
8104.292,3810.0
8107.5337,3415.0
8110.777,3044.0
8114.021,3106.0
8117.2666,4297.0
8120.5137,5180.0
8123.7617,4932.0
8127.011,4720.0
8130.262,4042.0
8133.514,3893.0
8136.7676,4399.0
8140.0225,5431.0
8143.2783,6754.0
8146.5356,6298.0
8149.7944,5050.0
8153.054,5674.0
8156.3154,5457.0
8159.578,6122.0
8162.842,7409.0
8166.107,7055.0
8169.3735,10031.0
8172.641,9854.0
8175.91,6275.0
8179.1807,3811.0
8182.452,4801.0
8185.725,15233.0
8188.9995,19117.0
8192.275,9500.0
8195.553,4664.0
8198.831,3857.0
8202.11,14863.0
8205.392,33400.0
8208.674,21664.0
8211.957,8517.0
8215.242,4039.0
8218.528,3342.0
8221.815,3247.0
8225.1045,4494.0
8228.395,5789.0
8231.686,4256.0
8234.979,2476.0
8238.272,1847.0
8241.567,2085.0
8244.864,2250.0
8248.162,2183.0
8251.461,2022.0
8254.762,1629.0
8258.063,1371.0
8261.367,1385.0
8264.672,1453.0
8267.978,1431.0
8271.285,1530.0
8274.594,1373.0
8277.903,1222.0
8281.215,1101.0
8284.527,1252.0
8287.841,1418.0
8291.156,1381.0
8294.473,1252.0
8297.79,1204.0
8301.109,1124.0
8304.43,1272.0
8307.751,1359.0
8311.074,1291.0
8314.398,1348.0
8317.725,1276.0
8321.052,1234.0
8324.38,1222.0
8327.71,1325.0
8331.041,1590.0
8334.373,1486.0
8337.707,1263.0
8341.042,1132.0
8344.378,1241.0
8347.716,1687.0
8351.055,1679.0
8354.3955,1425.0
8357.737,1416.0
8361.08,1322.0
8364.425,1046.0
8367.7705,1087.0
8371.117,1125.0
8374.466,1330.0
8377.815,1409.0
8381.167,1102.0
8384.52,820.0
8387.873,976.0
8391.229,1247.0
8394.585,1404.0
8397.942,1115.0
8401.302,970.0
8404.662,907.0
8408.024,1028.0
8411.388,942.0
8414.752,927.0
8418.118,891.0
8421.485,786.0
8424.854,753.0
8428.224,737.0
8431.595,899.0
8434.968,890.0
8438.342,803.0
8441.717,806.0
8445.094,836.0
8448.472,808.0
8451.851,869.0
8455.231,850.0
8458.613,916.0
8461.997,861.0
8465.382,1001.0
8468.768,928.0
8472.155,968.0
8475.544,942.0
8478.935,892.0
8482.326,942.0
8485.719,1018.0
8489.113,1144.0
8492.509,1229.0
8495.906,1095.0
8499.305,1068.0
8502.704,1204.0
8506.105,1342.0
8509.508,1505.0
8512.911,1419.0
8516.316,1426.0
8519.723,1591.0
8523.131,1394.0
8526.54,1590.0
8529.95,1569.0
8533.362,2077.0
8536.775,2504.0
8540.19,1771.0
8543.606,1216.0
8547.023,1190.0
8550.442,2628.0
8553.862,3570.0
8557.284,2210.0
8560.707,1457.0
8564.131,1312.0
8567.557,3149.0
8570.983,5359.0
8574.412,3574.0
8577.842,1996.0
8581.272,1460.0
8584.705,1108.0
8588.139,1119.0
8591.574,1481.0
8595.011,1802.0
8598.449,1552.0
8601.889,1031.0
8605.329,899.0
8608.771,927.0
8612.215,858.0
8615.66,843.0
8619.106,854.0
8622.554,809.0
8626.003,721.0
8629.453,729.0
8632.905,710.0
8636.358,776.0
8639.8125,794.0
8643.269,791.0
8646.726,716.0
8650.185,723.0
8653.645,746.0
8657.106,725.0
8660.569,737.0
8664.033,796.0
8667.499,762.0
8670.966,805.0
8674.435,806.0
8677.904,864.0
8681.375,801.0
8684.848,842.0
8688.321,874.0
8691.797,878.0
8695.273,982.0
8698.752,976.0
8702.231,893.0
8705.712,903.0
8709.194,960.0
8712.678,1077.0
8716.163,1149.0
8719.649,1085.0
8723.138,1065.0
8726.627,1148.0
8730.117,1096.0
8733.609,1130.0
8737.103,1135.0
8740.598,1114.0
8744.094,1120.0
8747.592,1153.0
8751.091,1324.0
8754.591,1388.0
8758.093,1387.0
8761.596,1297.0
8765.101,1284.0
8768.606,1480.0
8772.114,1673.0
8775.623,1558.0
8779.133,1480.0
8782.645,1668.0
8786.157,1517.0
8789.672,1627.0
8793.1875,1741.0
8796.705,2043.0
8800.224,2201.0
8803.744,1840.0
8807.266,1551.0
8810.788,1716.0
8814.3125,2747.0
8817.838,2951.0
8821.365,2035.0
8824.894,1828.0
8828.424,1954.0
8831.955,3070.0
8835.488,3281.0
8839.022,2524.0
8842.558,2216.0
8846.095,1965.0
8849.633,1826.0
8853.173,1896.0
8856.714,2383.0
8860.257,2619.0
8863.801,2273.0
8867.347,1947.0
8870.894,1876.0
8874.442,2614.0
8877.992,3109.0
8881.543,2840.0
8885.096,2352.0
8888.649,1977.0
8892.205,2002.0
8895.762,2195.0
8899.32,2495.0
8902.88,2565.0
8906.441,2193.0
8910.004,2024.0
8913.568,2271.0
8917.134,2761.0
8920.7,2598.0
8924.269,2294.0
8927.838,2176.0
8931.409,2348.0
8934.981,2888.0
8938.556,2766.0
8942.131,2434.0
8945.708,2441.0
8949.286,2195.0
8952.866,2063.0
8956.447,2181.0
8960.03,2563.0
8963.614,2476.0
8967.199,2111.0
8970.786,1828.0
8974.374,2100.0
8977.964,2402.0
8981.555,2255.0
8985.147,2005.0
8988.741,1979.0
8992.337,2195.0
8995.934,2326.0
8999.532,2165.0
9003.132,1917.0
9006.733,1984.0
9010.336,2145.0
9013.94,2114.0
9017.546,2091.0
9021.153,1838.0
9024.762,2155.0
9028.372,2292.0
9031.983,1893.0
9035.597,1619.0
9039.211,1762.0
9042.826,2283.0
9046.443,1976.0
9050.062,1614.0
9053.682,1399.0
9057.303,1999.0
9060.926,2504.0
9064.55,2158.0
9068.176,1553.0
9071.803,1441.0
9075.432,1772.0
9079.062,2013.0
9082.693,1682.0
9086.326,1315.0
9089.961,1360.0
9093.597,1465.0
9097.234,1523.0
9100.873,1368.0
9104.514,1287.0
9108.155,1222.0
9111.799,1051.0
9115.443,1065.0
9119.09,1089.0
9122.737,1221.0
9126.387,1144.0
9130.037,977.0
9133.689,984.0
9137.343,1133.0
9140.998,1152.0
9144.654,1063.0
9148.3125,937.0
9151.972,947.0
9155.633,972.0
9159.295,896.0
9162.959,1029.0
9166.624,1061.0
9170.291,937.0
9173.959,834.0
9177.629,939.0
9181.3,1206.0
9184.973,1220.0
9188.646,977.0
9192.322,788.0
9195.999,916.0
9199.678,1090.0
9203.357,976.0
9207.039,936.0
9210.722,842.0
9214.406,682.0
9218.092,668.0
9221.779,792.0
9225.468,916.0
9229.158,811.0
9232.85,669.0
9236.543,634.0
9240.237,785.0
9243.934,886.0
9247.631,853.0
9251.33,687.0
9255.03,545.0
9258.732,501.0
9262.436,535.0
9266.141,649.0
9269.847,549.0
9273.555,509.0
9277.264,465.0
9280.975,472.0
9284.687,554.0
9288.4,492.0
9292.116,448.0
9295.833,432.0
9299.552,468.0
9303.271,449.0
9306.993,449.0
9310.716,426.0
9314.44,424.0
9318.166,400.0
9321.894,415.0
9325.622,403.0
9329.353,448.0
9333.084,409.0
9336.817,378.0
9340.552,362.0
9344.288,378.0
9348.025,396.0
9351.765,371.0
9355.505,367.0
9359.247,349.0
9362.991,409.0
9366.736,379.0
9370.483,379.0
9374.231,371.0
9377.981,390.0
9381.732,384.0
9385.485,337.0
9389.239,330.0
9392.995,317.0
9396.752,323.0
9400.511,319.0
9404.2705,335.0
9408.032,297.0
9411.796,327.0
9415.561,330.0
9419.327,308.0
9423.095,335.0
9426.864,344.0
9430.635,289.0
9434.407,283.0
9438.181,326.0
9441.956,294.0
9445.732,317.0
9449.511,278.0
9453.291,266.0
9457.072,299.0
9460.855,309.0
9464.64,291.0
9468.426,271.0
9472.213,282.0
9476.002,261.0
9479.792,276.0
9483.584,238.0
9487.377,286.0
9491.172,290.0
9494.969,239.0
9498.767,248.0
9502.566,253.0
9506.367,291.0
9510.17,274.0
9513.974,231.0
9517.779,254.0
9521.586,256.0
9525.395,224.0
9529.205,257.0
9533.017,292.0
9536.83,241.0
9540.645,238.0
9544.461,265.0
9548.278,282.0
9552.098,295.0
9555.919,242.0
9559.741,225.0
9563.565,242.0
9567.391,234.0
9571.218,223.0
9575.046,222.0
9578.876,243.0
9582.708,171.0
9586.541,194.0
9590.376,222.0
9594.212,230.0
9598.05,227.0
9601.889,170.0
9605.7295,226.0
9609.572,206.0
9613.416,219.0
9617.262,197.0
9621.108,188.0
9624.957,192.0
9628.807,174.0
9632.658,191.0
9636.512,184.0
9640.366,190.0
9644.223,167.0
9648.08,195.0
9651.939,192.0
9655.8,216.0
9659.662,179.0
9663.526,190.0
9667.392,189.0
9671.259,194.0
9675.127,183.0
9678.997,179.0
9682.869,183.0
9686.742,167.0
9690.617,169.0
9694.493,180.0
9698.371,168.0
9702.25,179.0
9706.131,168.0
9710.014,171.0
9713.897,190.0
9717.783,162.0
9721.67,199.0
9725.559,159.0
9729.449,164.0
9733.341,168.0
9737.234,181.0
9741.129,175.0
9745.025,166.0
9748.924,182.0
9752.823,157.0
9756.725,159.0
9760.627,166.0
9764.531,179.0
9768.4375,168.0
9772.345,173.0
9776.254,170.0
9780.164,162.0
9784.076,152.0
9787.99,179.0
9791.905,166.0
9795.822,178.0
9799.74,159.0
9803.66,180.0
9807.582,167.0
9811.505,189.0
9815.43,155.0
9819.355,173.0
9823.283,153.0
9827.213,162.0
9831.144,175.0
9835.076,167.0
9839.01,164.0
9842.945,153.0
9846.883,199.0
9850.821,178.0
9854.762,196.0
9858.704,150.0
9862.647,167.0
9866.593,173.0
9870.539,151.0
9874.487,182.0
9878.4375,164.0
9882.389,166.0
9886.342,160.0
9890.296,145.0
9894.252,145.0
9898.21,184.0
9902.169,164.0
9906.13,168.0
9910.093,173.0
9914.057,127.0
9918.022,157.0
9921.989,171.0
9925.958,198.0
9929.929,198.0
9933.9,165.0
9937.874,177.0
9941.85,179.0
9945.826,168.0
9949.805,172.0
9953.784,149.0
9957.766,157.0
9961.749,161.0
9965.733,160.0
9969.72,176.0
9973.708,170.0
9977.697,176.0
9981.688,184.0
9985.681,155.0
9989.675,194.0
9993.671,169.0
9997.668,172.0
10001.667,159.0
10005.668,157.0
10009.67,179.0
10013.674,165.0
10017.68,143.0
10021.687,160.0
10025.695,149.0
10029.706,171.0
10033.718,163.0
10037.731,153.0
10041.746,171.0
10045.763,171.0
10049.781,156.0
10053.801,169.0
10057.822,183.0
10061.846,164.0
10065.87,173.0
10069.896,175.0
10073.925,162.0
10077.954,162.0
10081.985,168.0
10086.019,169.0
10090.053,172.0
10094.089,160.0
10098.127,152.0
10102.166,185.0
10106.207,188.0
10110.25,153.0
10114.294,165.0
10118.34,141.0
10122.387,162.0
10126.436,162.0
10130.486,173.0
10134.538,189.0
10138.592,148.0
10142.647,185.0
10146.704,200.0
10150.763,167.0
10154.823,189.0
10158.885,203.0
10162.948,183.0
10167.014,207.0
10171.08,168.0
10175.148,199.0
10179.219,215.0
10183.29,182.0
10187.363,182.0
10191.438,207.0
10195.515,189.0
10199.593,186.0
10203.673,176.0
10207.754,173.0
10211.837,185.0
10215.922,177.0
10220.008,171.0
10224.096,172.0
10228.186,189.0
10232.276,170.0
10236.369,200.0
10240.464,185.0
10244.56,182.0
10248.657,201.0
10252.757,183.0
10256.858,171.0
10260.961,177.0
10265.065,212.0
10269.172,169.0
10273.279,182.0
10277.389,198.0
10281.5,193.0
10285.612,164.0
10289.727,177.0
10293.843,182.0
10297.96,201.0
10302.079,195.0
10306.2,188.0
10310.322,172.0
10314.446,203.0
10318.572,199.0
10322.699,190.0
10326.828,194.0
10330.959,199.0
10335.092,197.0
10339.226,210.0
10343.361,197.0
10347.499,211.0
10351.638,207.0
10355.778,201.0
10359.921,169.0
10364.064,190.0
10368.21,186.0
10372.357,214.0
10376.507,197.0
10380.657,197.0
10384.81,200.0
10388.964,211.0
10393.119,191.0
10397.276,199.0
10401.436,190.0
10405.596,173.0
10409.758,192.0
10413.922,196.0
10418.088,163.0
10422.255,148.0
10426.424,191.0
10430.595,183.0
10434.767,195.0
10438.94,194.0
10443.116,178.0
10447.294,166.0
10451.473,177.0
10455.653,191.0
10459.836,193.0
10464.02,215.0
10468.205,167.0
10472.393,194.0
10476.581,191.0
10480.771,194.0
10484.964,181.0
10489.158,174.0
10493.354,173.0
10497.551,204.0
10501.75,193.0
10505.951,215.0
10510.153,211.0
10514.357,195.0
10518.563,168.0
10522.7705,195.0
10526.9795,183.0
10531.19,185.0
10535.403,179.0
10539.617,190.0
10543.833,191.0
10548.051,193.0
10552.27,207.0
10556.49,196.0
10560.713,182.0
10564.9375,168.0
10569.163,167.0
10573.391,213.0
10577.62,192.0
10581.852,179.0
10586.084,199.0
10590.318,197.0
10594.555,198.0
10598.793,178.0
10603.032,167.0
10607.273,219.0
10611.517,199.0
10615.761,187.0
10620.007,206.0
10624.255,197.0
10628.505,200.0
10632.756,173.0
10637.009,209.0
10641.264,190.0
10645.5205,206.0
10649.778,198.0
10654.038,183.0
10658.3,185.0
10662.563,202.0
10666.828,212.0
10671.095,186.0
10675.363,208.0
10679.634,203.0
10683.905,186.0
10688.179,186.0
10692.454,198.0
10696.731,195.0
10701.01,193.0
10705.29,201.0
10709.572,233.0
10713.856,196.0
10718.142,210.0
10722.429,237.0
10726.718,219.0
10731.009,200.0
10735.301,215.0
10739.595,215.0
10743.891,225.0
10748.188,211.0
10752.487,207.0
10756.788,252.0
10761.091,229.0
10765.3955,213.0
10769.702,231.0
10774.01,183.0
10778.319,208.0
10782.631,229.0
10786.944,218.0
10791.259,215.0
10795.575,193.0
10799.894,206.0
10804.214,191.0
10808.535,206.0
10812.858,206.0
10817.184,212.0
10821.511,189.0
10825.839,202.0
10830.169,201.0
10834.501,215.0
10838.835,199.0
10843.171,190.0
10847.508,202.0
10851.847,181.0
10856.1875,210.0
10860.53,202.0
10864.874,214.0
10869.22,194.0
10873.567,206.0
10877.917,210.0
10882.269,217.0
10886.621,220.0
10890.976,195.0
10895.332,184.0
10899.69,196.0
10904.051,219.0
10908.412,196.0
10912.775,238.0
10917.141,207.0
10921.508,219.0
10925.876,198.0
10930.246,190.0
10934.618,242.0
10938.992,238.0
10943.368,218.0
10947.745,229.0
10952.124,223.0
10956.505,235.0
10960.888,229.0
10965.272,226.0
10969.658,221.0
10974.046,230.0
10978.436,217.0
10982.827,244.0
10987.221,216.0
10991.615,216.0
10996.012,197.0
11000.41,222.0
11004.811,232.0
11009.213,210.0
11013.616,218.0
11018.021,225.0
11022.429,250.0
11026.838,238.0
11031.249,227.0
11035.661,238.0
11040.075,234.0
11044.491,246.0
11048.909,225.0
11053.329,205.0
11057.75,236.0
11062.173,245.0
11066.598,237.0
11071.024,241.0
11075.453,256.0
11079.884,218.0
11084.315,276.0
11088.749,237.0
11093.185,238.0
11097.622,212.0
11102.062,243.0
11106.502,218.0
11110.944,240.0
11115.389,269.0
11119.835,250.0
11124.283,233.0
11128.733,249.0
11133.185,244.0
11137.638,249.0
11142.093,246.0
11146.55,258.0
11151.009,238.0
11155.469,261.0
11159.931,250.0
11164.395,267.0
11168.86,264.0
11173.328,236.0
11177.798,275.0
11182.269,281.0
11186.741,256.0
11191.216,254.0
11195.692,249.0
11200.171,260.0
11204.651,273.0
11209.133,269.0
11213.616,270.0
11218.102,258.0
11222.589,277.0
11227.078,280.0
11231.569,287.0
11236.062,275.0
11240.556,260.0
11245.052,281.0
11249.55,292.0
11254.05,276.0
11258.552,294.0
11263.056,326.0
11267.561,282.0
11272.067,299.0
11276.576,317.0
11281.087,274.0
11285.6,318.0
11290.114,257.0
11294.63,328.0
11299.147,304.0
11303.667,321.0
11308.188,335.0
11312.712,345.0
11317.237,349.0
11321.765,342.0
11326.293,349.0
11330.823,341.0
11335.355,309.0
11339.89,348.0
11344.426,347.0
11348.964,358.0
11353.504,382.0
11358.045,397.0
11362.588,366.0
11367.133,364.0
11371.68,397.0
11376.229,400.0
11380.779,423.0
11385.332,407.0
11389.886,405.0
11394.441,447.0
11398.999,419.0
11403.559,430.0
11408.12,473.0
11412.684,479.0
11417.249,499.0
11421.816,423.0
11426.385,477.0
11430.955,475.0
11435.527,500.0
11440.102,556.0
11444.678,519.0
11449.256,548.0
11453.836,603.0
11458.417,594.0
11463.0,613.0
11467.585,595.0
11472.172,567.0
11476.761,677.0
11481.352,606.0
11485.944,592.0
11490.539,638.0
11495.136,690.0
11499.733,719.0
11504.333,639.0
11508.935,697.0
11513.538,725.0
11518.144,684.0
11522.751,686.0
11527.36,745.0
11531.972,759.0
11536.584,734.0
11541.198,714.0
11545.814,763.0
11550.433,785.0
11555.053,746.0
11559.675,798.0
11564.299,799.0
11568.925,736.0
11573.553,790.0
11578.183,880.0
11582.813,835.0
11587.446,785.0
11592.081,820.0
11596.718,858.0
11601.356,789.0
11605.997,791.0
11610.64,914.0
11615.284,851.0
11619.931,780.0
11624.579,892.0
11629.229,888.0
11633.88,821.0
11638.533,838.0
11643.188,962.0
11647.846,820.0
11652.505,728.0
11657.166,876.0
11661.829,959.0
11666.494,795.0
11671.161,711.0
11675.83,1054.0
11680.5,924.0
11685.172,754.0
11689.846,751.0
11694.521,784.0
11699.199,673.0
11703.879,670.0
11708.561,640.0
11713.244,625.0
11717.93,585.0
11722.617,562.0
11727.307,570.0
11731.998,470.0
11736.69,468.0
11741.385,517.0
11746.081,462.0
11750.779,423.0
11755.4795,462.0
11760.182,416.0
11764.886,404.0
11769.592,398.0
11774.3,381.0
11779.01,400.0
11783.722,406.0
11788.436,402.0
11793.151,371.0
11797.868,372.0
11802.587,375.0
11807.308,353.0
11812.03,335.0
11816.755,349.0
11821.481,358.0
11826.21,376.0
11830.94,352.0
11835.673,351.0
11840.407,317.0
11845.144,326.0
11849.882,331.0
11854.622,291.0
11859.364,278.0
11864.108,303.0
11868.8545,304.0
11873.602,272.0
11878.351,270.0
11883.102,277.0
11887.8545,251.0
11892.609,257.0
11897.366,263.0
11902.125,247.0
11906.886,236.0
11911.648,244.0
11916.413,239.0
11921.18,223.0
11925.948,240.0
11930.719,252.0
11935.491,247.0
11940.266,220.0
11945.042,207.0
11949.82,238.0
11954.601,260.0
11959.383,212.0
11964.167,208.0
11968.953,231.0
11973.74,213.0
11978.529,237.0
11983.32,229.0
11988.113,205.0
11992.908,214.0
