M/Z,Intensity
800.0,187.0
800.32,183.0
800.64014,61.0
800.9604,205.0
801.28076,534.0
801.60126,96.0
801.9219,132.0
802.2426,332.0
802.56354,96.0
802.8846,435.0
803.20575,243.0
803.52704,105.0
803.84845,232.0
804.17,243.0
804.49164,88.0
804.8134,90.0
805.1353,205.0
805.4574,119.0
805.7796,82.0
806.1019,192.0
806.4244,173.0
806.74695,66.0
807.06964,168.0
807.39246,180.0
807.7154,48.0
808.03845,151.0
808.3617,197.0
808.68506,51.0
809.00854,166.0
809.33215,216.0
809.6559,74.0
809.97974,132.0
810.3037,209.0
810.6278,66.0
810.9521,178.0
811.2765,196.0
811.601,60.0
811.92566,138.0
812.2504,169.0
812.5753,68.0
812.9003,117.0
813.22546,206.0
813.5508,77.0
813.8762,103.0
814.2018,186.0
814.52747,93.0
814.8533,126.0
815.1792,208.0
815.50525,116.0
815.8314,104.0
816.1578,195.0
816.48425,103.0
816.81085,142.0
817.1376,229.0
817.4644,147.0
817.7914,88.0
818.11847,214.0
818.44574,118.0
818.77313,109.0
819.10065,190.0
819.4283,122.0
819.75604,80.0
820.0839,194.0
820.412,129.0
820.7402,77.0
821.0685,204.0
821.3969,137.0
821.72546,54.0
822.05414,165.0
822.38293,138.0
822.7119,83.0
823.041,338.0
823.37024,147.0
823.6996,59.0
824.02905,241.0
824.35864,177.0
824.6884,683.0
825.0183,6035.0
825.3483,276.0
825.67847,236.0
826.0087,2637.0
826.3391,252.0
826.6696,105.0
827.0003,793.0
827.3311,183.0
827.66205,58.0
827.9931,258.0
828.3243,158.0
828.65564,60.0
828.9871,136.0
829.3187,184.0
829.65045,55.0
829.9823,108.0
830.3143,169.0
830.6464,53.0
830.9787,144.0
831.3111,183.0
831.6436,48.0
831.97626,114.0
832.309,169.0
832.64197,63.0
832.97504,143.0
833.3082,188.0
833.64154,59.0
833.975,134.0
834.3086,184.0
834.64233,56.0
834.9762,175.0
835.3102,173.0
835.6443,42.0
835.9785,144.0
836.3129,164.0
836.64746,74.0
836.9821,280.0
837.3169,166.0
837.6518,53.0
837.9869,164.0
838.3221,143.0
838.6574,89.0
838.99286,445.0
839.3284,150.0
839.6642,61.0
840.00006,284.0
840.33606,174.0
840.6722,183.0
841.0084,895.0
841.34485,193.0
841.6814,121.0
842.01807,516.0
842.35486,215.0
842.6918,74.0
843.0289,334.0
843.3661,177.0
843.7034,58.0
844.0409,204.0
844.37854,150.0
844.7163,94.0
845.0542,350.0
845.3922,435.0
845.73035,87.0
846.06866,207.0
846.4071,257.0
846.74567,122.0
847.08435,217.0
847.42316,145.0
847.76215,86.0
848.10126,190.0
848.4405,120.0
848.77985,70.0
849.1194,164.0
849.45905,122.0
849.7988,81.0
850.13873,183.0
850.47876,115.0
850.819,84.0
851.1593,191.0
851.49976,86.0
851.84033,75.0
852.1811,167.0
852.522,87.0
852.863,105.0
853.2041,182.0
853.5454,83.0
853.88684,116.0
854.2284,166.0
854.57007,68.0
854.9119,467.0
855.2539,163.0
855.596,74.0
855.93823,257.0
856.2806,181.0
856.6231,70.0
856.96576,253.0
857.30853,192.0
857.6514,65.0
857.9945,205.0
858.3377,166.0
858.681,68.0
859.0245,243.0
859.3681,159.0
859.71185,94.0
860.0557,173.0
860.3997,143.0
860.7439,640.0
861.0882,757.0
861.4326,187.0
861.77716,436.0
862.1219,307.0
862.46674,153.0
862.8117,268.0
863.15686,214.0
863.50214,105.0
863.84753,198.0
864.19305,197.0
864.53876,96.0
864.8846,159.0
865.2305,189.0
865.5766,80.0
865.92285,92.0
866.2692,187.0
866.6157,62.0
866.96234,310.0
867.30914,169.0
867.65607,57.0
868.0031,174.0
868.35034,132.0
868.6977,47.0
869.04517,143.0
869.39276,113.0
869.74054,61.0
870.08844,131.0
870.43646,110.0
870.7846,78.0
871.13293,137.0
871.4814,108.0
871.82996,76.0
872.1787,147.0
872.5276,80.0
872.8766,141.0
873.2257,169.0
873.575,60.0
873.92444,116.0
874.274,200.0
874.6237,44.0
874.9736,136.0
875.32355,168.0
875.6737,61.0
876.024,160.0
876.3744,189.0
876.7249,204.0
877.0756,273.0
877.42645,176.0
877.7774,165.0
878.12854,185.0
878.4798,109.0
878.8312,126.0
879.18274,171.0
879.5344,88.0
879.8862,115.0
880.23816,195.0
880.5903,52.0
880.9425,125.0
881.29486,170.0
881.6474,47.0
882.00006,145.0
882.35284,147.0
882.7058,79.0
883.0589,174.0
883.4121,145.0
883.7655,71.0
884.119,162.0
884.47266,103.0
884.8264,91.0
885.18036,144.0
885.5344,89.0
885.8886,83.0
886.243,152.0
886.5975,70.0
886.9521,97.0
887.3069,148.0
887.6618,49.0
888.01685,102.0
888.3721,141.0
888.7274,62.0
889.0829,152.0
889.43854,297.0
889.7943,77.0
890.1502,145.0
890.5063,196.0
890.8625,70.0
891.2188,181.0
891.5753,103.0
891.93195,112.0
892.2887,206.0
892.6456,77.0
893.0027,138.0
893.35986,177.0
893.7172,74.0
894.0747,151.0
894.4323,117.0
894.7901,100.0
895.148,140.0
895.50604,90.0
895.86426,89.0
896.2226,175.0
896.58105,46.0
896.9397,107.0
897.29846,146.0
897.6574,59.0
898.0165,109.0
898.3757,142.0
898.73505,69.0
899.09454,159.0
899.45416,99.0
899.81396,66.0
900.1739,170.0
900.53394,74.0
900.89417,87.0
901.2545,173.0
901.615,52.0
901.97565,106.0
902.3364,156.0
902.6974,50.0
903.0585,127.0
903.4197,165.0
903.78107,78.0
904.1426,185.0
904.5042,112.0
904.866,89.0
905.22797,227.0
905.5901,85.0
905.95233,106.0
906.3147,181.0
906.67725,48.0
907.0399,106.0
907.4027,147.0
907.7657,44.0
908.1288,139.0
908.49207,113.0
908.85547,81.0
909.219,161.0
909.5827,75.0
909.94653,88.0
910.3105,158.0
910.6746,65.0
911.0389,111.0
911.4033,121.0
911.7679,65.0
912.13257,158.0
912.49744,102.0
912.8624,70.0
913.2276,159.0
913.5929,72.0
913.9583,78.0
914.3239,139.0
914.68964,65.0
915.05554,111.0
915.4216,122.0
915.7877,60.0
916.15405,119.0
916.5205,142.0
916.88715,77.0
917.2539,174.0
917.6208,67.0
917.98785,91.0
918.35504,171.0
918.7224,56.0
919.0899,127.0
919.4575,110.0
919.8253,63.0
920.19324,197.0
920.56134,76.0
920.92957,109.0
921.2979,201.0
921.66644,47.0
922.0351,118.0
922.40393,147.0
922.7729,77.0
923.14197,129.0
923.5112,99.0
923.8806,92.0
924.2502,144.0
924.6199,73.0
924.98975,97.0
925.35974,129.0
925.72986,61.0
926.10016,156.0
926.4706,104.0
926.8412,90.0
927.2119,134.0
927.5828,70.0
927.95386,106.0
928.325,143.0
928.69635,77.0
929.0678,144.0
929.43945,145.0
929.8112,92.0
930.18317,173.0
930.55524,100.0
930.9274,90.0
931.2998,128.0
931.6723,48.0
932.045,106.0
932.4178,112.0
932.7908,51.0
933.1639,165.0
933.5372,170.0
933.9106,84.0
934.2841,210.0
934.65784,63.0
935.0317,109.0
935.4057,142.0
935.77985,42.0
936.1542,131.0
936.5286,80.0
936.90326,74.0
937.278,174.0
937.65295,66.0
938.028,109.0
938.4032,139.0
938.77856,62.0
939.15405,129.0
939.5297,78.0
939.9055,77.0
940.2815,122.0
940.6576,55.0
941.0339,103.0
941.4103,116.0
941.78687,69.0
942.1636,146.0
942.54047,81.0
942.9175,107.0
943.2947,135.0
943.672,59.0
944.04944,117.0
944.42706,119.0
944.8048,77.0
945.18274,146.0
945.5608,84.0
945.939,75.0
946.3174,127.0
946.6959,56.0
947.0746,109.0
947.4534,116.0
947.8324,80.0
948.21155,180.0
948.5908,77.0
948.9703,131.0
949.34985,166.0
949.7296,49.0
950.1095,124.0
950.48956,88.0
950.86975,65.0
951.2501,137.0
951.6306,63.0
952.0113,91.0
952.3921,109.0
952.7731,49.0
953.1542,131.0
953.53546,73.0
953.9169,86.0
954.29846,147.0
954.6802,53.0
955.0621,106.0
955.4441,135.0
955.8263,86.0
956.2086,130.0
956.5911,72.0
956.97375,77.0
957.35657,125.0
957.7395,52.0
958.1226,119.0
958.50586,107.0
958.8893,66.0
959.2728,119.0
959.65656,56.0
960.0404,105.0
960.42444,118.0
960.8086,65.0
961.19293,136.0
961.5774,55.0
961.96204,107.0
962.3468,150.0
962.73175,61.0
963.1168,116.0
963.5021,93.0
963.88745,112.0
964.273,159.0
964.6587,51.0
965.04456,110.0
965.4306,130.0
965.8168,74.0
966.2031,138.0
966.5896,68.0
966.97626,92.0
967.36304,128.0
967.75,63.0
968.1371,136.0
968.52435,102.0
968.91174,91.0
969.2993,153.0
969.687,67.0
970.0749,180.0
970.4629,136.0
970.8511,117.0
971.23944,160.0
971.6279,58.0
972.0166,117.0
972.4054,134.0
972.7944,57.0
973.1835,133.0
973.57275,93.0
973.96216,105.0
974.35175,154.0
974.7415,47.0
975.1314,132.0
975.5215,97.0
975.9117,80.0
976.30206,127.0
976.69257,39.0
977.08325,100.0
977.47406,175.0
977.86505,69.0
978.2562,138.0
978.6475,62.0
979.039,86.0
979.4306,127.0
979.8224,73.0
980.2143,155.0
980.6064,67.0
980.99866,88.0
981.39105,112.0
981.7836,82.0
982.17633,172.0
982.5692,82.0
982.9622,128.0
983.3554,110.0
983.7488,55.0
984.1423,134.0
984.53595,101.0
984.92975,84.0
985.3237,144.0
985.71783,68.0
986.1121,166.0
986.5066,91.0
986.9012,118.0
987.29596,150.0
987.69086,79.0
988.08594,147.0
988.4812,118.0
988.8766,100.0
989.27216,146.0
989.66785,63.0
990.0637,97.0
990.4597,93.0
990.8559,76.0
991.25226,142.0
991.64874,65.0
992.0454,183.0
992.4422,118.0
992.8392,115.0
993.2363,163.0
993.6336,68.0
994.03107,144.0
994.42865,108.0
994.8264,92.0
995.22437,134.0
995.62244,48.0
996.0207,116.0
996.4191,93.0
996.8177,54.0
997.21643,127.0
997.6153,52.0
998.01434,75.0
998.4136,127.0
998.8129,58.0
999.21246,129.0
999.6121,70.0
1000.01196,114.0
1000.412,145.0
1000.81213,77.0
1001.21246,163.0
1001.613,71.0
1002.0136,118.0
1002.4144,110.0
1002.81537,79.0
1003.2165,136.0
1003.6178,55.0
1004.0192,118.0
1004.42084,146.0
1004.82263,68.0
1005.22455,134.0
1005.62665,104.0
1006.0289,205.0
1006.4313,104.0
1006.83386,109.0
1007.2366,149.0
1007.63947,83.0
1008.04254,255.0
1008.44574,118.0
1008.8491,135.0
1009.2527,161.0
1009.6564,66.0
1010.06024,164.0
1010.4643,118.0
1010.86847,80.0
1011.2728,128.0
1011.6773,55.0
1012.082,150.0
1012.4868,117.0
1012.8918,99.0
1013.29694,108.0
1013.7023,133.0
1014.1077,341.0
1014.51337,109.0
1014.9192,226.0
1015.32513,153.0
1015.73126,85.0
1016.1376,159.0
1016.544,87.0
1016.9506,106.0
1017.3574,144.0
1017.76434,73.0
1018.17145,133.0
1018.57874,90.0
1018.98615,82.0
1019.39374,132.0
1019.8015,71.0
1020.2094,120.0
1020.6175,68.0
1021.02576,112.0
1021.43414,168.0
1021.8427,65.0
1022.25146,192.0
1022.66034,91.0
1023.0694,93.0
1023.47864,133.0
1023.888,102.0
1024.2976,119.0
1024.7073,67.0
1025.1172,117.0
1025.5272,101.0
1025.9374,103.0
1026.3478,150.0
1026.7583,61.0
1027.169,127.0
1027.5798,90.0
1027.9908,137.0
1028.4021,117.0
1028.8135,88.0
1029.225,120.0
1029.6367,154.0
1030.0486,417.0
1030.4606,114.0
1030.8728,284.0
1031.2852,137.0
1031.6976,88.0
1032.1104,158.0
1032.5232,97.0
1032.9362,103.0
1033.3494,131.0
1033.7627,111.0
1034.1761,141.0
1034.5898,88.0
1035.0037,101.0
1035.4177,111.0
1035.8319,108.0
1036.2462,113.0
1036.6608,77.0
1037.0754,129.0
1037.4902,116.0
1037.9053,110.0
1038.3204,137.0
1038.7357,54.0
1039.1512,102.0
1039.5669,105.0
1039.9827,67.0
1040.3987,98.0
1040.8148,54.0
1041.2312,131.0
1041.6477,66.0
1042.0643,102.0
1042.4812,119.0
1042.8982,81.0
1043.3153,131.0
1043.7327,80.0
1044.1501,125.0
1044.5677,99.0
1044.9856,98.0
1045.4036,117.0
1045.8218,98.0
1046.2401,138.0
1046.6586,61.0
1047.0773,102.0
1047.4961,111.0
1047.915,117.0
1048.3342,146.0
1048.7535,61.0
1049.1731,133.0
1049.5928,97.0
1050.0126,205.0
1050.4326,115.0
1050.8528,131.0
1051.2731,129.0
1051.6936,129.0
1052.1143,148.0
1052.5352,91.0
1052.9562,138.0
1053.3773,112.0
1053.7987,221.0
1054.2202,148.0
1054.6418,101.0
1055.0637,178.0
1055.4857,94.0
1055.908,136.0
1056.3303,151.0
1056.7528,78.0
1057.1755,138.0
1057.5984,106.0
1058.0215,109.0
1058.4447,139.0
1058.868,80.0
1059.2916,144.0
1059.7153,96.0
1060.1392,134.0
1060.5632,162.0
1060.9874,106.0
1061.4119,143.0
1061.8364,84.0
1062.2611,144.0
1062.686,61.0
1063.1111,99.0
1063.5364,94.0
1063.9618,72.0
1064.3873,124.0
1064.8131,62.0
1065.239,126.0
1065.6652,205.0
1066.0914,253.0
1066.5178,125.0
1066.9445,197.0
1067.3712,121.0
1067.7982,147.0
1068.2253,116.0
1068.6526,95.0
1069.0801,131.0
1069.5077,133.0
1069.9355,116.0
1070.3635,132.0
1070.7916,82.0
1071.22,109.0
1071.6484,132.0
1072.0771,188.0
1072.506,90.0
1072.9349,137.0
1073.3641,145.0
1073.7935,131.0
1074.223,144.0
1074.6527,87.0
1075.0825,107.0
1075.5126,109.0
1075.9427,109.0
1076.3732,133.0
1076.8037,75.0
1077.2344,121.0
1077.6653,97.0
1078.0963,118.0
1078.5276,101.0
1078.959,103.0
1079.3906,129.0
1079.8224,97.0
1080.2543,114.0
1080.6864,87.0
1081.1187,104.0
1081.5511,95.0
1081.9838,105.0
1082.4165,108.0
1082.8495,77.0
1083.2826,125.0
1083.716,68.0
1084.1494,109.0
1084.5831,90.0
1085.017,82.0
1085.4509,102.0
1085.8851,68.0
1086.3195,83.0
1086.754,69.0
1087.1887,125.0
1087.6235,109.0
1088.0586,93.0
1088.4938,99.0
1088.9292,70.0
1089.3647,102.0
1089.8005,85.0
1090.2365,171.0
1090.6725,80.0
1091.1088,137.0
1091.5452,131.0
1091.9818,105.0
1092.4186,146.0
1092.8556,70.0
1093.2927,132.0
1093.7301,76.0
1094.1676,93.0
1094.6052,97.0
1095.0431,100.0
1095.4811,108.0
1095.9193,123.0
1096.3577,120.0
1096.7963,80.0
1097.235,133.0
1097.6738,82.0
1098.1129,110.0
1098.5521,115.0
1098.9916,76.0
1099.4312,138.0
1099.871,89.0
1100.3109,139.0
1100.751,86.0
1101.1913,110.0
1101.6317,80.0
1102.0724,98.0
1102.5132,92.0
1102.9542,83.0
1103.3954,131.0
1103.8368,89.0
1104.2783,115.0
1104.72,63.0
1105.1619,103.0
1105.6039,96.0
1106.0461,99.0
1106.4885,110.0
1106.9312,77.0
1107.3739,121.0
1107.8169,63.0
1108.26,126.0
1108.7034,59.0
1109.1469,109.0
1109.5905,109.0
1110.0343,99.0
1110.4783,89.0
1110.9225,73.0
1111.3668,121.0
1111.8114,73.0
1112.2561,134.0
1112.701,72.0
1113.1461,111.0
1113.5914,101.0
1114.0369,77.0
1114.4824,112.0
1114.9282,76.0
1115.3741,110.0
1115.8203,67.0
1116.2666,103.0
1116.7131,66.0
1117.1598,114.0
1117.6067,82.0
1118.0537,91.0
1118.501,118.0
1118.9484,86.0
1119.396,106.0
1119.8438,64.0
1120.2917,109.0
1120.7399,58.0
1121.1881,99.0
1121.6366,92.0
1122.0852,93.0
1122.534,110.0
1122.983,70.0
1123.4323,98.0
1123.8816,76.0
1124.3312,111.0
1124.7809,61.0
1125.2308,114.0
1125.6809,71.0
1126.1312,93.0
1126.5817,94.0
1127.0323,87.0
1127.4832,107.0
1127.9342,71.0
1128.3854,108.0
1128.8367,56.0
1129.2882,122.0
1129.7399,71.0
1130.1918,99.0
1130.6438,73.0
1131.0961,103.0
1131.5485,110.0
1132.0011,86.0
1132.4539,129.0
1132.9069,65.0
1133.36,125.0
1133.8134,62.0
1134.2668,125.0
1134.7206,75.0
1135.1744,90.0
1135.6285,95.0
1136.0828,85.0
1136.5372,94.0
1136.9918,68.0
1137.4467,146.0
1137.9016,60.0
1138.3568,142.0
1138.8121,74.0
1139.2677,120.0
1139.7234,52.0
1140.1793,85.0
1140.6354,61.0
1141.0917,71.0
1141.5481,132.0
1142.0048,67.0
1142.4615,106.0
1142.9186,59.0
1143.3757,126.0
1143.8331,61.0
1144.2906,126.0
1144.7484,78.0
1145.2063,99.0
1145.6644,55.0
1146.1227,94.0
1146.5812,103.0
1147.0398,75.0
1147.4987,110.0
1147.9576,86.0
1148.4169,125.0
1148.8762,76.0
1149.3358,169.0
1149.7955,64.0
1150.2555,124.0
1150.7156,71.0
1151.1759,102.0
1151.6364,92.0
1152.097,97.0
1152.5579,88.0
1153.0189,85.0
1153.4801,127.0
1153.9415,88.0
1154.4031,117.0
1154.8649,79.0
1155.3268,123.0
1155.789,67.0
1156.2512,126.0
1156.7137,87.0
1157.1764,111.0
1157.6393,92.0
1158.1023,80.0
1158.5656,129.0
1159.0289,74.0
1159.4926,108.0
1159.9563,80.0
1160.4203,111.0
1160.8844,68.0
1161.3488,126.0
1161.8134,48.0
1162.2781,102.0
1162.743,72.0
1163.2081,120.0
1163.6735,79.0
1164.1389,90.0
1164.6046,119.0
1165.0704,76.0
1165.5365,108.0
1166.0027,84.0
1166.4691,115.0
1166.9357,58.0
1167.4025,115.0
1167.8694,60.0
1168.3365,114.0
1168.8038,56.0
1169.2714,117.0
1169.739,79.0
1170.2069,110.0
1170.675,89.0
1171.1433,111.0
1171.6118,106.0
1172.0804,80.0
1172.5493,103.0
1173.0183,93.0
1173.4875,140.0
1173.9569,80.0
1174.4265,136.0
1174.8962,76.0
1175.3662,135.0
1175.8363,50.0
1176.3066,136.0
1176.7772,63.0
1177.2479,122.0
1177.7189,74.0
1178.19,111.0
1178.6613,77.0
1179.1327,104.0
1179.6044,92.0
1180.0762,74.0
1180.5482,117.0
1181.0204,87.0
1181.4928,108.0
1181.9655,78.0
1182.4382,113.0
1182.9113,74.0
1183.3844,132.0
1183.8578,59.0
1184.3313,104.0
1184.805,72.0
1185.2789,135.0
1185.753,81.0
1186.2273,107.0
1186.7018,100.0
1187.1765,94.0
1187.6514,84.0
1188.1265,92.0
1188.6017,113.0
1189.0771,87.0
1189.5527,76.0
1190.0286,88.0
1190.5045,121.0
1190.9807,87.0
1191.4572,109.0
1191.9337,53.0
1192.4105,135.0
1192.8875,75.0
1193.3646,165.0
1193.8419,61.0
1194.3195,100.0
1194.7972,84.0
1195.2751,116.0
1195.7533,81.0
1196.2316,96.0
1196.7101,88.0
1197.1887,100.0
1197.6676,112.0
1198.1467,103.0
1198.626,105.0
1199.1055,103.0
1199.5851,120.0
1200.065,94.0
1200.5449,94.0
1201.0251,67.0
1201.5056,104.0
1201.9862,59.0
1202.467,91.0
1202.948,77.0
1203.4292,106.0
1203.9105,59.0
1204.3921,113.0
1204.8739,90.0
1205.3558,112.0
1205.838,55.0
1206.3203,114.0
1206.8029,73.0
1207.2855,120.0
1207.7684,74.0
1208.2516,109.0
1208.7349,57.0
1209.2184,111.0
1209.702,78.0
1210.1859,109.0
1210.67,83.0
1211.1543,94.0
1211.6388,102.0
1212.1234,75.0
1212.6083,88.0
1213.0933,94.0
1213.5785,86.0
1214.064,74.0
1214.5496,91.0
1215.0354,93.0
1215.5214,98.0
1216.0076,77.0
1216.494,133.0
1216.9806,70.0
1217.4674,112.0
1217.9543,66.0
1218.4415,94.0
1218.929,113.0
1219.4165,120.0
1219.9043,82.0
1220.3922,126.0
1220.8804,76.0
1221.3688,133.0
1221.8573,75.0
1222.3461,105.0
1222.835,91.0
1223.3241,110.0
1223.8135,74.0
1224.303,114.0
1224.7927,97.0
1225.2826,127.0
1225.7727,70.0
1226.2631,106.0
1226.7535,73.0
1227.2443,115.0
1227.7351,81.0
1228.2262,77.0
1228.7175,82.0
1229.209,108.0
1229.7007,90.0
1230.1925,86.0
1230.6846,83.0
1231.1769,87.0
1231.6693,90.0
1232.162,97.0
1232.6549,91.0
1233.148,99.0
1233.6412,91.0
1234.1346,90.0
1234.6283,94.0
1235.1222,113.0
1235.6162,87.0
1236.1105,78.0
1236.6049,108.0
1237.0995,74.0
1237.5944,106.0
1238.0894,84.0
1238.5846,109.0
1239.0801,83.0
1239.5757,73.0
1240.0715,93.0
1240.5675,132.0
1241.0637,127.0
1241.5602,111.0
1242.0568,102.0
1242.5536,91.0
1243.0507,134.0
1243.5479,129.0
1244.0453,97.0
1244.5428,92.0
1245.0406,80.0
1245.5387,104.0
1246.0369,81.0
1246.5353,160.0
1247.0339,157.0
1247.5327,136.0
1248.0317,114.0
1248.531,130.0
1249.0304,114.0
1249.53,134.0
1250.0298,90.0
1250.5298,112.0
1251.03,85.0
1251.5304,96.0
1252.031,84.0
1252.5319,115.0
1253.0328,65.0
1253.534,89.0
1254.0355,77.0
1254.5371,85.0
1255.039,95.0
1255.541,108.0
1256.0432,77.0
1256.5457,89.0
1257.0482,88.0
1257.551,116.0
1258.0541,88.0
1258.5573,115.0
1259.0607,72.0
1259.5643,103.0
1260.0681,69.0
1260.5721,116.0
1261.0764,176.0
1261.5808,106.0
1262.0854,159.0
1262.5903,113.0
1263.0953,151.0
1263.6006,124.0
1264.1061,112.0
1264.6117,115.0
1265.1176,119.0
1265.6237,97.0
1266.1299,101.0
1266.6364,113.0
1267.1431,109.0
1267.6499,122.0
1268.157,91.0
1268.6642,98.0
1269.1716,85.0
1269.6793,113.0
1270.1871,82.0
1270.6952,99.0
1271.2035,99.0
1271.7119,98.0
1272.2206,75.0
1272.7295,80.0
1273.2385,88.0
1273.7478,74.0
1274.2573,99.0
1274.767,77.0
1275.2769,102.0
1275.787,73.0
1276.2972,102.0
1276.8077,115.0
1277.3185,137.0
1277.8295,128.0
1278.3406,115.0
1278.8519,158.0
1279.3635,118.0
1279.8752,114.0
1280.3872,117.0
1280.8994,90.0
1281.4117,101.0
1281.9243,84.0
1282.4371,105.0
1282.9501,117.0
1283.4633,109.0
1283.9767,86.0
1284.4902,109.0
1285.004,111.0
1285.5181,110.0
1286.0322,119.0
1286.5466,103.0
1287.0613,63.0
1287.576,138.0
1288.0911,70.0
1288.6063,142.0
1289.1218,113.0
1289.6375,123.0
1290.1533,88.0
1290.6694,109.0
1291.1857,94.0
1291.7021,89.0
1292.2189,107.0
1292.7357,96.0
1293.2528,104.0
1293.7701,81.0
1294.2876,101.0
1294.8053,77.0
1295.3232,101.0
1295.8414,62.0
1296.3597,104.0
1296.8783,75.0
1297.3971,91.0
1297.916,70.0
1298.4352,95.0
1298.9546,82.0
1299.4741,101.0
1299.9939,59.0
1300.5139,114.0
1301.0342,85.0
1301.5546,132.0
1302.0752,78.0
1302.5961,103.0
1303.1171,84.0
1303.6383,106.0
1304.1598,100.0
1304.6814,104.0
1305.2032,98.0
1305.7253,110.0
1306.2477,107.0
1306.7701,96.0
1307.2928,84.0
1307.8158,73.0
1308.3389,102.0
1308.8622,72.0
1309.3857,98.0
1309.9095,52.0
1310.4335,115.0
1310.9576,57.0
1311.482,110.0
1312.0066,66.0
1312.5314,88.0
1313.0564,75.0
1313.5817,98.0
1314.107,85.0
1314.6327,73.0
1315.1586,92.0
1315.6847,109.0
1316.2109,80.0
1316.7374,87.0
1317.2642,100.0
1317.791,68.0
1318.3181,120.0
1318.8455,46.0
1319.373,112.0
1319.9008,47.0
1320.4287,90.0
1320.9569,78.0
1321.4854,78.0
1322.0139,74.0
1322.5427,88.0
1323.0718,70.0
1323.601,95.0
1324.1304,85.0
1324.66,94.0
1325.19,79.0
1325.72,72.0
1326.2502,95.0
1326.7808,91.0
1327.3115,89.0
1327.8424,81.0
1328.3735,101.0
1328.9049,58.0
1329.4365,108.0
1329.9683,73.0
1330.5002,117.0
1331.0325,60.0
1331.565,137.0
1332.0975,69.0
1332.6304,99.0
1333.1635,86.0
1333.6968,100.0
1334.2302,95.0
1334.7639,84.0
1335.2979,74.0
1335.832,69.0
1336.3663,96.0
1336.9009,77.0
1337.4357,113.0
1337.9707,57.0
1338.5059,91.0
1339.0413,78.0
1339.5769,85.0
1340.1128,62.0
1340.6488,106.0
1341.185,73.0
1341.7216,78.0
1342.2583,99.0
1342.7952,87.0
1343.3323,102.0
1343.8696,69.0
1344.4072,99.0
1344.945,53.0
1345.4829,98.0
1346.0211,77.0
1346.5596,121.0
1347.0981,74.0
1347.637,122.0
1348.176,93.0
1348.7153,80.0
1349.2548,106.0
1349.7944,87.0
1350.3344,129.0
1350.8745,78.0
1351.4149,80.0
1351.9554,65.0
1352.4962,104.0
1353.0372,68.0
1353.5785,91.0
1354.1199,62.0
1354.6615,93.0
1355.2034,66.0
1355.7455,88.0
1356.2878,115.0
1356.8303,56.0
1357.373,105.0
1357.916,53.0
1358.4592,102.0
1359.0026,63.0
1359.5461,78.0
1360.09,66.0
1360.634,106.0
1361.1783,71.0
1361.7228,104.0
1362.2675,88.0
1362.8124,81.0
1363.3575,110.0
1363.9028,78.0
1364.4484,110.0
1364.9941,70.0
1365.5402,87.0
1366.0864,84.0
1366.6328,88.0
1367.1794,84.0
1367.7263,96.0
1368.2734,73.0
1368.8208,53.0
1369.3683,96.0
1369.916,62.0
1370.464,102.0
1371.0122,74.0
1371.5607,103.0
1372.1093,78.0
1372.6581,112.0
1373.2072,101.0
1373.7565,85.0
1374.306,112.0
1374.8557,73.0
1375.4056,136.0
1375.9558,75.0
1376.5062,128.0
1377.0569,58.0
1377.6077,119.0
1378.1587,82.0
1378.71,98.0
1379.2615,106.0
1379.8132,64.0
1380.3651,111.0
1380.9172,80.0
1381.4696,75.0
1382.0222,67.0
1382.5751,97.0
1383.128,72.0
1383.6813,108.0
1384.2347,103.0
1384.7885,76.0
1385.3424,108.0
1385.8965,75.0
1386.4508,80.0
1387.0054,69.0
1387.5602,100.0
1388.1152,59.0
1388.6705,87.0
1389.226,103.0
1389.7816,71.0
1390.3375,119.0
1390.8937,76.0
1391.4501,124.0
1392.0067,63.0
1392.5635,101.0
1393.1205,60.0
1393.6777,72.0
1394.2352,84.0
1394.793,75.0
1395.3508,107.0
1395.9089,69.0
1396.4673,113.0
1397.0259,71.0
1397.5847,105.0
1398.1438,76.0
1398.703,95.0
1399.2625,100.0
1399.8221,80.0
1400.3821,96.0
1400.9423,72.0
1401.5027,100.0
1402.0632,70.0
1402.624,92.0
1403.185,76.0
1403.7463,103.0
1404.3079,112.0
1404.8696,75.0
1405.4315,139.0
1405.9937,61.0
1406.556,112.0
1407.1187,85.0
1407.6815,100.0
1408.2446,85.0
1408.808,99.0
1409.3715,91.0
1409.9352,57.0
1410.4991,99.0
1411.0634,85.0
1411.6278,89.0
1412.1925,71.0
1412.7573,104.0
1413.3224,116.0
1413.8877,91.0
1414.4532,104.0
1415.019,46.0
1415.5851,104.0
1416.1514,77.0
1416.7178,83.0
1417.2844,107.0
1417.8513,79.0
1418.4185,95.0
1418.9858,60.0
1419.5535,101.0
1420.1213,81.0
1420.6893,94.0
1421.2576,93.0
1421.826,85.0
1422.3948,126.0
1422.9637,66.0
1423.533,143.0
1424.1024,72.0
1424.672,95.0
1425.2418,90.0
1425.8119,88.0
1426.3822,109.0
1426.9528,77.0
1427.5236,91.0
1428.0946,73.0
1428.6659,89.0
1429.2373,95.0
1429.809,83.0
1430.3809,106.0
1430.953,61.0
1431.5254,123.0
1432.098,95.0
1432.6709,119.0
1433.244,98.0
1433.8173,97.0
1434.3907,102.0
1434.9645,78.0
1435.5385,134.0
1436.1127,95.0
1436.6871,125.0
1437.2618,102.0
1437.8368,83.0
1438.412,83.0
1438.9873,75.0
1439.5629,102.0
1440.1387,73.0
1440.7147,107.0
1441.291,93.0
1441.8676,74.0
1442.4443,104.0
1443.0214,72.0
1443.5985,89.0
1444.1759,81.0
1444.7535,75.0
1445.3314,118.0
1445.9095,66.0
1446.4879,108.0
1447.0665,74.0
1447.6454,94.0
1448.2245,76.0
1448.8038,85.0
1449.3833,106.0
1449.963,87.0
1450.543,103.0
1451.1232,99.0
1451.7036,137.0
1452.2843,104.0
1452.8652,96.0
1453.4464,103.0
1454.0278,110.0
1454.6095,92.0
1455.1913,97.0
1455.7733,117.0
1456.3556,118.0
1456.9381,75.0
1457.5209,98.0
1458.1039,79.0
1458.6871,78.0
1459.2706,117.0
1459.8544,91.0
1460.4384,99.0
1461.0226,60.0
1461.6069,132.0
1462.1915,92.0
1462.7764,127.0
1463.3615,116.0
1463.9468,74.0
1464.5323,114.0
1465.1182,81.0
1465.7042,93.0
1466.2905,103.0
1466.8771,81.0
1467.4639,114.0
1468.0509,67.0
1468.6382,90.0
1469.2256,82.0
1469.8132,82.0
1470.4011,123.0
1470.9893,69.0
1471.5776,110.0
1472.1663,85.0
1472.7551,79.0
1473.3442,96.0
1473.9336,66.0
1474.5232,124.0
1475.113,76.0
1475.7031,121.0
1476.2935,102.0
1476.884,102.0
1477.4747,105.0
1478.0657,94.0
1478.6569,118.0
1479.2483,90.0
1479.84,91.0
1480.4319,96.0
1481.024,72.0
1481.6165,102.0
1482.2091,107.0
1482.802,85.0
1483.3951,101.0
1483.9885,81.0
1484.5822,97.0
1485.176,87.0
1485.7701,96.0
1486.3645,78.0
1486.9591,71.0
1487.5538,89.0
1488.1488,84.0
1488.744,103.0
1489.3395,86.0
1489.9352,77.0
1490.5311,99.0
1491.1273,87.0
1491.7238,105.0
1492.3204,92.0
1492.9174,59.0
1493.5145,99.0
1494.1119,70.0
1494.7096,104.0
1495.3075,119.0
1495.9056,101.0
1496.504,136.0
1497.1027,76.0
1497.7015,110.0
1498.3007,100.0
1498.9,61.0
1499.4996,97.0
1500.0995,73.0
1500.6996,91.0
1501.2998,78.0
1501.9003,90.0
1502.501,106.0
1503.1019,75.0
1503.7031,101.0
1504.3046,82.0
1504.9062,75.0
1505.5082,116.0
1506.1104,77.0
1506.7128,96.0
1507.3154,105.0
1507.9183,74.0
1508.5215,111.0
1509.1249,68.0
1509.7285,86.0
1510.3324,95.0
1510.9365,75.0
1511.5409,97.0
1512.1455,94.0
1512.7504,317.0
1513.3555,242.0
1513.9608,139.0
1514.5664,173.0
1515.1722,74.0
1515.7783,131.0
1516.3846,122.0
1516.9912,73.0
1517.598,95.0
1518.2051,81.0
1518.8124,89.0
1519.4199,90.0
1520.0277,74.0
1520.6357,93.0
1521.244,83.0
1521.8525,81.0
1522.4613,71.0
1523.0703,77.0
1523.6796,96.0
1524.2891,80.0
1524.8988,78.0
1525.5088,129.0
1526.119,82.0
1526.7295,115.0
1527.3402,104.0
1527.9512,53.0
1528.5624,97.0
1529.1738,64.0
1529.7855,75.0
1530.3975,92.0
1531.0096,55.0
1531.6221,99.0
1532.2347,59.0
1532.8477,67.0
1533.4608,92.0
1534.0742,66.0
1534.6879,93.0
1535.3018,78.0
1535.9159,83.0
1536.5303,118.0
1537.1449,66.0
1537.7598,104.0
1538.3749,87.0
1538.9902,73.0
1539.6058,96.0
1540.2217,69.0
1540.8378,70.0
1541.4541,101.0
1542.0707,67.0
1542.6875,103.0
1543.3046,89.0
1543.9219,63.0
1544.5394,102.0
1545.1572,68.0
1545.7753,100.0
1546.3936,94.0
1547.0121,67.0
1547.6309,105.0
1548.2499,80.0
1548.8691,68.0
1549.4886,103.0
1550.1084,67.0
1550.7284,93.0
1551.3486,104.0
1551.9691,72.0
1552.5898,116.0
1553.2109,90.0
1553.8323,106.0
1554.4539,101.0
1555.0757,79.0
1555.6978,93.0
1556.3201,72.0
1556.9426,67.0
1557.5654,113.0
1558.1885,73.0
1558.8118,96.0
1559.4353,106.0
1560.0591,86.0
1560.6831,117.0
1561.3074,93.0
1561.9319,63.0
1562.5566,97.0
1563.1816,98.0
1563.8069,70.0
1564.4324,97.0
1565.0581,59.0
1565.6841,72.0
1566.3103,73.0
1566.9368,75.0
1567.5636,73.0
1568.1907,79.0
1568.818,85.0
1569.4456,117.0
1570.0734,62.0
1570.7014,99.0
1571.3297,102.0
1571.9583,52.0
1572.587,84.0
1573.2161,79.0
1573.8453,85.0
1574.4749,91.0
1575.1046,60.0
1575.7346,96.0
1576.3649,104.0
1576.9954,67.0
1577.6261,71.0
1578.2572,65.0
1578.8885,78.0
1579.5201,89.0
1580.152,83.0
1580.784,88.0
1581.4164,93.0
1582.049,66.0
1582.6818,109.0
1583.3148,90.0
1583.9481,71.0
1584.5817,73.0
1585.2155,85.0
1585.8495,89.0
1586.4839,109.0
1587.1185,76.0
1587.7534,102.0
1588.3885,101.0
1589.0239,78.0
1589.6595,101.0
1590.2954,98.0
1590.9315,71.0
1591.5679,84.0
1592.2045,65.0
1592.8413,80.0
1593.4784,87.0
1594.1158,59.0
1594.7535,94.0
1595.3915,101.0
1596.0297,54.0
1596.6681,109.0
1597.3068,80.0
1597.9457,65.0
1598.5848,108.0
1599.2242,84.0
1599.8639,84.0
1600.5038,81.0
1601.144,53.0
1601.7845,92.0
1602.4253,120.0
1603.0663,77.0
1603.7075,97.0
1604.349,91.0
1604.9907,73.0
1605.6327,106.0
1606.2749,79.0
1606.9174,71.0
1607.5602,94.0
1608.2032,68.0
1608.8466,72.0
1609.4901,88.0
1610.1339,75.0
1610.778,58.0
1611.4222,81.0
1612.0668,67.0
1612.7115,99.0
1613.3567,110.0
1614.0021,70.0
1614.6477,99.0
1615.2936,88.0
1615.9397,88.0
1616.586,94.0
1617.2327,88.0
1617.8795,72.0
1618.5266,92.0
1619.1741,98.0
1619.8218,90.0
1620.4697,98.0
1621.1179,76.0
1621.7664,94.0
1622.415,87.0
1623.064,76.0
1623.7131,98.0
1624.3627,100.0
1625.0125,67.0
1625.6625,96.0
1626.3127,92.0
1626.9633,64.0
1627.614,76.0
1628.265,88.0
1628.9163,88.0
1629.5679,122.0
1630.2197,82.0
1630.8718,97.0
1631.5242,98.0
1632.1768,70.0
1632.8296,81.0
1633.4827,88.0
1634.1361,83.0
1634.7898,85.0
1635.4437,71.0
1636.0979,69.0
1636.7523,84.0
1637.407,82.0
1638.0619,67.0
1638.7172,106.0
1639.3727,99.0
1640.0284,92.0
1640.6844,109.0
1641.3407,98.0
1641.9972,69.0
1642.6539,91.0
1643.311,79.0
1643.9684,72.0
1644.626,188.0
1645.2838,171.0
1645.9419,100.0
1646.6002,136.0
1647.2589,105.0
1647.9178,106.0
1648.577,118.0
1649.2365,91.0
1649.8961,71.0
1650.556,83.0
1651.2163,86.0
1651.8768,73.0
1652.5376,99.0
1653.1986,75.0
1653.8599,68.0
1654.5214,78.0
1655.1832,60.0
1655.8453,84.0
1656.5077,89.0
1657.1703,69.0
1657.8331,105.0
1658.4962,92.0
1659.1597,75.0
1659.8234,75.0
1660.4873,100.0
1661.1515,59.0
1661.8159,90.0
1662.4806,92.0
1663.1456,76.0
1663.8109,87.0
1664.4764,92.0
1665.1422,69.0
1665.8082,80.0
1666.4746,100.0
1667.1412,72.0
1667.8081,87.0
1668.4752,99.0
1669.1426,51.0
1669.8102,86.0
1670.4781,92.0
1671.1464,58.0
1671.8148,77.0
1672.4835,84.0
1673.1525,73.0
1673.8218,102.0
1674.4913,101.0
1675.1611,66.0
1675.8312,73.0
1676.5015,101.0
1677.1721,84.0
1677.843,81.0
1678.5142,89.0
1679.1855,70.0
1679.8572,73.0
1680.5292,80.0
1681.2014,63.0
1681.8739,83.0
1682.5466,97.0
1683.2196,82.0
1683.893,104.0
1684.5665,91.0
1685.2404,81.0
1685.9144,86.0
1686.5887,94.0
1687.2634,70.0
1687.9384,77.0
1688.6135,89.0
1689.289,73.0
1689.9646,72.0
1690.6406,75.0
1691.3169,87.0
1691.9934,53.0
1692.6702,72.0
1693.3473,70.0
1694.0247,65.0
1694.7023,85.0
1695.3801,88.0
1696.0582,68.0
1696.7367,98.0
1697.4154,83.0
1698.0944,58.0
1698.7736,98.0
1699.4531,108.0
1700.1329,79.0
1700.813,88.0
1701.4933,117.0
1702.1738,101.0
1702.8547,94.0
1703.5359,89.0
1704.2173,61.0
1704.8989,95.0
1705.5809,101.0
1706.2632,81.0
1706.9457,94.0
1707.6284,102.0
1708.3115,71.0
1708.9949,74.0
1709.6785,92.0
1710.3623,85.0
1711.0465,57.0
1711.731,83.0
1712.4156,83.0
1713.1006,54.0
1713.7858,77.0
1714.4713,90.0
1715.1571,74.0
1715.8431,80.0
1716.5294,83.0
1717.2161,66.0
1717.903,81.0
1718.5901,80.0
1719.2775,88.0
1719.9652,62.0
1720.6532,90.0
1721.3414,90.0
1722.0299,74.0
1722.7188,105.0
1723.4078,83.0
1724.0972,75.0
1724.7869,80.0
1725.4768,98.0
1726.167,71.0
1726.8574,66.0
1727.5482,113.0
1728.2393,66.0
1728.9305,88.0
1729.6221,100.0
1730.314,83.0
1731.0061,77.0
1731.6985,101.0
1732.3911,81.0
1733.0841,71.0
1733.7773,94.0
1734.4708,87.0
1735.1647,63.0
1735.8588,66.0
1736.5531,74.0
1737.2477,68.0
1737.9426,85.0
1738.6378,82.0
1739.3333,76.0
1740.0289,58.0
1740.725,90.0
1741.4213,76.0
1742.1178,70.0
1742.8147,77.0
1743.5118,79.0
1744.2092,51.0
1744.9069,89.0
1745.6049,95.0
1746.3031,85.0
1747.0016,68.0
1747.7004,92.0
1748.3995,96.0
1749.0989,49.0
1749.7985,65.0
1750.4984,94.0
1751.1986,78.0
1751.899,68.0
1752.5999,86.0
1753.3009,80.0
1754.0022,73.0
1754.7039,86.0
1755.4058,95.0
1756.1079,61.0
1756.8103,66.0
1757.5131,81.0
1758.2161,70.0
1758.9193,90.0
1759.6229,77.0
1760.3268,80.0
1761.0309,61.0
1761.7354,79.0
1762.4401,56.0
1763.145,57.0
1763.8502,85.0
1764.5558,106.0
1765.2616,74.0
1765.9677,90.0
1766.6741,76.0
1767.3807,78.0
1768.0876,65.0
1768.7949,76.0
1769.5024,82.0
1770.2102,56.0
1770.9183,78.0
1771.6267,115.0
1772.3353,67.0
1773.0443,75.0
1773.7535,84.0
1774.463,83.0
1775.1729,65.0
1775.8829,65.0
1776.5933,76.0
1777.304,71.0
1778.0149,65.0
1778.7261,90.0
1779.4376,92.0
1780.1494,63.0
1780.8615,79.0
1781.5739,99.0
1782.2865,68.0
1782.9994,77.0
1783.7126,84.0
1784.4261,77.0
1785.1399,68.0
1785.854,84.0
1786.5684,98.0
1787.283,74.0
1787.9979,74.0
1788.7131,100.0
1789.4286,87.0
1790.1444,75.0
1790.8605,79.0
1791.5768,109.0
1792.2935,78.0
1793.0104,76.0
1793.7275,81.0
1794.4451,85.0
1795.1628,53.0
1795.8809,90.0
1796.5992,79.0
1797.3179,51.0
1798.0367,65.0
1798.756,93.0
1799.4755,77.0
1800.1953,72.0
1800.9154,72.0
1801.6357,89.0
1802.3564,82.0
1803.0774,71.0
1803.7986,86.0
1804.5201,86.0
1805.242,73.0
1805.964,138.0
1806.6864,147.0
1807.409,104.0
1808.1321,73.0
1808.8553,109.0
1809.5789,103.0
1810.3027,87.0
1811.0269,112.0
1811.7512,93.0
1812.476,80.0
1813.2009,69.0
1813.9261,73.0
1814.6517,102.0
1815.3776,80.0
1816.1038,83.0
1816.8302,109.0
1817.5569,75.0
1818.2839,71.0
1819.0112,77.0
1819.7389,71.0
1820.4668,79.0
1821.195,63.0
1821.9235,70.0
1822.6522,86.0
1823.3812,90.0
1824.1106,81.0
1824.8402,80.0
1825.5702,90.0
1826.3004,67.0
1827.0309,69.0
1827.7617,125.0
1828.4928,96.0
1829.2242,80.0
1829.9559,69.0
1830.6879,82.0
1831.4202,83.0
1832.1527,69.0
1832.8856,75.0
1833.6188,80.0
1834.3522,79.0
1835.0859,64.0
1835.82,89.0
1836.5543,99.0
1837.289,66.0
1838.0238,83.0
1838.759,110.0
1839.4945,87.0
1840.2303,96.0
1840.9664,103.0
1841.7028,113.0
1842.4395,94.0
1843.1764,59.0
1843.9137,84.0
1844.6512,92.0
1845.3892,88.0
1846.1273,72.0
1846.8657,91.0
1847.6045,86.0
1848.3435,67.0
1849.0829,72.0
1849.8225,69.0
1850.5624,88.0
1851.3026,72.0
1852.0431,81.0
1852.7839,94.0
1853.525,98.0
1854.2665,72.0
1855.0082,102.0
1855.7501,96.0
1856.4924,87.0
1857.235,113.0
1857.9779,169.0
1858.7211,186.0
1859.4646,176.0
1860.2084,87.0
1860.9525,107.0
1861.6969,118.0
1862.4415,98.0
1863.1865,78.0
1863.9318,83.0
1864.6774,84.0
1865.4232,86.0
1866.1694,81.0
1866.9159,77.0
1867.6627,102.0
1868.4098,89.0
1869.1571,83.0
1869.9048,81.0
1870.6527,93.0
1871.401,91.0
1872.1495,67.0
1872.8984,91.0
1873.6476,137.0
1874.3971,77.0
1875.1469,89.0
1875.8969,134.0
1876.6472,110.0
1877.3978,84.0
1878.1488,79.0
1878.9,100.0
1879.6516,97.0
1880.4034,83.0
1881.1556,71.0
1881.9081,92.0
1882.6609,87.0
1883.414,88.0
1884.1674,106.0
1884.921,314.0
1885.675,382.0
1886.4293,232.0
1887.1838,122.0
1887.9387,146.0
1888.6938,114.0
1889.4493,103.0
1890.2051,76.0
1890.9612,80.0
1891.7175,106.0
1892.4742,80.0
1893.2312,62.0
1893.9885,73.0
1894.7461,108.0
1895.504,101.0
1896.2622,80.0
1897.0208,124.0
1897.7795,156.0
1898.5387,102.0
1899.2981,76.0
1900.0579,81.0
1900.8179,102.0
1901.5782,93.0
1902.3389,84.0
1903.0999,61.0
1903.8611,73.0
1904.6227,92.0
1905.3845,70.0
1906.1467,47.0
1906.9092,92.0
1907.672,90.0
1908.435,84.0
1909.1985,74.0
1909.9622,72.0
1910.7262,94.0
1911.4905,105.0
1912.2551,76.0
1913.02,88.0
1913.7853,361.0
1914.5508,363.0
1915.3167,181.0
1916.0828,236.0
1916.8492,129.0
1917.616,112.0
1918.383,97.0
1919.1504,81.0
1919.9181,83.0
1920.686,74.0
1921.4543,86.0
1922.2229,69.0
1922.9918,73.0
1923.761,94.0
1924.5305,71.0
1925.3003,61.0
1926.0704,60.0
1926.8408,70.0
1927.6116,88.0
1928.3826,73.0
1929.1539,70.0
1929.9255,80.0
1930.6975,73.0
1931.4698,91.0
1932.2424,60.0
1933.0154,66.0
1933.7886,81.0
1934.5621,79.0
1935.3359,75.0
1936.1101,88.0
1936.8845,100.0
1937.6593,99.0
1938.4343,80.0
1939.2097,76.0
1939.9854,80.0
1940.7614,63.0
1941.5376,70.0
1942.3142,60.0
1943.0912,64.0
1943.8684,70.0
1944.646,81.0
1945.4238,71.0
1946.202,74.0
1946.9805,59.0
1947.7593,73.0
1948.5383,76.0
1949.3177,57.0
1950.0975,51.0
1950.8776,93.0
1951.658,79.0
1952.4386,61.0
1953.2196,64.0
1954.0009,55.0
1954.7825,76.0
1955.5643,76.0
1956.3466,82.0
1957.1292,81.0
1957.912,68.0
1958.6952,80.0
1959.4786,80.0
1960.2625,67.0
1961.0465,70.0
1961.8309,88.0
1962.6157,76.0
1963.4008,77.0
1964.1862,79.0
1964.9718,85.0
1965.7578,81.0
1966.5441,105.0
1967.3307,81.0
1968.1177,82.0
1968.9049,91.0
1969.6925,91.0
1970.4803,83.0
1971.2686,68.0
1972.057,71.0
1972.8458,79.0
1973.635,86.0
1974.4244,81.0
1975.2142,57.0
1976.0043,71.0
1976.7947,91.0
1977.5854,80.0
1978.3765,73.0
1979.1678,67.0
1979.9595,67.0
1980.7515,65.0
1981.5438,80.0
1982.3364,74.0
1983.1294,78.0
1983.9226,74.0
1984.7162,87.0
1985.5101,97.0
1986.3043,61.0
1987.0989,67.0
1987.8937,74.0
1988.6888,76.0
1989.4844,74.0
1990.2802,61.0
1991.0763,69.0
1991.8727,89.0
1992.6694,91.0
1993.4666,78.0
1994.2639,93.0
1995.0616,80.0
1995.8596,102.0
1996.658,94.0
1997.4567,73.0
1998.2556,58.0
1999.0549,69.0
1999.8546,94.0
2000.6545,80.0
2001.4548,67.0
2002.2554,75.0
2003.0563,72.0
2003.8575,65.0
2004.659,89.0
2005.4609,83.0
2006.2631,55.0
2007.0656,61.0
2007.8684,75.0
2008.6715,90.0
2009.475,106.0
2010.2788,99.0
2011.0829,111.0
2011.8873,158.0
2012.6921,140.0
2013.4972,108.0
2014.3026,90.0
2015.1083,99.0
2015.9143,101.0
2016.7207,97.0
2017.5273,90.0
2018.3344,68.0
2019.1417,70.0
2019.9493,69.0
2020.7573,84.0
2021.5657,68.0
2022.3743,83.0
2023.1832,64.0
2023.9926,80.0
2024.8021,85.0
2025.612,95.0
2026.4224,78.0
2027.2329,64.0
2028.0438,82.0
2028.855,83.0
2029.6665,115.0
2030.4784,83.0
2031.2905,87.0
2032.103,54.0
2032.9159,82.0
2033.729,80.0
2034.5425,105.0
2035.3563,76.0
2036.1704,81.0
2036.9849,71.0
2037.7997,83.0
2038.6147,88.0
2039.4302,63.0
2040.246,62.0
2041.062,69.0
2041.8784,74.0
2042.6952,81.0
2043.5123,65.0
2044.3297,65.0
2045.1475,66.0
2045.9656,71.0
2046.7839,85.0
2047.6027,69.0
2048.4216,84.0
2049.241,90.0
2050.0605,75.0
2050.8806,73.0
2051.701,105.0
2052.5217,106.0
2053.3428,76.0
2054.164,93.0
2054.9858,92.0
2055.8079,109.0
2056.6301,95.0
2057.453,86.0
2058.276,67.0
2059.099,63.0
2059.9229,75.0
2060.7468,86.0
2061.571,86.0
2062.3958,96.0
2063.2207,66.0
2064.046,88.0
2064.8716,85.0
2065.6975,104.0
2066.5237,79.0
2067.3503,68.0
2068.1772,85.0
2069.0046,84.0
2069.8323,86.0
2070.6602,90.0
2071.4885,88.0
2072.3171,57.0
2073.146,83.0
2073.9753,80.0
2074.805,79.0
2075.6348,72.0
2076.465,90.0
2077.2957,72.0
2078.1265,63.0
2078.9578,76.0
2079.7893,89.0
2080.6213,72.0
2081.4536,96.0
2082.2861,85.0
2083.1191,96.0
2083.9524,104.0
2084.786,119.0
2085.6199,98.0
2086.454,75.0
2087.2886,64.0
2088.1235,72.0
2088.9587,84.0
2089.7944,91.0
2090.6304,76.0
2091.4666,75.0
2092.3032,70.0
2093.1401,70.0
2093.9773,71.0
2094.815,86.0
2095.6528,75.0
2096.4912,70.0
2097.3298,57.0
2098.1687,75.0
2099.008,71.0
2099.8477,74.0
2100.6875,67.0
2101.5278,63.0
2102.3684,70.0
2103.2095,51.0
2104.0508,62.0
2104.8923,88.0
2105.7344,79.0
2106.5767,102.0
2107.4192,76.0
2108.2622,65.0
2109.1055,69.0
2109.9492,74.0
2110.7932,80.0
2111.6375,90.0
2112.4822,89.0
2113.3271,77.0
2114.1724,73.0
2115.018,88.0
2115.864,74.0
2116.7104,89.0
2117.5571,84.0
2118.404,78.0
2119.2515,73.0
2120.099,82.0
2120.9473,80.0
2121.7957,70.0
2122.6443,74.0
2123.4934,86.0
2124.3428,69.0
2125.1926,88.0
2126.0427,95.0
2126.893,94.0
2127.744,92.0
2128.595,81.0
2129.4463,72.0
2130.298,68.0
2131.1501,60.0
2132.0027,75.0
2132.8555,74.0
2133.7085,91.0
2134.562,70.0
2135.4158,80.0
2136.27,67.0
2137.1245,69.0
2137.9792,74.0
2138.8345,89.0
2139.69,90.0
2140.546,88.0
2141.402,89.0
2142.2585,105.0
2143.1155,156.0
2143.9727,121.0
2144.8303,99.0
2145.6882,85.0
2146.5464,74.0
2147.405,61.0
2148.264,74.0
2149.1233,71.0
2149.983,89.0
2150.843,72.0
2151.7034,61.0
2152.564,78.0
2153.425,84.0
2154.2864,75.0
2155.1482,83.0
2156.0103,84.0
2156.8726,84.0
2157.7354,83.0
2158.5984,84.0
2159.462,82.0
2160.3257,81.0
2161.1897,88.0
2162.0542,74.0
2162.919,105.0
2163.7842,77.0
2164.6497,97.0
2165.5156,67.0
2166.3818,91.0
2167.2483,68.0
2168.1152,101.0
2168.9824,109.0
2169.85,102.0
2170.718,99.0
2171.5864,71.0
2172.455,81.0
2173.324,60.0
2174.1934,76.0
2175.063,75.0
2175.933,80.0
2176.8035,74.0
2177.674,98.0
2178.5452,104.0
2179.4165,97.0
2180.2883,87.0
2181.1604,72.0
2182.033,67.0
2182.9058,81.0
2183.7788,87.0
2184.6523,80.0
2185.5261,80.0
2186.4004,67.0
2187.275,64.0
2188.15,77.0
2189.0251,67.0
2189.9006,89.0
2190.7766,87.0
2191.6528,75.0
2192.5295,77.0
2193.4065,90.0
2194.284,103.0
2195.1616,104.0
2196.0398,116.0
2196.9182,115.0
2197.7969,101.0
2198.676,92.0
2199.5554,89.0
2200.4353,93.0
2201.3154,66.0
2202.196,82.0
2203.077,91.0
2203.9583,77.0
2204.8398,75.0
2205.7217,92.0
2206.604,80.0
2207.4866,75.0
2208.3696,75.0
2209.253,80.0
2210.1367,73.0
2211.0208,100.0
2211.9053,76.0
2212.79,91.0
2213.675,92.0
2214.5605,81.0
2215.4463,80.0
2216.3325,81.0
2217.219,87.0
2218.106,96.0
2218.9932,95.0
2219.8809,83.0
2220.7688,84.0
2221.6572,96.0
2222.546,94.0
2223.4348,74.0
2224.3242,80.0
2225.2139,73.0
2226.104,84.0
2226.9944,87.0
2227.8853,91.0
2228.7764,74.0
2229.668,67.0
2230.5598,94.0
2231.4521,89.0
2232.3447,75.0
2233.2375,91.0
2234.1309,95.0
2235.0244,83.0
2235.9185,98.0
2236.8127,78.0
2237.7075,93.0
2238.6025,88.0
2239.498,84.0
2240.3938,92.0
2241.29,92.0
2242.1865,88.0
2243.0835,88.0
2243.9807,86.0
2244.8784,109.0
2245.7764,86.0
2246.6746,68.0
2247.5732,74.0
2248.4722,94.0
2249.3716,87.0
2250.2712,75.0
2251.1714,85.0
2252.0718,102.0
2252.9727,75.0
2253.8738,89.0
2254.7754,88.0
2255.6772,81.0
2256.5796,95.0
2257.4822,104.0
2258.3853,88.0
2259.2886,86.0
2260.1924,112.0
2261.0964,106.0
2262.001,97.0
2262.9058,93.0
2263.811,108.0
2264.7166,77.0
2265.6226,95.0
2266.5288,106.0
2267.4353,84.0
2268.3423,84.0
2269.2495,76.0
2270.1572,97.0
2271.0652,78.0
2271.9736,74.0
2272.8823,109.0
2273.7915,91.0
2274.701,96.0
2275.6108,135.0
2276.521,129.0
2277.4316,137.0
2278.3425,116.0
2279.254,105.0
2280.1655,101.0
2281.0776,98.0
2281.99,91.0
2282.9028,98.0
2283.816,91.0
2284.7295,94.0
2285.6433,89.0
2286.5576,93.0
2287.4722,82.0
2288.3872,100.0
2289.3025,90.0
2290.2183,79.0
2291.1343,80.0
2292.0508,102.0
2292.9675,112.0
2293.8848,112.0
2294.8022,110.0
2295.7202,103.0
2296.6384,114.0
2297.5571,109.0
2298.476,103.0
2299.3955,93.0
2300.3152,85.0
2301.2354,85.0
2302.1558,102.0
2303.0767,108.0
2303.9978,117.0
2304.9194,101.0
2305.8413,109.0
2306.7637,113.0
2307.6863,104.0
2308.6094,97.0
2309.5327,84.0
2310.4565,85.0
2311.3806,92.0
2312.3052,85.0
2313.23,106.0
2314.1553,117.0
2315.081,98.0
2316.007,99.0
2316.9336,103.0
2317.8604,107.0
2318.7876,127.0
2319.715,106.0
2320.643,110.0
2321.5713,103.0
2322.5,107.0
2323.429,93.0
2324.3584,97.0
2325.288,93.0
2326.2183,95.0
2327.1487,83.0
2328.0796,109.0
2329.0107,119.0
2329.9424,111.0
2330.8743,94.0
2331.8066,95.0
2332.7393,93.0
2333.6724,82.0
2334.6057,80.0
2335.5396,90.0
2336.4739,102.0
2337.4084,90.0
2338.3435,80.0
2339.2788,96.0
2340.2146,99.0
2341.1506,77.0
2342.0872,95.0
2343.024,96.0
2343.9612,101.0
2344.8987,113.0
2345.8367,145.0
2346.775,123.0
2347.7136,105.0
2348.6526,90.0
2349.592,93.0
2350.532,76.0
2351.4722,99.0
2352.4128,75.0
2353.3538,87.0
2354.2952,104.0
2355.2368,90.0
2356.179,82.0
2357.1213,80.0
2358.0642,67.0
2359.0073,85.0
2359.951,87.0
2360.895,89.0
2361.8394,102.0
2362.7842,122.0
2363.7292,105.0
2364.6748,98.0
2365.6206,103.0
2366.567,91.0
2367.5134,78.0
2368.4604,83.0
2369.4077,93.0
2370.3555,95.0
2371.3037,80.0
2372.2522,101.0
2373.2012,103.0
2374.1504,90.0
2375.1,73.0
2376.05,84.0
2377.0005,71.0
2377.9512,81.0
2378.9023,83.0
2379.854,82.0
2380.806,94.0
2381.7583,84.0
2382.711,67.0
2383.664,80.0
2384.6174,68.0
2385.5713,81.0
2386.5256,77.0
2387.4802,102.0
2388.4353,110.0
2389.3906,114.0
2390.3464,105.0
2391.3025,89.0
2392.259,87.0
2393.2158,83.0
2394.173,87.0
2395.1309,80.0
2396.0889,82.0
2397.0474,96.0
2398.006,101.0
2398.9653,82.0
2399.9248,82.0
2400.8848,80.0
2401.8452,67.0
2402.806,90.0
2403.767,81.0
2404.7285,77.0
2405.6904,85.0
2406.6526,87.0
2407.6152,72.0
2408.5784,94.0
2409.5417,81.0
2410.5056,90.0
2411.4697,95.0
2412.4343,88.0
2413.3994,100.0
2414.3647,106.0
2415.3306,95.0
2416.2966,94.0
2417.2632,89.0
2418.23,73.0
2419.1973,75.0
2420.165,72.0
2421.133,90.0
2422.1016,98.0
2423.0703,93.0
2424.0396,73.0
2425.0093,105.0
2425.9792,70.0
2426.9497,59.0
2427.9204,78.0
2428.8916,84.0
2429.863,73.0
2430.835,98.0
2431.8074,127.0
2432.78,97.0
2433.7532,81.0
2434.7266,72.0
2435.7004,87.0
2436.6748,67.0
2437.6494,80.0
2438.6245,86.0
2439.5999,86.0
2440.5757,92.0
2441.552,69.0
2442.5286,91.0
2443.5056,78.0
2444.483,67.0
2445.4607,85.0
2446.439,93.0
2447.4175,88.0
2448.3965,101.0
2449.3757,77.0
2450.3555,88.0
2451.3357,79.0
2452.3162,83.0
2453.297,84.0
2454.2783,85.0
2455.26,68.0
2456.2422,85.0
2457.2246,71.0
2458.2075,82.0
2459.191,83.0
2460.1746,69.0
2461.1587,92.0
2462.143,74.0
2463.128,92.0
2464.1133,98.0
2465.0989,85.0
2466.085,109.0
2467.0713,95.0
2468.058,72.0
2469.0454,72.0
2470.033,76.0
2471.021,89.0
2472.0095,67.0
2472.9983,87.0
2473.9875,85.0
2474.977,65.0
2475.967,83.0
2476.9575,62.0
2477.9482,93.0
2478.9395,72.0
2479.931,72.0
2480.9229,97.0
2481.9153,98.0
2482.908,108.0
2483.9011,68.0
2484.8948,91.0
2485.8887,79.0
2486.883,83.0
2487.878,83.0
2488.873,92.0
2489.8687,81.0
2490.8645,72.0
2491.8608,100.0
2492.8577,101.0
2493.8547,78.0
2494.8523,70.0
2495.8503,71.0
2496.8486,98.0
2497.8474,88.0
2498.8464,98.0
2499.846,104.0
2500.846,85.0
2501.8462,92.0
2502.847,68.0
2503.8481,68.0
2504.8496,78.0
2505.8516,80.0
2506.854,83.0
2507.8567,84.0
2508.8599,77.0
2509.8635,79.0
2510.8674,100.0
2511.8718,82.0
2512.8765,66.0
2513.8816,77.0
2514.8872,81.0
2515.893,71.0
2516.8994,75.0
2517.9062,77.0
2518.9133,81.0
2519.921,79.0
2520.929,103.0
2521.9373,96.0
2522.946,74.0
2523.9553,80.0
2524.9648,85.0
2525.9749,69.0
2526.9854,73.0
2527.996,70.0
2529.0073,80.0
2530.019,68.0
2531.031,96.0
2532.0435,81.0
2533.0562,94.0
2534.0693,83.0
2535.083,85.0
2536.097,71.0
2537.1113,76.0
2538.1262,78.0
2539.1414,94.0
2540.157,82.0
2541.173,83.0
2542.1895,84.0
2543.2063,71.0
2544.2236,98.0
2545.2412,78.0
2546.2593,80.0
2547.2778,80.0
2548.2966,90.0
2549.316,84.0
2550.3357,91.0
2551.3557,79.0
2552.3762,79.0
2553.3972,81.0
2554.4185,95.0
2555.4402,80.0
2556.4624,66.0
2557.485,81.0
2558.508,71.0
2559.5315,70.0
2560.5554,80.0
2561.5796,94.0
2562.6042,82.0
2563.6294,104.0
2564.6548,78.0
2565.6807,87.0
2566.707,90.0
2567.7336,91.0
2568.7607,75.0
2569.7883,78.0
2570.8162,83.0
2571.8445,101.0
2572.8733,74.0
2573.9023,74.0
2574.932,99.0
2575.962,83.0
2576.9922,88.0
2578.023,88.0
2579.0542,85.0
2580.086,89.0
2581.118,86.0
2582.1504,84.0
2583.1833,77.0
2584.2166,85.0
2585.2502,68.0
2586.2844,82.0
2587.3188,76.0
2588.3538,100.0
2589.3892,75.0
2590.4248,81.0
2591.461,102.0
2592.4976,89.0
2593.5347,97.0
2594.572,98.0
2595.6099,99.0
2596.6482,68.0
2597.6868,82.0
2598.7258,90.0
2599.7654,94.0
2600.8052,60.0
2601.8455,81.0
2602.8862,79.0
2603.9275,77.0
2604.969,95.0
2606.011,74.0
2607.0535,79.0
2608.0962,79.0
2609.1394,100.0
2610.183,98.0
2611.2273,102.0
2612.2717,103.0
2613.3167,92.0
2614.362,97.0
2615.4077,82.0
2616.4539,88.0
2617.5005,97.0
2618.5476,71.0
2619.595,68.0
2620.6428,100.0
2621.6912,78.0
2622.7397,76.0
2623.7888,85.0
2624.8384,83.0
2625.8884,84.0
2626.9387,97.0
2627.9895,102.0
2629.0408,81.0
2630.0923,98.0
2631.1443,92.0
2632.1968,85.0
2633.2498,115.0
2634.303,86.0
2635.3567,92.0
2636.411,87.0
2637.4653,103.0
2638.5203,97.0
2639.5757,102.0
2640.6316,104.0
2641.6877,96.0
2642.7444,98.0
2643.8015,96.0
2644.8591,92.0
2645.917,88.0
2646.9753,89.0
2648.0342,96.0
2649.0935,98.0
2650.153,104.0
2651.2131,93.0
2652.2737,102.0
2653.3345,91.0
2654.3958,103.0
2655.4575,72.0
2656.5198,93.0
2657.5823,66.0
2658.6453,64.0
2659.7087,92.0
2660.7727,99.0
2661.837,116.0
2662.9016,97.0
2663.9668,94.0
2665.0325,110.0
2666.0984,100.0
2667.1648,114.0
2668.2317,109.0
2669.299,85.0
2670.3667,97.0
2671.4348,85.0
2672.5034,81.0
2673.5725,97.0
2674.6418,87.0
2675.7117,89.0
2676.782,78.0
2677.8528,87.0
2678.9238,97.0
2679.9954,123.0
2681.0674,91.0
2682.14,91.0
2683.2126,95.0
2684.286,91.0
2685.3596,86.0
2686.4338,75.0
2687.5083,98.0
2688.5833,80.0
2689.6587,90.0
2690.7346,78.0
2691.8108,88.0
2692.8875,93.0
2693.9646,99.0
2695.0422,90.0
2696.1204,88.0
2697.1987,85.0
2698.2776,95.0
2699.357,112.0
2700.4368,103.0
2701.5168,122.0
2702.5974,128.0
2703.6785,80.0
2704.76,85.0
2705.8418,100.0
2706.924,107.0
2708.0068,81.0
2709.09,111.0
2710.1738,92.0
2711.2578,75.0
2712.3423,87.0
2713.4272,90.0
2714.5127,94.0
2715.5984,92.0
2716.6846,104.0
2717.7712,80.0
2718.8584,100.0
2719.946,89.0
2721.034,94.0
2722.1223,128.0
2723.2112,132.0
2724.3005,125.0
2725.3901,103.0
2726.4802,92.0
2727.5708,85.0
2728.6619,83.0
2729.7534,133.0
2730.8452,120.0
2731.9375,96.0
2733.0303,109.0
2734.1235,104.0
2735.2173,173.0
2736.3113,235.0
2737.4058,149.0
2738.5007,104.0
2739.5962,87.0
2740.6921,83.0
2741.7883,87.0
2742.885,78.0
2743.9822,86.0
2745.0798,102.0
2746.178,99.0
2747.2764,83.0
2748.3752,91.0
2749.4746,87.0
2750.5745,89.0
2751.6748,90.0
2752.7754,75.0
2753.8765,102.0
2754.978,91.0
2756.08,72.0
2757.1826,77.0
2758.2854,78.0
2759.3887,64.0
2760.4924,82.0
2761.5967,85.0
2762.7014,108.0
2763.8064,100.0
2764.9119,105.0
2766.0178,81.0
2767.1243,91.0
2768.2312,91.0
2769.3384,111.0
2770.446,92.0
2771.5542,92.0
2772.6628,101.0
2773.772,92.0
2774.8816,90.0
2775.9915,99.0
2777.1018,79.0
2778.2126,84.0
2779.324,94.0
2780.4358,97.0
2781.5479,78.0
2782.6604,71.0
2783.7734,87.0
2784.887,74.0
2786.001,78.0
2787.1155,69.0
2788.2302,76.0
2789.3455,82.0
2790.4612,101.0
2791.5774,103.0
2792.694,103.0
2793.8113,137.0
2794.9287,171.0
2796.0466,177.0
2797.165,182.0
2798.284,160.0
2799.4033,150.0
2800.5232,153.0
2801.6433,134.0
2802.764,116.0
2803.885,136.0
2805.0066,130.0
2806.1287,145.0
2807.2512,150.0
2808.374,160.0
2809.4973,156.0
2810.621,142.0
2811.7454,150.0
2812.87,141.0
2813.9954,143.0
2815.1208,148.0
2816.2468,121.0
2817.3733,154.0
2818.5002,144.0
2819.6277,137.0
2820.7556,136.0
2821.884,146.0
2823.0127,157.0
2824.1418,131.0
2825.2715,125.0
2826.4016,115.0
2827.5322,124.0
2828.6633,156.0
2829.7947,150.0
2830.9265,166.0
2832.0588,148.0
2833.1917,144.0
2834.325,133.0
2835.4587,146.0
2836.593,167.0
2837.7275,155.0
2838.8625,146.0
2839.998,133.0
2841.134,119.0
2842.2705,145.0
2843.4075,129.0
2844.545,133.0
2845.6829,123.0
2846.821,132.0
2847.9597,130.0
2849.0989,140.0
2850.2385,141.0
2851.3787,172.0
2852.5193,171.0
2853.6604,157.0
2854.8018,154.0
2855.9436,117.0
2857.086,160.0
2858.2288,184.0
2859.372,160.0
2860.5159,147.0
2861.6602,131.0
2862.805,114.0
2863.95,154.0
2865.0955,173.0
2866.2415,158.0
2867.388,167.0
2868.535,150.0
2869.6824,122.0
2870.8303,115.0
2871.9788,122.0
2873.1274,121.0
2874.2766,149.0
2875.4263,132.0
2876.5764,141.0
2877.727,131.0
2878.8782,129.0
2880.0298,134.0
2881.182,123.0
2882.3345,139.0
2883.4873,125.0
2884.6406,125.0
2885.7944,134.0
2886.9487,127.0
2888.1035,126.0
2889.2588,152.0
2890.4146,141.0
2891.5708,171.0
2892.7275,145.0
2893.8845,146.0
2895.042,142.0
2896.2,121.0
2897.3584,147.0
2898.5173,148.0
2899.6768,147.0
2900.8367,137.0
2901.997,144.0
2903.158,133.0
2904.3193,143.0
2905.481,184.0
2906.643,176.0
2907.8057,159.0
2908.9688,178.0
2910.1323,186.0
2911.2964,154.0
2912.461,137.0
2913.626,146.0
2914.7915,124.0
2915.9575,130.0
2917.124,139.0
2918.2908,128.0
2919.458,139.0
2920.6257,146.0
2921.794,184.0
2922.9626,199.0
2924.1318,236.0
2925.3015,212.0
2926.4717,171.0
2927.6423,167.0
2928.8135,140.0
2929.985,130.0
2931.157,141.0
2932.3293,147.0
2933.5022,147.0
2934.6755,133.0
2935.8494,146.0
2937.0237,170.0
2938.1985,121.0
2939.3738,157.0
2940.5496,176.0
2941.7258,152.0
2942.9026,156.0
2944.0798,152.0
2945.2576,175.0
2946.4358,174.0
2947.6143,147.0
2948.7932,154.0
2949.9727,144.0
2951.1526,147.0
2952.333,149.0
2953.514,168.0
2954.6953,119.0
2955.8772,126.0
2957.0596,144.0
2958.2424,164.0
2959.4258,163.0
2960.6096,154.0
2961.794,144.0
2962.9788,135.0
2964.164,136.0
2965.3496,145.0
2966.5356,127.0
2967.7222,135.0
2968.9092,140.0
2970.0967,125.0
2971.2847,145.0
2972.4731,144.0
2973.662,134.0
2974.8516,154.0
2976.0415,146.0
2977.232,145.0
2978.4229,148.0
2979.6143,164.0
2980.8062,148.0
2981.9985,144.0
2983.1914,136.0
2984.3848,138.0
2985.5786,130.0
2986.773,151.0
2987.9678,164.0
2989.1628,137.0
2990.3584,130.0
2991.5544,129.0
2992.751,164.0
2993.948,153.0
2995.1455,127.0
2996.3435,153.0
2997.542,132.0
2998.741,127.0
2999.9404,141.0
3001.1404,165.0
3002.3408,148.0
3003.5417,163.0
3004.7432,167.0
3005.945,168.0
3007.1475,129.0
3008.3503,128.0
3009.5537,156.0
3010.7576,135.0
3011.962,139.0
3013.1667,138.0
3014.372,155.0
3015.578,161.0
3016.7842,168.0
3017.991,136.0
3019.1982,127.0
3020.406,193.0
3021.6143,174.0
3022.823,163.0
3024.0322,138.0
3025.242,124.0
3026.4521,158.0
3027.6628,166.0
3028.874,154.0
3030.0857,147.0
3031.2976,141.0
3032.51,154.0
3033.723,162.0
3034.9363,139.0
3036.1501,154.0
3037.3645,160.0
3038.5793,116.0
3039.7947,165.0
3041.0105,127.0
3042.2268,126.0
3043.4436,142.0
3044.661,146.0
3045.8787,128.0
3047.097,152.0
3048.3157,131.0
3049.535,144.0
3050.7546,124.0
3051.9749,134.0
3053.1956,132.0
3054.4167,163.0
3055.6384,158.0
3056.8606,154.0
3058.0833,153.0
3059.3064,131.0
3060.53,165.0
3061.7542,152.0
3062.9788,142.0
3064.2039,126.0
3065.4294,167.0
3066.6555,135.0
3067.882,149.0
3069.1091,160.0
3070.3367,145.0
3071.5647,143.0
3072.7932,161.0
3074.0222,123.0
3075.2517,154.0
3076.4817,128.0
3077.7124,145.0
3078.9436,176.0
3080.1753,154.0
3081.4075,149.0
3082.6401,154.0
3083.8733,140.0
3085.107,138.0
3086.341,140.0
3087.5757,144.0
3088.8108,159.0
3090.0464,146.0
3091.2825,147.0
3092.519,143.0
3093.756,140.0
3094.9937,155.0
3096.2317,124.0
3097.4702,146.0
3098.7092,134.0
3099.9487,126.0
3101.1887,137.0
3102.4292,151.0
3103.6702,137.0
3104.9116,126.0
3106.1536,151.0
3107.396,145.0
3108.639,136.0
3109.8823,167.0
3111.1262,162.0
3112.3706,145.0
3113.6155,160.0
3114.8608,132.0
3116.1067,134.0
3117.353,147.0
3118.5999,156.0
3119.8474,143.0
3121.0955,123.0
3122.344,131.0
3123.593,135.0
3124.8425,120.0
3126.0925,150.0
3127.343,143.0
3128.594,167.0
3129.8455,154.0
3131.0974,140.0
3132.3499,146.0
3133.6028,153.0
3134.8562,141.0
3136.11,127.0
3137.3645,159.0
3138.6194,156.0
3139.8748,144.0
3141.1306,132.0
3142.387,145.0
3143.6438,156.0
3144.9014,150.0
3146.1594,183.0
3147.418,160.0
3148.677,146.0
3149.9365,122.0
3151.1965,164.0
3152.457,155.0
3153.718,166.0
3154.9795,146.0
3156.2415,129.0
3157.504,148.0
3158.7668,138.0
3160.0303,125.0
3161.2942,163.0
3162.5586,147.0
3163.8237,150.0
3165.0894,133.0
3166.3555,138.0
3167.622,150.0
3168.8892,148.0
3170.1567,167.0
3171.4248,156.0
3172.6934,153.0
3173.9624,112.0
3175.232,131.0
3176.502,163.0
3177.7725,124.0
3179.0435,152.0
3180.3152,157.0
3181.5874,158.0
3182.86,132.0
3184.1333,147.0
3185.407,152.0
3186.6812,152.0
3187.9558,146.0
3189.231,150.0
3190.5066,164.0
3191.7827,161.0
3193.0593,149.0
3194.3367,144.0
3195.6145,177.0
3196.8928,174.0
3198.1716,151.0
3199.451,157.0
3200.7307,145.0
3202.011,136.0
3203.2917,145.0
3204.573,151.0
3205.8547,135.0
3207.137,130.0
3208.42,149.0
3209.7034,170.0
3210.9873,133.0
3212.2717,136.0
3213.5566,157.0
3214.842,129.0
3216.128,148.0
3217.4143,172.0
3218.7012,163.0
3219.9888,138.0
3221.2769,151.0
3222.5654,168.0
3223.8545,151.0
3225.144,148.0
3226.434,159.0
3227.7246,137.0
3229.0156,132.0
3230.3071,130.0
3231.5994,138.0
3232.892,111.0
3234.1853,146.0
3235.479,144.0
3236.7732,173.0
3238.0679,136.0
3239.363,108.0
3240.6587,158.0
3241.9548,141.0
3243.2517,143.0
3244.549,137.0
3245.847,123.0
3247.1453,117.0
3248.444,136.0
3249.7434,128.0
3251.0432,140.0
3252.3438,133.0
3253.6448,154.0
3254.9463,154.0
3256.2483,146.0
3257.5508,178.0
3258.8538,133.0
3260.1572,139.0
3261.4612,138.0
3262.7659,135.0
3264.071,150.0
3265.3767,151.0
3266.6829,174.0
3267.9895,136.0
3269.2966,136.0
3270.6042,165.0
3271.9126,170.0
3273.2214,137.0
3274.5308,152.0
3275.8406,145.0
3277.151,131.0
3278.4617,170.0
3279.773,155.0
3281.085,141.0
3282.3975,161.0
3283.7104,158.0
3285.024,142.0
3286.338,131.0
3287.6523,179.0
3288.9673,154.0
3290.283,126.0
3291.599,146.0
3292.9158,137.0
3294.233,165.0
3295.5505,138.0
3296.8687,157.0
3298.1875,137.0
3299.5068,149.0
3300.8267,149.0
3302.147,165.0
3303.4678,163.0
3304.789,166.0
3306.111,121.0
3307.4336,183.0
3308.7566,171.0
3310.08,185.0
3311.404,159.0
3312.7285,163.0
3314.0537,148.0
3315.3794,154.0
3316.7056,155.0
3318.0322,141.0
3319.3594,158.0
3320.687,156.0
3322.0154,157.0
3323.3442,163.0
3324.6736,181.0
3326.0034,169.0
3327.3337,166.0
3328.6648,153.0
3329.9963,147.0
3331.3284,176.0
3332.661,172.0
3333.994,160.0
3335.3274,180.0
3336.6616,163.0
3337.9963,172.0
3339.3315,168.0
3340.6672,165.0
3342.0034,143.0
3343.3403,144.0
3344.6777,147.0
3346.0156,160.0
3347.354,138.0
3348.6929,150.0
3350.0322,156.0
3351.3723,173.0
3352.713,202.0
3354.054,148.0
3355.3955,165.0
3356.7375,169.0
3358.0803,163.0
3359.4236,166.0
3360.7673,170.0
3362.1116,159.0
3363.4563,167.0
3364.8018,157.0
3366.1477,184.0
3367.4941,148.0
3368.841,182.0
3370.1887,175.0
3371.5369,194.0
3372.8855,158.0
3374.2346,143.0
3375.5842,159.0
3376.9346,144.0
3378.2854,143.0
3379.6367,170.0
3380.9885,164.0
3382.3408,153.0
3383.6938,168.0
3385.0474,163.0
3386.4014,200.0
3387.7559,168.0
3389.1108,160.0
3390.4666,195.0
3391.8228,168.0
3393.1794,163.0
3394.5366,175.0
3395.8945,176.0
3397.253,159.0
3398.6118,171.0
3399.9712,170.0
3401.3313,173.0
3402.692,233.0
3404.053,192.0
3405.4146,222.0
3406.7766,175.0
3408.1394,148.0
3409.5027,165.0
3410.8665,180.0
3412.2307,201.0
3413.5957,232.0
3414.9612,202.0
3416.3271,178.0
3417.6936,162.0
3419.0608,196.0
3420.4285,200.0
3421.7966,189.0
3423.1653,172.0
3424.5347,168.0
3425.9045,161.0
3427.275,163.0
3428.6458,196.0
3430.017,198.0
3431.3892,203.0
3432.7617,174.0
3434.1348,161.0
3435.5083,168.0
3436.8826,183.0
3438.2573,153.0
3439.6326,183.0
3441.0083,158.0
3442.3848,181.0
3443.7617,173.0
3445.1392,165.0
3446.5173,180.0
3447.896,173.0
3449.2751,144.0
3450.6548,166.0
3452.0352,154.0
3453.416,163.0
3454.7974,173.0
3456.1792,192.0
3457.5618,205.0
3458.9448,173.0
3460.3284,171.0
3461.7124,165.0
3463.0972,144.0
3464.4824,181.0
3465.8682,172.0
3467.2544,181.0
3468.6414,167.0
3470.0288,160.0
3471.4167,163.0
3472.8054,180.0
3474.1946,170.0
3475.5842,215.0
3476.9744,176.0
3478.3652,168.0
3479.7566,163.0
3481.1484,143.0
3482.541,180.0
3483.934,176.0
3485.3276,165.0
3486.7217,175.0
3488.1165,177.0
3489.5117,179.0
3490.9075,183.0
3492.304,159.0
3493.701,181.0
3495.0984,170.0
3496.4963,185.0
3497.895,166.0
3499.2942,201.0
3500.6938,170.0
3502.0942,177.0
3503.495,164.0
3504.8965,171.0
3506.2983,175.0
3507.701,215.0
3509.104,196.0
3510.5076,206.0
3511.9119,196.0
3513.3167,219.0
3514.722,195.0
3516.128,193.0
3517.5344,180.0
3518.9414,156.0
3520.3489,170.0
3521.757,257.0
3523.1658,219.0
3524.575,209.0
3525.9849,168.0
3527.3953,180.0
3528.8062,173.0
3530.2178,248.0
3531.63,277.0
3533.0425,201.0
3534.4558,167.0
3535.8696,188.0
3537.284,180.0
3538.6987,187.0
3540.1143,148.0
3541.5303,195.0
3542.9468,176.0
3544.364,170.0
3545.7817,184.0
3547.2,161.0
3548.619,190.0
3550.0383,160.0
3551.4583,176.0
3552.879,203.0
3554.3,178.0
3555.7217,227.0
3557.144,182.0
3558.567,200.0
3559.9902,181.0
3561.4143,174.0
3562.8389,216.0
3564.264,179.0
3565.6897,213.0
3567.116,202.0
3568.5427,183.0
3569.9702,189.0
3571.3982,204.0
3572.8267,203.0
3574.2559,169.0
3575.6855,194.0
3577.1157,189.0
3578.5466,229.0
3579.978,240.0
3581.41,215.0
3582.8425,207.0
3584.2756,199.0
3585.7092,221.0
3587.1436,198.0
3588.5784,260.0
3590.014,191.0
3591.45,223.0
3592.8865,215.0
3594.3237,213.0
3595.7615,254.0
3597.1997,213.0
3598.6387,263.0
3600.0781,264.0
3601.518,241.0
3602.9587,251.0
3604.4,184.0
3605.8416,199.0
3607.284,295.0
3608.7268,322.0
3610.1704,256.0
3611.6145,209.0
3613.059,204.0
3614.5044,229.0
3615.9502,395.0
3617.3965,467.0
3618.8435,327.0
3620.291,221.0
3621.739,210.0
3623.1877,202.0
3624.637,206.0
3626.087,216.0
3627.5374,229.0
3628.9883,242.0
3630.44,213.0
3631.892,174.0
3633.3447,195.0
3634.798,223.0
3636.252,224.0
3637.7065,210.0
3639.1616,173.0
3640.6172,213.0
3642.0735,178.0
3643.5303,217.0
3644.9878,255.0
3646.4458,225.0
3647.9043,218.0
3649.3635,195.0
3650.8232,195.0
3652.2837,198.0
3653.7446,198.0
3655.206,191.0
3656.6682,225.0
3658.1309,203.0
3659.594,234.0
3661.0579,229.0
3662.5222,210.0
3663.9873,204.0
3665.453,232.0
3666.919,222.0
3668.3857,217.0
3669.853,229.0
3671.321,189.0
3672.7896,207.0
3674.2585,226.0
3675.7283,230.0
3677.1985,225.0
3678.6694,273.0
3680.1409,230.0
3681.613,220.0
3683.0857,224.0
3684.5588,196.0
3686.0327,189.0
3687.507,230.0
3688.9822,172.0
3690.4578,210.0
3691.9338,223.0
3693.4106,224.0
3694.888,227.0
3696.366,204.0
3697.8445,222.0
3699.3237,194.0
3700.8035,197.0
3702.2837,207.0
3703.7646,202.0
3705.246,187.0
3706.7283,228.0
3708.211,257.0
3709.6943,363.0
3711.1782,298.0
3712.6626,264.0
3714.1477,218.0
3715.6333,243.0
3717.1196,253.0
3718.6064,252.0
3720.094,206.0
3721.582,274.0
3723.0706,238.0
3724.5598,218.0
3726.0496,231.0
3727.54,266.0
3729.031,231.0
3730.5227,242.0
3732.015,233.0
3733.5078,312.0
3735.0012,378.0
3736.495,315.0
3737.9897,283.0
3739.4849,220.0
3740.9807,232.0
3742.477,264.0
3743.974,282.0
3745.4717,237.0
3746.97,223.0
3748.4688,235.0
3749.968,482.0
3751.468,948.0
3752.9685,1044.0
3754.4697,621.0
3755.9714,399.0
3757.4739,289.0
3758.9768,238.0
3760.4805,226.0
3761.9846,271.0
3763.4895,235.0
3764.9949,239.0
3766.501,258.0
3768.0076,299.0
3769.515,266.0
3771.0227,244.0
3772.531,256.0
3774.04,256.0
3775.5496,258.0
3777.0598,232.0
3778.5706,254.0
3780.082,260.0
3781.594,232.0
3783.1067,308.0
3784.6199,329.0
3786.1338,271.0
3787.6482,247.0
3789.1633,266.0
3790.679,226.0
3792.1953,201.0
3793.7122,248.0
3795.2297,217.0
3796.7478,253.0
3798.2666,262.0
3799.786,275.0
3801.306,221.0
3802.8264,226.0
3804.3477,230.0
3805.8694,226.0
3807.3918,227.0
3808.9148,291.0
3810.4385,263.0
3811.9626,247.0
3813.4875,294.0
3815.013,315.0
3816.539,292.0
3818.0657,254.0
3819.593,216.0
3821.1208,247.0
3822.6494,236.0
3824.1785,231.0
3825.7083,232.0
3827.2385,211.0
3828.7695,261.0
3830.301,277.0
3831.8333,307.0
3833.366,264.0
3834.8994,228.0
3836.4333,232.0
3837.968,221.0
3839.5032,226.0
3841.039,267.0
3842.5754,218.0
3844.1125,242.0
3845.6501,238.0
3847.1885,305.0
3848.7273,366.0
3850.2668,337.0
3851.807,284.0
3853.3477,234.0
3854.889,229.0
3856.431,212.0
3857.9734,239.0
3859.5166,235.0
3861.0603,243.0
3862.6047,251.0
3864.1497,263.0
3865.6953,285.0
3867.2417,268.0
3868.7886,269.0
3870.3362,230.0
3871.8843,272.0
3873.433,235.0
3874.9824,255.0
3876.5325,257.0
3878.083,261.0
3879.6343,264.0
3881.186,289.0
3882.7385,294.0
3884.2915,297.0
3885.8452,277.0
3887.3997,253.0
3888.9546,257.0
3890.5103,244.0
3892.0664,227.0
3893.6233,265.0
3895.1807,263.0
3896.7388,254.0
3898.2974,259.0
3899.8567,319.0
3901.4167,316.0
3902.9773,281.0
3904.5386,284.0
3906.1003,259.0
3907.6628,242.0
3909.2258,239.0
3910.7896,239.0
3912.3538,211.0
3913.9187,230.0
3915.4844,266.0
3917.0505,250.0
3918.6174,250.0
3920.1848,234.0
3921.753,260.0
3923.3215,247.0
3924.8909,207.0
3926.461,251.0
3928.0315,220.0
3929.6028,249.0
3931.1746,232.0
3932.747,256.0
3934.32,232.0
3935.8938,214.0
3937.4683,207.0
3939.0432,226.0
3940.619,225.0
3942.195,237.0
3943.772,211.0
3945.3494,201.0
3946.9275,221.0
3948.5063,231.0
3950.0857,251.0
3951.6658,271.0
3953.2463,233.0
3954.8276,213.0
3956.4097,230.0
3957.9922,227.0
3959.5754,243.0
3961.1592,245.0
3962.7437,225.0
3964.3289,235.0
3965.9146,214.0
3967.501,230.0
3969.088,237.0
3970.6755,241.0
3972.264,179.0
3973.8528,245.0
3975.4424,204.0
3977.0325,234.0
3978.6233,231.0
3980.2148,234.0
3981.807,248.0
3983.3997,246.0
3984.993,223.0
3986.587,246.0
3988.1816,203.0
3989.7769,255.0
3991.3728,270.0
3992.9692,285.0
3994.5664,274.0
3996.1643,258.0
3997.7627,263.0
3999.3618,241.0
4000.9617,243.0
4002.562,277.0
4004.163,298.0
4005.7646,264.0
4007.367,252.0
4008.97,263.0
4010.5735,244.0
4012.1777,267.0
4013.7827,253.0
4015.3882,253.0
4016.9944,268.0
4018.601,274.0
4020.2085,295.0
4021.8167,319.0
4023.4253,272.0
4025.0347,281.0
4026.6448,320.0
4028.2554,345.0
4029.8667,336.0
4031.4788,320.0
4033.0913,304.0
4034.7046,325.0
4036.3184,368.0
4037.9329,395.0
4039.548,358.0
4041.1638,404.0
4042.7803,448.0
4044.3975,425.0
4046.0151,351.0
4047.6335,334.0
4049.2527,428.0
4050.8723,624.0
4052.4927,558.0
4054.1138,480.0
4055.7354,444.0
4057.3577,363.0
4058.9807,666.0
4060.6042,841.0
4062.2285,627.0
4063.8535,534.0
4065.479,457.0
4067.1052,504.0
4068.7322,522.0
4070.3596,556.0
4071.9878,693.0
4073.6167,710.0
4075.246,543.0
4076.8762,621.0
4078.507,557.0
4080.1384,632.0
4081.7705,771.0
4083.4033,692.0
4085.0366,930.0
4086.6707,1137.0
4088.3054,726.0
4089.9407,504.0
4091.5767,439.0
4093.2134,1462.0
4094.8506,2252.0
4096.489,1273.0
4098.1274,580.0
4099.7666,451.0
4101.4067,1409.0
4103.0474,4021.0
4104.6885,2941.0
4106.3306,1060.0
4107.973,531.0
4109.616,419.0
4111.2603,345.0
4112.905,392.0
4114.55,521.0
4116.196,437.0
4117.8423,338.0
4119.4893,271.0
4121.137,331.0
4122.7856,314.0
4124.4346,298.0
4126.0845,276.0
4127.735,285.0
4129.3857,255.0
4131.0376,263.0
4132.69,268.0
4134.343,265.0
4135.9966,306.0
4137.651,271.0
4139.306,238.0
4140.962,218.0
4142.618,249.0
4144.2754,304.0
4145.933,318.0
4147.5913,293.0
4149.2505,266.0
4150.91,299.0
4152.5703,244.0
4154.2314,275.0
4155.893,288.0
4157.5557,294.0
4159.2188,275.0
4160.8823,262.0
4162.547,252.0
4164.212,308.0
4165.8774,322.0
4167.544,325.0
4169.211,292.0
4170.8784,284.0
4172.547,286.0
4174.216,348.0
4175.8857,358.0
4177.556,311.0
4179.227,319.0
4180.899,299.0
4182.5713,269.0
4184.244,258.0
4185.918,289.0
4187.5923,301.0
4189.267,304.0
4190.943,290.0
4192.619,270.0
4194.2964,296.0
4195.974,314.0
4197.6523,286.0
4199.3315,292.0
4201.011,251.0
4202.6914,265.0
4204.3726,278.0
4206.054,308.0
4207.737,275.0
4209.42,263.0
4211.1035,294.0
4212.788,277.0
4214.473,251.0
4216.1587,296.0
4217.845,300.0
4219.532,250.0
4221.22,251.0
4222.9087,259.0
4224.5977,272.0
4226.2876,271.0
4227.978,242.0
4229.6694,281.0
4231.3613,278.0
4233.0537,293.0
4234.747,301.0
4236.441,290.0
4238.1353,251.0
4239.8306,325.0
4241.5264,267.0
4243.223,288.0
4244.9204,279.0
4246.618,298.0
4248.317,301.0
4250.016,299.0
4251.7163,312.0
4253.417,305.0
4255.118,317.0
4256.8203,310.0
4258.523,299.0
4260.2266,336.0
4261.9307,297.0
4263.6353,322.0
4265.341,339.0
4267.047,416.0
4268.754,473.0
4270.4614,389.0
4272.1694,302.0
4273.8784,284.0
4275.588,413.0
4277.2983,662.0
4279.0093,434.0
4280.7207,378.0
4282.433,303.0
4284.146,530.0
4285.86,1019.0
4287.574,720.0
4289.289,442.0
4291.005,333.0
4292.721,268.0
4294.4385,297.0
4296.1562,313.0
4297.8745,386.0
4299.5938,384.0
4301.3135,302.0
4303.034,283.0
4304.7554,322.0
4306.477,292.0
4308.1997,280.0
4309.923,267.0
4311.647,234.0
4313.3716,228.0
4315.097,248.0
4316.823,244.0
4318.55,267.0
4320.2773,256.0
4322.0054,230.0
4323.7344,245.0
4325.464,237.0
4327.194,261.0
4328.925,264.0
4330.6562,275.0
4332.3887,295.0
4334.1216,267.0
4335.8555,289.0
4337.59,245.0
4339.3247,273.0
4341.0605,279.0
4342.797,276.0
4344.534,268.0
4346.272,251.0
4348.0103,255.0
4349.7495,281.0
4351.4893,263.0
4353.23,230.0
4354.971,294.0
4356.7134,303.0
4358.456,314.0
4360.199,267.0
4361.9434,275.0
4363.688,248.0
4365.4336,264.0
4367.1797,272.0
4368.927,234.0
4370.6743,274.0
4372.4224,286.0
4374.1714,257.0
4375.921,286.0
4377.6714,317.0
4379.4224,315.0
4381.1743,293.0
4382.927,285.0
4384.6797,270.0
4386.4336,316.0
4388.188,286.0
4389.9434,308.0
4391.699,303.0
4393.456,287.0
4395.2134,308.0
4396.9717,325.0
4398.7305,345.0
4400.4897,361.0
4402.25,312.0
4404.0107,298.0
4405.7725,294.0
4407.5347,393.0
4409.298,433.0
4411.0615,394.0
4412.826,321.0
4414.5913,327.0
4416.357,472.0
4418.1235,506.0
4419.8906,432.0
4421.6587,391.0
4423.4272,363.0
4425.197,313.0
4426.967,360.0
4428.738,356.0
4430.5093,381.0
4432.2812,355.0
4434.054,345.0
4435.8276,348.0
4437.602,380.0
4439.377,483.0
4441.153,450.0
4442.929,349.0
4444.7065,325.0
4446.4844,355.0
4448.263,382.0
4450.0425,392.0
4451.8223,417.0
4453.603,382.0
4455.3843,365.0
4457.1665,392.0
4458.949,430.0
4460.733,478.0
4462.517,383.0
4464.3022,358.0
4466.088,399.0
4467.8745,602.0
4469.6616,509.0
4471.4497,459.0
4473.2383,386.0
4475.0273,349.0
4476.8174,345.0
4478.608,352.0
4480.3994,422.0
4482.1914,411.0
4483.9844,416.0
4485.778,371.0
4487.5723,408.0
4489.367,408.0
4491.163,393.0
4492.9595,388.0
4494.757,352.0
4496.5547,380.0
4498.3535,470.0
4500.153,456.0
4501.953,384.0
4503.754,423.0
4505.555,401.0
4507.3574,362.0
4509.16,375.0
4510.964,336.0
4512.768,430.0
4514.573,425.0
4516.379,351.0
4518.1855,325.0
4519.9927,346.0
4521.801,461.0
4523.6094,419.0
4525.419,317.0
4527.229,287.0
4529.04,354.0
4530.8516,561.0
4532.664,459.0
4534.477,368.0
4536.291,313.0
4538.1055,338.0
4539.921,369.0
4541.737,356.0
4543.5537,340.0
4545.371,268.0
4547.1895,307.0
4549.0083,320.0
4550.828,316.0
4552.6484,286.0
4554.4697,294.0
4556.2915,268.0
4558.1143,256.0
4559.9375,297.0
4561.7617,322.0
4563.5864,299.0
4565.4116,265.0
4567.238,286.0
4569.0645,296.0
4570.892,299.0
4572.72,260.0
4574.5493,282.0
4576.379,279.0
4578.2095,308.0
4580.0405,275.0
4581.8726,276.0
4583.705,303.0
4585.5386,297.0
4587.3726,273.0
4589.2075,292.0
4591.043,341.0
4592.8794,346.0
4594.7163,310.0
4596.554,289.0
4598.3926,343.0
4600.232,321.0
4602.0723,360.0
4603.913,307.0
4605.755,299.0
4607.597,304.0
4609.4404,325.0
4611.284,309.0
4613.129,346.0
4614.974,298.0
4616.8203,326.0
4618.667,289.0
4620.5146,301.0
4622.363,360.0
4624.212,325.0
4626.0615,313.0
4627.912,269.0
4629.763,317.0
4631.615,313.0
4633.468,317.0
4635.3213,283.0
4637.1753,300.0
4639.0303,284.0
4640.8857,285.0
4642.742,294.0
4644.599,337.0
4646.457,323.0
4648.3154,277.0
4650.175,301.0
4652.0347,321.0
4653.8955,351.0
4655.757,270.0
4657.619,268.0
4659.4824,294.0
4661.346,361.0
4663.211,336.0
4665.076,330.0
4666.9424,321.0
4668.809,345.0
4670.677,319.0
4672.545,320.0
4674.414,286.0
4676.2837,286.0
4678.1543,329.0
4680.0254,361.0
4681.8975,321.0
4683.77,284.0
4685.6436,297.0
4687.5176,313.0
4689.3926,322.0
4691.2686,294.0
4693.145,306.0
4695.0225,321.0
4696.9004,338.0
4698.7793,307.0
4700.6587,269.0
4702.539,267.0
4704.42,323.0
4706.302,309.0
4708.184,312.0
4710.0674,323.0
4711.951,358.0
4713.836,340.0
4715.7217,315.0
4717.608,278.0
4719.495,253.0
4721.383,286.0
4723.2715,290.0
4725.1606,286.0
4727.051,313.0
4728.9414,351.0
4730.833,308.0
4732.725,293.0
4734.618,270.0
4736.512,263.0
4738.4067,263.0
4740.3022,255.0
4742.198,246.0
4744.095,295.0
4745.9927,293.0
4747.891,268.0
4749.79,262.0
4751.69,291.0
4753.591,294.0
4755.492,256.0
4757.3945,262.0
4759.2974,278.0
4761.201,301.0
4763.1055,275.0
4765.0107,294.0
4766.9165,267.0
4768.823,255.0
4770.731,257.0
4772.639,242.0
4774.5483,272.0
4776.458,263.0
4778.3687,246.0
4780.28,260.0
4782.192,259.0
4784.105,248.0
4786.0186,258.0
4787.933,221.0
4789.848,231.0
4791.764,251.0
4793.6807,264.0
4795.598,276.0
4797.5166,252.0
4799.4355,271.0
4801.3555,234.0
4803.276,222.0
4805.1973,238.0
4807.119,220.0
4809.042,228.0
4810.966,233.0
4812.89,241.0
4814.8154,248.0
4816.741,247.0
4818.668,243.0
4820.595,219.0
4822.5234,235.0
4824.4526,250.0
4826.3823,218.0
4828.313,252.0
4830.244,256.0
4832.1763,240.0
4834.1094,250.0
4836.043,206.0
4837.9775,241.0
4839.9126,251.0
4841.8486,247.0
4843.785,250.0
4845.7227,214.0
4847.661,242.0
4849.6,220.0
4851.54,238.0
4853.4805,243.0
4855.422,233.0
4857.3643,243.0
4859.307,230.0
4861.251,217.0
4863.1953,203.0
4865.1406,221.0
4867.087,241.0
4869.0337,245.0
4870.9814,230.0
4872.9297,208.0
4874.879,227.0
4876.829,242.0
4878.78,222.0
4880.7314,233.0
4882.6836,234.0
4884.6367,222.0
4886.5903,223.0
4888.545,231.0
4890.5005,236.0
4892.4565,230.0
4894.4136,248.0
4896.3716,240.0
4898.33,230.0
4900.2896,226.0
4902.2495,258.0
4904.2104,228.0
4906.1724,236.0
4908.135,219.0
4910.098,247.0
4912.062,228.0
4914.027,248.0
4915.9927,248.0
4917.959,255.0
4919.9263,236.0
4921.894,233.0
4923.863,251.0
4925.8325,272.0
4927.8027,248.0
4929.774,242.0
4931.7456,258.0
4933.7183,225.0
4935.692,238.0
4937.666,252.0
4939.641,219.0
4941.617,215.0
4943.5938,227.0
4945.5713,234.0
4947.5493,223.0
4949.5283,251.0
4951.5083,241.0
4953.489,265.0
4955.47,290.0
4957.4526,257.0
4959.4355,257.0
4961.4194,250.0
4963.404,238.0
4965.389,245.0
4967.3755,263.0
4969.3623,247.0
4971.35,243.0
4973.339,268.0
4975.328,249.0
4977.3184,261.0
4979.309,256.0
4981.301,256.0
4983.2935,255.0
4985.2866,250.0
4987.281,257.0
4989.276,291.0
4991.2715,303.0
4993.268,253.0
4995.265,272.0
4997.263,271.0
4999.262,258.0
5001.2617,243.0
5003.262,250.0
5005.2637,253.0
5007.2656,255.0
5009.2686,280.0
5011.2725,235.0
5013.277,291.0
5015.282,228.0
5017.2886,249.0
5019.2954,244.0
5021.303,276.0
5023.3115,281.0
5025.321,266.0
5027.331,222.0
5029.342,302.0
5031.3535,252.0
5033.366,262.0
5035.3794,256.0
5037.3936,222.0
5039.4087,256.0
5041.4243,268.0
5043.441,261.0
5045.4585,254.0
5047.4766,306.0
5049.4956,275.0
5051.5156,243.0
5053.536,264.0
5055.5576,261.0
5057.58,255.0
5059.603,249.0
5061.627,251.0
5063.6514,266.0
5065.677,237.0
5067.703,249.0
5069.73,249.0
5071.758,263.0
5073.7866,230.0
5075.816,256.0
5077.846,240.0
5079.8774,261.0
5081.909,262.0
5083.942,251.0
5085.9756,253.0
5088.01,239.0
5090.045,247.0
5092.081,248.0
5094.1177,277.0
5096.1553,261.0
5098.194,255.0
5100.233,258.0
5102.273,255.0
5104.314,264.0
5106.3555,247.0
5108.398,281.0
5110.4414,243.0
5112.4854,255.0
5114.5303,251.0
5116.576,257.0
5118.6226,287.0
5120.67,238.0
5122.7183,259.0
5124.7676,254.0
5126.8174,291.0
5128.868,286.0
5130.92,302.0
5132.972,280.0
5135.0254,270.0
5137.0796,293.0
5139.1343,236.0
5141.19,241.0
5143.2466,262.0
5145.3037,322.0
5147.362,328.0
5149.421,263.0
5151.4805,264.0
5153.541,254.0
5155.6025,248.0
5157.6646,262.0
5159.7275,262.0
5161.7915,274.0
5163.8564,275.0
5165.922,248.0
5167.9883,262.0
5170.0557,248.0
5172.1235,263.0
5174.1924,244.0
5176.262,249.0
5178.3325,304.0
5180.404,280.0
5182.476,271.0
5184.549,276.0
5186.6226,256.0
5188.6973,279.0
5190.773,298.0
5192.849,271.0
5194.9263,244.0
5197.0044,254.0
5199.083,266.0
5201.1626,273.0
5203.243,274.0
5205.324,303.0
5207.4062,266.0
5209.4893,283.0
5211.573,263.0
5213.6577,257.0
5215.743,253.0
5217.8296,263.0
5219.9165,309.0
5222.0044,289.0
5224.0933,287.0
5226.183,292.0
5228.2734,289.0
5230.3647,286.0
5232.457,289.0
5234.55,311.0
5236.6436,340.0
5238.7383,313.0
5240.834,265.0
5242.93,315.0
5245.0273,252.0
5247.1255,296.0
5249.224,297.0
5251.3237,281.0
5253.4243,288.0
5255.526,297.0
5257.628,269.0
5259.731,283.0
5261.835,250.0
5263.9395,279.0
5266.045,251.0
5268.1514,269.0
5270.259,257.0
5272.3667,276.0
5274.4756,283.0
5276.5854,302.0
5278.6963,260.0
5280.8076,263.0
5282.92,306.0
5285.033,298.0
5287.147,317.0
5289.2617,261.0
5291.3774,255.0
5293.494,245.0
5295.6113,241.0
5297.7295,290.0
5299.8486,314.0
5301.9688,350.0
5304.0894,296.0
5306.211,280.0
5308.3335,286.0
5310.457,299.0
5312.581,290.0
5314.706,262.0
5316.832,329.0
5318.959,378.0
5321.0864,323.0
5323.215,321.0
5325.344,309.0
5327.4746,250.0
5329.6055,278.0
5331.7373,255.0
5333.87,277.0
5336.004,281.0
5338.138,280.0
5340.2734,278.0
5342.4097,259.0
5344.547,309.0
5346.6846,283.0
5348.823,301.0
5350.963,277.0
5353.1035,279.0
5355.2446,283.0
5357.3867,306.0
5359.53,305.0
5361.674,313.0
5363.8184,311.0
5365.964,287.0
5368.1104,312.0
5370.258,301.0
5372.406,299.0
5374.5547,312.0
5376.7046,368.0
5378.8555,317.0
5381.007,319.0
5383.159,302.0
5385.3125,264.0
5387.467,295.0
5389.6216,310.0
5391.7773,317.0
5393.934,340.0
5396.092,322.0
5398.25,277.0
5400.409,297.0
5402.5693,295.0
5404.7305,317.0
5406.8926,324.0
5409.055,368.0
5411.2188,328.0
5413.3833,312.0
5415.549,334.0
5417.715,299.0
5419.882,320.0
5422.05,302.0
5424.2188,319.0
5426.3887,312.0
5428.559,318.0
5430.7305,311.0
5432.903,303.0
5435.076,308.0
5437.25,303.0
5439.425,339.0
5441.6006,359.0
5443.7773,330.0
5445.955,359.0
5448.1333,336.0
5450.3125,274.0
5452.4927,295.0
5454.674,296.0
5456.8555,311.0
5459.038,353.0
5461.2217,304.0
5463.4062,319.0
5465.592,305.0
5467.778,307.0
5469.965,360.0
5472.153,312.0
5474.342,342.0
5476.5317,364.0
5478.722,325.0
5480.9136,344.0
5483.106,286.0
5485.2993,316.0
5487.4937,337.0
5489.6885,390.0
5491.8843,338.0
5494.081,338.0
5496.279,343.0
5498.4775,335.0
5500.677,326.0
5502.877,355.0
5505.078,380.0
5507.2803,337.0
5509.4834,351.0
5511.687,355.0
5513.8916,328.0
5516.097,326.0
5518.3037,310.0
5520.511,345.0
5522.719,388.0
5524.928,313.0
5527.138,320.0
5529.349,310.0
5531.561,323.0
5533.7734,326.0
5535.987,311.0
5538.201,321.0
5540.4165,350.0
5542.633,348.0
5544.85,317.0
5547.068,322.0
5549.2866,301.0
5551.5063,311.0
5553.727,322.0
5555.9487,339.0
5558.171,344.0
5560.394,322.0
5562.618,360.0
5564.8433,329.0
5567.0693,337.0
5569.2964,328.0
5571.524,313.0
5573.7524,298.0
5575.982,352.0
5578.2124,289.0
5580.444,339.0
5582.676,361.0
5584.9087,357.0
5587.1426,310.0
5589.3774,336.0
5591.6133,308.0
5593.85,284.0
5596.0874,321.0
5598.3257,293.0
5600.565,355.0
5602.805,336.0
5605.0464,345.0
5607.2886,349.0
5609.5312,296.0
5611.775,320.0
5614.0195,285.0
5616.265,343.0
5618.5117,351.0
5620.7593,297.0
5623.008,289.0
5625.257,288.0
5627.507,318.0
5629.758,323.0
5632.01,310.0
5634.2627,313.0
5636.5166,266.0
5638.771,301.0
5641.0264,319.0
5643.2827,292.0
5645.54,285.0
5647.7983,320.0
5650.0576,267.0
5652.318,297.0
5654.5786,312.0
5656.8403,330.0
5659.103,324.0
5661.3667,341.0
5663.6313,308.0
5665.897,317.0
5668.1636,287.0
5670.4307,283.0
5672.6987,324.0
5674.968,333.0
5677.238,298.0
5679.509,373.0
5681.781,323.0
5684.0537,311.0
5686.327,331.0
5688.6016,312.0
5690.877,313.0
5693.1533,350.0
5695.4307,315.0
5697.709,304.0
5699.9883,345.0
5702.268,320.0
5704.549,321.0
5706.8306,343.0
5709.1133,326.0
5711.397,321.0
5713.6816,300.0
5715.9673,368.0
5718.254,343.0
5720.541,351.0
5722.829,343.0
5725.118,323.0
5727.408,357.0
5729.699,350.0
5731.991,366.0
5734.284,368.0
5736.578,359.0
5738.8726,347.0
5741.168,360.0
5743.4644,350.0
5745.7617,338.0
5748.06,351.0
5750.3594,323.0
5752.6597,351.0
5754.961,340.0
5757.2627,356.0
5759.5654,361.0
5761.869,365.0
5764.174,394.0
5766.4795,344.0
5768.786,377.0
5771.0938,359.0
5773.4023,367.0
5775.712,363.0
5778.022,425.0
5780.333,368.0
5782.645,374.0
5784.958,367.0
5787.272,366.0
5789.587,364.0
5791.903,386.0
5794.2197,357.0
5796.5376,447.0
5798.8564,403.0
5801.176,425.0
5803.496,445.0
5805.8174,466.0
5808.1396,432.0
5810.463,399.0
5812.787,449.0
5815.1123,421.0
5817.4385,433.0
5819.7656,420.0
5822.0938,475.0
5824.4224,452.0
5826.752,402.0
5829.0825,483.0
5831.414,497.0
5833.7466,453.0
5836.08,388.0
5838.4146,521.0
5840.75,506.0
5843.0864,442.0
5845.424,421.0
5847.762,482.0
5850.101,438.0
5852.441,417.0
5854.7817,406.0
5857.1235,379.0
5859.4663,395.0
5861.81,444.0
5864.155,392.0
5866.5005,430.0
5868.847,442.0
5871.195,411.0
5873.5435,425.0
5875.893,426.0
5878.2437,428.0
5880.5947,432.0
5882.947,398.0
5885.3,441.0
5887.654,449.0
5890.009,457.0
5892.3647,430.0
5894.7217,432.0
5897.0796,422.0
5899.4385,464.0
5901.7983,446.0
5904.159,456.0
5906.521,492.0
5908.884,484.0
5911.2476,477.0
5913.612,497.0
5915.977,485.0
5918.3433,516.0
5920.7104,454.0
5923.0786,457.0
5925.4478,481.0
5927.818,464.0
5930.189,506.0
5932.561,520.0
5934.934,512.0
5937.308,487.0
5939.683,452.0
5942.059,514.0
5944.436,511.0
5946.814,560.0
5949.193,488.0
5951.5728,482.0
5953.9536,491.0
5956.335,522.0
5958.7173,523.0
5961.1006,565.0
5963.485,542.0
5965.87,512.0
5968.2563,481.0
5970.6436,540.0
5973.0317,514.0
5975.421,567.0
5977.811,629.0
5980.202,528.0
5982.594,510.0
5984.9873,538.0
5987.3813,555.0
5989.7764,514.0
5992.1724,604.0
5994.5693,587.0
5996.9673,562.0
5999.366,537.0
6001.766,611.0
6004.167,607.0
6006.569,533.0
6008.9717,533.0
6011.3755,629.0
6013.7803,600.0
6016.1855,493.0
6018.592,570.0
6020.999,572.0
6023.407,521.0
6025.8164,508.0
6028.2266,495.0
6030.6377,539.0
6033.05,519.0
6035.463,531.0
6037.877,551.0
6040.292,506.0
6042.708,512.0
6045.125,580.0
6047.543,518.0
6049.962,475.0
6052.382,471.0
6054.8027,468.0
6057.2246,455.0
6059.6475,502.0
6062.0713,548.0
6064.496,565.0
6066.922,538.0
6069.3486,479.0
6071.7764,482.0
6074.205,496.0
6076.635,459.0
6079.0654,465.0
6081.497,481.0
6083.9297,568.0
6086.3633,513.0
6088.798,535.0
6091.2334,508.0
6093.67,529.0
6096.1074,505.0
6098.546,512.0
6100.9854,560.0
6103.426,513.0
6105.867,575.0
6108.3096,518.0
6110.753,501.0
6113.1973,653.0
6115.6426,609.0
6118.089,634.0
6120.536,599.0
6122.9844,590.0
6125.4336,524.0
6127.884,563.0
6130.335,646.0
6132.787,762.0
6135.24,660.0
6137.6943,612.0
6140.1494,679.0
6142.6055,603.0
6145.0625,637.0
6147.5205,682.0
6149.9795,816.0
6152.4395,698.0
6154.9004,677.0
6157.3623,785.0
6159.825,807.0
6162.289,712.0
6164.754,660.0
6167.2197,678.0
6169.6865,658.0
6172.1543,742.0
6174.623,999.0
6177.093,998.0
6179.5635,822.0
6182.035,744.0
6184.508,684.0
6186.9814,692.0
6189.456,703.0
6191.9316,1075.0
6194.408,1088.0
6196.8857,912.0
6199.3643,855.0
6201.844,824.0
6204.325,717.0
6206.807,661.0
6209.29,602.0
6211.774,649.0
6214.259,765.0
6216.7446,908.0
6219.2314,899.0
6221.719,693.0
6224.208,625.0
6226.6978,645.0
6229.1885,760.0
6231.68,950.0
6234.173,1033.0
6236.6665,889.0
6239.161,774.0
6241.6567,616.0
6244.1533,638.0
6246.651,809.0
6249.1494,879.0
6251.649,738.0
6254.1494,776.0
6256.651,934.0
6259.1533,769.0
6261.6567,709.0
6264.1616,572.0
6266.6675,574.0
6269.1743,529.0
6271.682,918.0
6274.191,1310.0
6276.7007,1047.0
6279.2114,738.0
6281.723,596.0
6284.236,536.0
6286.7495,571.0
6289.264,1138.0
6291.78,1664.0
6294.2964,1193.0
6296.814,818.0
6299.3325,612.0
6301.852,579.0
6304.3726,521.0
6306.8945,530.0
6309.4175,534.0
6311.9414,566.0
6314.4663,567.0
6316.992,524.0
6319.519,480.0
6322.047,477.0
6324.5757,457.0
6327.1055,499.0
6329.636,518.0
6332.168,505.0
6334.7007,552.0
6337.2344,504.0
6339.769,540.0
6342.305,485.0
6344.8423,531.0
6347.3804,505.0
6349.9194,483.0
6352.4595,532.0
6355.0005,535.0
6357.5425,506.0
6360.0854,553.0
6362.6294,565.0
6365.1743,563.0
6367.72,552.0
6370.267,657.0
6372.8154,573.0
6375.3647,543.0
6377.915,555.0
6380.4663,585.0
6383.0186,555.0
6385.572,552.0
6388.126,603.0
6390.681,575.0
6393.2373,524.0
6395.7944,506.0
6398.3525,572.0
6400.912,564.0
6403.4727,583.0
6406.034,595.0
6408.5967,581.0
6411.16,579.0
6413.7246,569.0
6416.29,523.0
6418.8564,579.0
6421.424,528.0
6423.992,519.0
6426.562,531.0
6429.133,586.0
6431.7046,565.0
6434.2773,591.0
6436.851,591.0
6439.426,546.0
6442.0015,507.0
6444.578,536.0
6447.156,593.0
6449.735,567.0
6452.315,580.0
6454.896,569.0
6457.478,541.0
6460.061,514.0
6462.645,520.0
6465.23,497.0
6467.816,515.0
6470.403,542.0
6472.991,543.0
6475.5806,520.0
6478.171,558.0
6480.762,568.0
6483.3545,548.0
6485.9478,577.0
6488.542,528.0
6491.137,603.0
6493.734,579.0
6496.3315,622.0
6498.93,566.0
6501.53,619.0
6504.1304,571.0
6506.732,608.0
6509.3345,594.0
6511.938,605.0
6514.543,655.0
6517.149,655.0
6519.756,557.0
6522.364,642.0
6524.9727,658.0
6527.5825,633.0
6530.1934,672.0
6532.8057,672.0
6535.419,644.0
6538.033,642.0
6540.6484,752.0
6543.2646,657.0
6545.882,647.0
6548.5,685.0
6551.1196,710.0
6553.74,698.0
6556.362,743.0
6558.9844,830.0
6561.608,732.0
6564.2324,667.0
6566.858,648.0
6569.485,650.0
6572.113,706.0
6574.7417,696.0
6577.3716,745.0
6580.0024,702.0
6582.6343,677.0
6585.267,723.0
6587.9014,686.0
6590.5366,703.0
6593.173,754.0
6595.81,764.0
6598.448,693.0
6601.0874,667.0
6603.728,665.0
6606.3696,713.0
6609.012,694.0
6611.656,715.0
6614.3003,721.0
6616.946,698.0
6619.593,685.0
6622.2407,757.0
6624.8896,663.0
6627.5396,635.0
6630.1904,719.0
6632.8423,643.0
6635.4956,640.0
6638.15,823.0
6640.805,853.0
6643.4614,753.0
6646.1187,658.0
6648.7773,673.0
6651.437,617.0
6654.0977,698.0
6656.7593,813.0
6659.422,766.0
6662.0854,706.0
6664.7505,685.0
6667.4165,605.0
6670.0835,583.0
6672.7515,591.0
6675.4204,671.0
6678.091,629.0
6680.762,733.0
6683.4346,618.0
6686.108,589.0
6688.782,581.0
6691.4575,635.0
6694.1343,701.0
6696.812,721.0
6699.4907,728.0
6702.1704,567.0
6704.851,589.0
6707.533,685.0
6710.2163,638.0
6712.9004,641.0
6715.5854,713.0
6718.2715,688.0
6720.959,676.0
6723.6475,754.0
6726.337,766.0
6729.0273,653.0
6731.7188,663.0
6734.4116,649.0
6737.1055,702.0
6739.8003,796.0
6742.496,787.0
6745.193,786.0
6747.891,701.0
6750.5903,700.0
6753.2905,620.0
6755.9917,694.0
6758.6943,942.0
6761.398,897.0
6764.1025,847.0
6766.808,802.0
6769.5146,708.0
6772.2227,699.0
6774.9316,719.0
6777.6416,910.0
6780.3525,879.0
6783.0645,843.0
6785.778,872.0
6788.492,762.0
6791.2075,862.0
6793.924,845.0
6796.6416,725.0
6799.3604,701.0
6802.08,745.0
6804.801,871.0
6807.5225,1021.0
6810.2456,1031.0
6812.9697,863.0
6815.695,691.0
6818.421,639.0
6821.1484,900.0
6823.877,1361.0
6826.6064,1277.0
6829.337,926.0
6832.069,672.0
6834.802,598.0
6837.5356,694.0
6840.2705,868.0
6843.007,1111.0
6845.744,889.0
6848.4824,656.0
6851.2217,647.0
6853.9624,802.0
6856.704,947.0
6859.447,807.0
6862.1904,685.0
6864.9355,644.0
6867.6816,619.0
6870.4287,610.0
6873.177,603.0
6875.9263,588.0
6878.677,633.0
6881.428,581.0
6884.1807,623.0
6886.9346,611.0
6889.6895,565.0
6892.4453,539.0
6895.202,613.0
6897.9604,600.0
6900.7197,623.0
6903.48,662.0
6906.241,632.0
6909.004,638.0
6911.7676,672.0
6914.532,703.0
6917.298,645.0
6920.065,673.0
6922.833,636.0
6925.602,573.0
6928.372,631.0
6931.1436,586.0
6933.916,623.0
6936.6895,598.0
6939.4644,613.0
6942.24,560.0
6945.017,649.0
6947.795,686.0
6950.574,691.0
6953.3545,643.0
6956.1357,702.0
6958.918,673.0
6961.7017,666.0
6964.4863,642.0
6967.272,655.0
6970.059,606.0
6972.847,713.0
6975.636,713.0
6978.4263,704.0
6981.218,769.0
6984.0103,767.0
6986.8037,737.0
6989.5986,717.0
6992.3945,836.0
6995.1914,837.0
6997.9893,842.0
7000.7886,848.0
7003.589,766.0
7006.39,792.0
7009.193,836.0
7011.9966,743.0
7014.8013,735.0
7017.6074,823.0
7020.4146,868.0
7023.2227,941.0
7026.0317,1091.0
7028.8423,975.0
7031.654,702.0
7034.4663,669.0
7037.2803,663.0
7040.095,822.0
7042.911,1148.0
7045.7285,1090.0
7048.547,760.0
7051.366,687.0
7054.1865,677.0
7057.0083,868.0
7059.831,1569.0
7062.655,1322.0
7065.48,924.0
7068.306,768.0
7071.1333,686.0
7073.962,648.0
7076.7915,609.0
7079.622,703.0
7082.454,727.0
7085.287,757.0
7088.121,795.0
7090.9565,712.0
7093.793,743.0
7096.6304,753.0
7099.469,766.0
7102.309,668.0
7105.15,749.0
7107.992,813.0
7110.8354,798.0
7113.6797,840.0
7116.5254,847.0
7119.372,758.0
7122.2197,891.0
7125.069,926.0
7127.919,932.0
7130.77,890.0
7133.6226,803.0
7136.476,856.0
7139.3306,1062.0
7142.1865,1113.0
7145.0435,957.0
7147.9014,886.0
7150.7607,870.0
7153.621,1031.0
7156.4824,1311.0
7159.345,1372.0
7162.209,1061.0
7165.0737,937.0
7167.94,998.0
7170.807,1118.0
7173.6753,1169.0
7176.545,1067.0
7179.4155,1033.0
7182.287,1049.0
7185.16,954.0
7188.034,1071.0
7190.909,1043.0
7193.7856,929.0
7196.663,1359.0
7199.542,1447.0
7202.422,1018.0
7205.3027,743.0
7208.185,656.0
7211.0684,791.0
7213.9526,1656.0
7216.8384,1617.0
7219.725,984.0
7222.613,741.0
7225.502,746.0
7228.392,891.0
7231.283,2133.0
7234.176,2245.0
7237.0693,1256.0
7239.9644,805.0
7242.8604,703.0
7245.7573,623.0
7248.656,623.0
7251.555,683.0
7254.4556,677.0
7257.3574,650.0
7260.2603,547.0
7263.1646,604.0
7266.07,674.0
7268.976,659.0
7271.884,676.0
7274.7925,597.0
7277.7026,608.0
7280.614,630.0
7283.526,657.0
7286.4395,648.0
7289.354,623.0
7292.2695,647.0
7295.1865,788.0
7298.1045,743.0
7301.024,602.0
7303.9443,600.0
7306.8657,552.0
7309.7886,692.0
7312.7124,882.0
7315.6377,768.0
7318.564,634.0
7321.491,486.0
7324.42,565.0
7327.3496,703.0
7330.281,976.0
7333.213,826.0
7336.146,698.0
7339.0806,612.0
7342.016,573.0
7344.953,603.0
7347.891,676.0
7350.83,648.0
7353.7705,632.0
7356.712,598.0
7359.655,650.0
7362.5986,612.0
7365.5435,543.0
7368.4897,555.0
7371.437,579.0
7374.3857,603.0
7377.3354,613.0
7380.2866,631.0
7383.239,623.0
7386.192,615.0
7389.1465,587.0
7392.102,536.0
7395.059,515.0
7398.017,654.0
7400.976,723.0
7403.9365,683.0
7406.898,600.0
7409.861,561.0
7412.8247,537.0
7415.79,655.0
7418.7563,714.0
7421.7236,623.0
7424.6924,566.0
7427.662,542.0
7430.6333,469.0
7433.6055,655.0
7436.579,682.0
7439.5537,613.0
7442.5293,562.0
7445.5063,540.0
7448.4844,486.0
7451.464,557.0
7454.4443,564.0
7457.4263,442.0
7460.409,518.0
7463.3936,459.0
7466.379,543.0
7469.365,612.0
7472.353,527.0
7475.342,410.0
7478.332,406.0
7481.323,477.0
7484.316,688.0
7487.3096,707.0
7490.3047,513.0
7493.301,431.0
7496.2983,419.0
7499.297,429.0
7502.2964,474.0
7505.2974,474.0
7508.2993,429.0
7511.3027,433.0
7514.307,430.0
7517.313,427.0
7520.32,437.0
7523.328,411.0
7526.3374,426.0
7529.348,499.0
7532.36,445.0
7535.373,439.0
7538.387,424.0
7541.4023,412.0
7544.419,461.0
7547.4365,562.0
7550.4556,426.0
7553.4756,441.0
7556.497,433.0
7559.5195,384.0
7562.5435,519.0
7565.5684,512.0
7568.5947,461.0
7571.622,430.0
7574.651,442.0
7577.6807,406.0
7580.712,488.0
7583.744,493.0
7586.778,467.0
7589.8125,386.0
7592.8486,402.0
7595.8857,422.0
7598.9243,423.0
7601.964,442.0
7605.005,431.0
7608.047,412.0
7611.0903,380.0
7614.135,461.0
7617.18,521.0
7620.227,457.0
7623.275,412.0
7626.324,389.0
7629.3745,383.0
7632.4263,426.0
7635.479,424.0
7638.533,421.0
7641.5884,403.0
7644.645,373.0
7647.7026,384.0
7650.7617,393.0
7653.8223,402.0
7656.884,403.0
7659.947,417.0
7663.0107,431.0
7666.076,450.0
7669.1426,398.0
7672.2104,396.0
7675.2793,422.0
7678.3496,416.0
7681.421,434.0
7684.4937,448.0
7687.5674,456.0
7690.6426,447.0
7693.7188,471.0
7696.7964,475.0
7699.875,434.0
7702.955,470.0
7706.036,475.0
7709.1187,488.0
7712.202,452.0
7715.287,445.0
7718.373,486.0
7721.4604,483.0
7724.549,517.0
7727.6387,547.0
7730.7295,480.0
7733.822,497.0
7736.9155,475.0
7740.0103,531.0
7743.1064,534.0
7746.2036,570.0
7749.3022,544.0
7752.402,599.0
7755.503,634.0
7758.605,577.0
7761.7085,485.0
7764.813,502.0
7767.919,586.0
7771.026,677.0
7774.1343,621.0
7777.244,601.0
7780.355,555.0
7783.4673,533.0
7786.5806,677.0
7789.6953,742.0
7792.811,673.0
7795.928,631.0
7799.0464,528.0
7802.166,560.0
7805.287,531.0
7808.409,599.0
7811.5327,636.0
7814.657,626.0
7817.783,569.0
7820.91,551.0
7824.0386,552.0
7827.168,638.0
7830.299,698.0
7833.431,582.0
7836.5645,547.0
7839.699,579.0
7842.835,601.0
7845.972,706.0
7849.1104,685.0
7852.25,608.0
7855.391,654.0
7858.533,676.0
7861.677,605.0
7864.8213,633.0
7867.9673,660.0
7871.1143,651.0
7874.2627,653.0
7877.4126,639.0
7880.5635,731.0
7883.716,750.0
7886.869,693.0
7890.024,645.0
7893.18,552.0
7896.3374,704.0
7899.496,847.0
7902.656,888.0
7905.817,763.0
7908.979,703.0
7912.1426,699.0
7915.3076,874.0
7918.4736,974.0
7921.641,925.0
7924.8096,863.0
7927.9795,790.0
7931.151,873.0
7934.323,793.0
7937.497,940.0
7940.672,931.0
7943.848,982.0
7947.026,933.0
7950.2046,967.0
7953.385,915.0
7956.566,1022.0
7959.7485,955.0
7962.9326,1135.0
7966.1177,1071.0
7969.304,1251.0
7972.4917,1278.0
7975.6807,1118.0
7978.871,1179.0
7982.0625,1454.0
7985.2554,1491.0
7988.4497,1398.0
7991.645,1389.0
7994.842,1413.0
7998.0396,1415.0
8001.239,1425.0
8004.4395,1683.0
8007.641,1754.0
8010.844,1737.0
8014.0483,1701.0
8017.254,1710.0
8020.461,1791.0
8023.669,1906.0
8026.8784,1757.0
8030.0894,1791.0
8033.3013,1987.0
8036.5146,2297.0
8039.7295,2527.0
8042.9453,2372.0
8046.1626,2164.0
8049.381,2213.0
8052.6006,2616.0
8055.822,3016.0
8059.044,3063.0
8062.2676,2771.0
8065.4927,2947.0
8068.7188,3077.0
8071.9463,3104.0
8075.1753,3463.0
8078.4053,3358.0
8081.6367,3991.0
8084.869,4560.0
8088.103,3943.0
8091.3384,3202.0
8094.5747,3123.0
8097.8125,4023.0
8101.052,6242.0
8104.292,5690.0
8107.5337,4680.0
8110.777,4049.0
8114.021,3703.0
8117.2666,6656.0
8120.5137,8408.0
8123.7617,7041.0
8127.011,6401.0
8130.262,5033.0
8133.514,4807.0
8136.7676,5418.0
8140.0225,6274.0
8143.2783,8111.0
8146.5356,7345.0
8149.7944,5898.0
8153.054,7485.0
8156.3154,6515.0
8159.578,6582.0
8162.842,7735.0
8166.107,7575.0
8169.3735,12726.0
8172.641,12130.0
8175.91,6607.0
8179.1807,3487.0
8182.452,4171.0
8185.725,17220.0
8188.9995,22516.0
8192.275,10038.0
8195.553,4241.0
8198.831,3166.0
8202.11,14402.0
8205.392,35743.0
8208.674,21270.0
8211.957,7586.0
8215.242,3319.0
8218.528,2316.0
8221.815,1880.0
8225.1045,2528.0
8228.395,3231.0
8231.686,2586.0
8234.979,1581.0
8238.272,1247.0
8241.567,1275.0
8244.864,1447.0
8248.162,1480.0
8251.461,1239.0
8254.762,1142.0
8258.063,1095.0
8261.367,1193.0
8264.672,1179.0
8267.978,1186.0
8271.285,1163.0
8274.594,1100.0
8277.903,953.0
8281.215,928.0
8284.527,1014.0
8287.841,1188.0
8291.156,1207.0
8294.473,1081.0
8297.79,976.0
8301.109,1008.0
8304.43,1082.0
8307.751,1089.0
8311.074,1190.0
8314.398,1208.0
8317.725,1163.0
8321.052,1073.0
8324.38,981.0
8327.71,1080.0
8331.041,1467.0
8334.373,1305.0
8337.707,1050.0
8341.042,991.0
8344.378,1078.0
8347.716,1377.0
8351.055,1513.0
8354.3955,1207.0
8357.737,1188.0
8361.08,1004.0
8364.425,875.0
8367.7705,841.0
8371.117,886.0
8374.466,1137.0
8377.815,1187.0
8381.167,918.0
8384.52,727.0
8387.873,771.0
8391.229,954.0
8394.585,863.0
8397.942,824.0
8401.302,785.0
8404.662,823.0
8408.024,932.0
8411.388,833.0
8414.752,825.0
8418.118,730.0
8421.485,744.0
8424.854,732.0
8428.224,747.0
8431.595,821.0
8434.968,821.0
8438.342,790.0
8441.717,821.0
8445.094,837.0
8448.472,961.0
8451.851,881.0
8455.231,834.0
8458.613,897.0
8461.997,898.0
8465.382,1010.0
8468.768,1056.0
8472.155,1107.0
8475.544,1031.0
8478.935,979.0
8482.326,996.0
8485.719,1131.0
8489.113,1328.0
8492.509,1442.0
8495.906,1239.0
8499.305,1197.0
8502.704,1302.0
8506.105,1475.0
8509.508,1744.0
8512.911,1412.0
8516.316,1635.0
8519.723,1954.0
8523.131,1576.0
8526.54,1734.0
8529.95,1638.0
8533.362,2356.0
8536.775,3015.0
8540.19,2037.0
8543.606,1256.0
8547.023,1140.0
8550.442,2903.0
8553.862,4207.0
8557.284,2583.0
8560.707,1523.0
8564.131,1266.0
8567.557,3234.0
8570.983,5919.0
8574.412,3639.0
8577.842,1964.0
8581.272,1266.0
8584.705,987.0
8588.139,823.0
8591.574,1035.0
8595.011,1503.0
8598.449,1490.0
8601.889,978.0
8605.329,758.0
8608.771,742.0
8612.215,692.0
8615.66,714.0
8619.106,748.0
8622.554,711.0
8626.003,681.0
8629.453,662.0
8632.905,669.0
8636.358,733.0
8639.8125,745.0
8643.269,718.0
8646.726,681.0
8650.185,674.0
8653.645,757.0
8657.106,743.0
8660.569,765.0
8664.033,757.0
8667.499,800.0
8670.966,788.0
8674.435,829.0
8677.904,890.0
8681.375,885.0
8684.848,863.0
8688.321,809.0
8691.797,820.0
8695.273,1006.0
8698.752,987.0
8702.231,896.0
8705.712,948.0
8709.194,1003.0
8712.678,1008.0
8716.163,1192.0
8719.649,1152.0
8723.138,1111.0
8726.627,1114.0
8730.117,1179.0
8733.609,1226.0
8737.103,1193.0
8740.598,1187.0
8744.094,1157.0
8747.592,1160.0
8751.091,1259.0
8754.591,1492.0
8758.093,1371.0
8761.596,1239.0
8765.101,1393.0
8768.606,1489.0
8772.114,1644.0
8775.623,1622.0
8779.133,1635.0
8782.645,1744.0
8786.157,1584.0
8789.672,1581.0
8793.1875,1618.0
8796.705,2187.0
8800.224,2400.0
8803.744,1828.0
8807.266,1476.0
8810.788,1616.0
8814.3125,2786.0
8817.838,3121.0
8821.365,2126.0
8824.894,1702.0
8828.424,1795.0
8831.955,3016.0
8835.488,3411.0
8839.022,2409.0
8842.558,2140.0
8846.095,1822.0
8849.633,1674.0
8853.173,1651.0
8856.714,2248.0
8860.257,2636.0
8863.801,2107.0
8867.347,1773.0
8870.894,1773.0
8874.442,2504.0
8877.992,3028.0
8881.543,2556.0
8885.096,2144.0
8888.649,1830.0
8892.205,1751.0
8895.762,1864.0
8899.32,2262.0
8902.88,2486.0
8906.441,1931.0
8910.004,1809.0
8913.568,1891.0
8917.134,2639.0
8920.7,2507.0
8924.269,2053.0
8927.838,1900.0
8931.409,1989.0
8934.981,2945.0
8938.556,2741.0
8942.131,2223.0
8945.708,2133.0
8949.286,1717.0
8952.866,1521.0
8956.447,1591.0
8960.03,2041.0
8963.614,2060.0
8967.199,1619.0
8970.786,1404.0
8974.374,1557.0
8977.964,1912.0
8981.555,1682.0
8985.147,1442.0
8988.741,1413.0
8992.337,1594.0
8995.934,1809.0
8999.532,1577.0
9003.132,1381.0
9006.733,1421.0
9010.336,1635.0
9013.94,1530.0
9017.546,1303.0
9021.153,1279.0
9024.762,1698.0
9028.372,1728.0
9031.983,1370.0
9035.597,1085.0
9039.211,1290.0
9042.826,1800.0
9046.443,1556.0
9050.062,1077.0
9053.682,991.0
9057.303,1406.0
9060.926,2185.0
9064.55,1663.0
9068.176,1028.0
9071.803,904.0
9075.432,1149.0
9079.062,1327.0
9082.693,1144.0
9086.326,905.0
9089.961,921.0
9093.597,953.0
9097.234,1051.0
9100.873,943.0
9104.514,870.0
9108.155,818.0
9111.799,700.0
9115.443,744.0
9119.09,790.0
9122.737,923.0
9126.387,812.0
9130.037,753.0
9133.689,748.0
9137.343,889.0
9140.998,899.0
9144.654,769.0
9148.3125,786.0
9151.972,763.0
9155.633,682.0
9159.295,684.0
9162.959,967.0
9166.624,984.0
9170.291,816.0
9173.959,614.0
9177.629,809.0
9181.3,1114.0
9184.973,1077.0
9188.646,784.0
9192.322,682.0
9195.999,816.0
9199.678,1139.0
9203.357,867.0
9207.039,766.0
9210.722,658.0
9214.406,478.0
9218.092,514.0
9221.779,598.0
9225.468,763.0
9229.158,647.0
9232.85,514.0
9236.543,461.0
9240.237,719.0
9243.934,849.0
9247.631,661.0
9251.33,450.0
9255.03,417.0
9258.732,358.0
9262.436,394.0
9266.141,445.0
9269.847,435.0
9273.555,351.0
9277.264,352.0
9280.975,374.0
9284.687,420.0
9288.4,396.0
9292.116,336.0
9295.833,354.0
9299.552,379.0
9303.271,372.0
9306.993,358.0
9310.716,356.0
9314.44,378.0
9318.166,307.0
9321.894,329.0
9325.622,334.0
9329.353,336.0
9333.084,323.0
9336.817,302.0
9340.552,308.0
9344.288,290.0
9348.025,311.0
9351.765,330.0
9355.505,299.0
9359.247,295.0
9362.991,313.0
9366.736,311.0
9370.483,306.0
9374.231,299.0
9377.981,292.0
9381.732,283.0
9385.485,312.0
9389.239,304.0
9392.995,267.0
9396.752,285.0
9400.511,295.0
9404.2705,305.0
9408.032,312.0
9411.796,290.0
9415.561,269.0
9419.327,302.0
9423.095,296.0
9426.864,288.0
9430.635,290.0
9434.407,289.0
9438.181,261.0
9441.956,307.0
9445.732,344.0
9449.511,266.0
9453.291,288.0
9457.072,275.0
9460.855,308.0
9464.64,296.0
9468.426,296.0
9472.213,283.0
9476.002,237.0
9479.792,217.0
9483.584,246.0
9487.377,330.0
9491.172,274.0
9494.969,253.0
9498.767,239.0
9502.566,268.0
9506.367,297.0
9510.17,253.0
9513.974,209.0
9517.779,245.0
9521.586,198.0
9525.395,236.0
9529.205,234.0
9533.017,260.0
9536.83,228.0
9540.645,218.0
9544.461,260.0
9548.278,263.0
9552.098,295.0
9555.919,264.0
9559.741,200.0
9563.565,219.0
9567.391,234.0
9571.218,202.0
9575.046,225.0
9578.876,205.0
9582.708,205.0
9586.541,222.0
9590.376,261.0
9594.212,211.0
9598.05,195.0
9601.889,213.0
9605.7295,204.0
9609.572,209.0
9613.416,230.0
9617.262,201.0
9621.108,206.0
9624.957,194.0
9628.807,197.0
9632.658,218.0
9636.512,209.0
9640.366,179.0
9644.223,219.0
9648.08,192.0
9651.939,198.0
9655.8,223.0
9659.662,220.0
9663.526,214.0
9667.392,215.0
9671.259,185.0
9675.127,198.0
9678.997,248.0
9682.869,202.0
9686.742,192.0
9690.617,193.0
9694.493,177.0
9698.371,181.0
9702.25,173.0
9706.131,227.0
9710.014,187.0
9713.897,179.0
9717.783,160.0
9721.67,181.0
9725.559,188.0
9729.449,181.0
9733.341,197.0
9737.234,176.0
9741.129,174.0
9745.025,187.0
9748.924,181.0
9752.823,185.0
9756.725,189.0
9760.627,180.0
9764.531,205.0
9768.4375,189.0
9772.345,185.0
9776.254,173.0
9780.164,183.0
9784.076,166.0
9787.99,200.0
9791.905,201.0
9795.822,207.0
9799.74,201.0
9803.66,212.0
9807.582,235.0
9811.505,197.0
9815.43,216.0
9819.355,210.0
9823.283,181.0
9827.213,221.0
9831.144,255.0
9835.076,197.0
9839.01,207.0
9842.945,215.0
9846.883,316.0
9850.821,247.0
9854.762,220.0
9858.704,233.0
9862.647,207.0
9866.593,178.0
9870.539,214.0
9874.487,209.0
9878.4375,200.0
9882.389,170.0
9886.342,201.0
9890.296,180.0
9894.252,171.0
9898.21,191.0
9902.169,180.0
9906.13,180.0
9910.093,213.0
9914.057,197.0
9918.022,198.0
9921.989,212.0
9925.958,204.0
9929.929,191.0
9933.9,167.0
9937.874,226.0
9941.85,186.0
9945.826,170.0
9949.805,205.0
9953.784,192.0
9957.766,195.0
9961.749,170.0
9965.733,182.0
9969.72,187.0
9973.708,205.0
9977.697,175.0
9981.688,191.0
9985.681,202.0
9989.675,176.0
9993.671,201.0
9997.668,184.0
10001.667,194.0
10005.668,154.0
10009.67,156.0
10013.674,185.0
10017.68,206.0
10021.687,168.0
10025.695,205.0
10029.706,168.0
10033.718,163.0
10037.731,183.0
10041.746,204.0
10045.763,168.0
10049.781,195.0
10053.801,206.0
10057.822,160.0
10061.846,190.0
10065.87,198.0
10069.896,186.0
10073.925,171.0
10077.954,200.0
10081.985,189.0
10086.019,168.0
10090.053,177.0
10094.089,179.0
10098.127,178.0
10102.166,193.0
10106.207,182.0
10110.25,169.0
10114.294,167.0
10118.34,179.0
10122.387,182.0
10126.436,170.0
10130.486,173.0
10134.538,174.0
10138.592,190.0
10142.647,181.0
10146.704,178.0
10150.763,184.0
10154.823,187.0
10158.885,209.0
10162.948,210.0
10167.014,170.0
10171.08,174.0
10175.148,196.0
10179.219,148.0
10183.29,164.0
10187.363,174.0
10191.438,180.0
10195.515,195.0
10199.593,182.0
10203.673,182.0
10207.754,158.0
10211.837,181.0
10215.922,188.0
10220.008,193.0
10224.096,170.0
10228.186,193.0
10232.276,173.0
10236.369,194.0
10240.464,203.0
10244.56,203.0
10248.657,178.0
10252.757,191.0
10256.858,194.0
10260.961,174.0
10265.065,198.0
10269.172,186.0
10273.279,188.0
10277.389,186.0
10281.5,167.0
10285.612,162.0
10289.727,206.0
10293.843,185.0
10297.96,218.0
10302.079,186.0
10306.2,211.0
10310.322,163.0
10314.446,199.0
10318.572,176.0
10322.699,193.0
10326.828,177.0
10330.959,195.0
10335.092,179.0
10339.226,175.0
10343.361,180.0
10347.499,192.0
10351.638,172.0
10355.778,199.0
10359.921,184.0
10364.064,173.0
10368.21,173.0
10372.357,179.0
10376.507,212.0
10380.657,192.0
10384.81,161.0
10388.964,211.0
10393.119,191.0
10397.276,206.0
10401.436,196.0
10405.596,181.0
10409.758,184.0
10413.922,197.0
10418.088,191.0
10422.255,194.0
10426.424,175.0
10430.595,176.0
10434.767,193.0
10438.94,175.0
10443.116,186.0
10447.294,199.0
10451.473,179.0
10455.653,170.0
10459.836,203.0
10464.02,188.0
10468.205,178.0
10472.393,188.0
10476.581,180.0
10480.771,183.0
10484.964,203.0
10489.158,191.0
10493.354,193.0
10497.551,195.0
10501.75,171.0
10505.951,203.0
10510.153,176.0
10514.357,176.0
10518.563,166.0
10522.7705,197.0
10526.9795,137.0
10531.19,191.0
10535.403,193.0
10539.617,177.0
10543.833,186.0
10548.051,188.0
10552.27,174.0
10556.49,190.0
10560.713,179.0
10564.9375,195.0
10569.163,163.0
10573.391,205.0
10577.62,208.0
10581.852,194.0
10586.084,209.0
10590.318,184.0
10594.555,197.0
10598.793,174.0
10603.032,193.0
10607.273,182.0
10611.517,187.0
10615.761,196.0
10620.007,171.0
10624.255,217.0
10628.505,205.0
10632.756,210.0
10637.009,189.0
10641.264,206.0
10645.5205,190.0
10649.778,206.0
10654.038,215.0
10658.3,222.0
10662.563,211.0
10666.828,216.0
10671.095,196.0
10675.363,197.0
10679.634,227.0
10683.905,203.0
10688.179,222.0
10692.454,223.0
10696.731,245.0
10701.01,228.0
10705.29,192.0
10709.572,237.0
10713.856,202.0
10718.142,189.0
10722.429,220.0
10726.718,201.0
10731.009,196.0
10735.301,218.0
10739.595,237.0
10743.891,235.0
10748.188,186.0
10752.487,197.0
10756.788,227.0
10761.091,224.0
10765.3955,231.0
10769.702,207.0
10774.01,213.0
10778.319,204.0
10782.631,182.0
10786.944,206.0
10791.259,194.0
10795.575,220.0
10799.894,186.0
10804.214,201.0
10808.535,212.0
10812.858,194.0
10817.184,182.0
10821.511,203.0
10825.839,198.0
10830.169,211.0
10834.501,201.0
10838.835,214.0
10843.171,195.0
10847.508,201.0
10851.847,204.0
10856.1875,212.0
10860.53,207.0
10864.874,223.0
10869.22,200.0
10873.567,190.0
10877.917,198.0
10882.269,195.0
10886.621,238.0
10890.976,193.0
10895.332,199.0
10899.69,175.0
10904.051,193.0
10908.412,226.0
10912.775,195.0
10917.141,219.0
10921.508,224.0
10925.876,195.0
10930.246,173.0
10934.618,210.0
10938.992,214.0
10943.368,215.0
10947.745,229.0
10952.124,231.0
10956.505,198.0
10960.888,208.0
10965.272,211.0
10969.658,230.0
10974.046,221.0
10978.436,218.0
10982.827,193.0
10987.221,196.0
10991.615,202.0
10996.012,208.0
11000.41,238.0
11004.811,209.0
11009.213,187.0
11013.616,182.0
11018.021,213.0
11022.429,214.0
11026.838,217.0
11031.249,222.0
11035.661,226.0
11040.075,214.0
11044.491,209.0
11048.909,202.0
11053.329,245.0
11057.75,199.0
11062.173,237.0
11066.598,208.0
11071.024,220.0
11075.453,205.0
11079.884,219.0
11084.315,252.0
11088.749,221.0
11093.185,199.0
11097.622,272.0
11102.062,228.0
11106.502,186.0
11110.944,221.0
11115.389,220.0
11119.835,199.0
11124.283,213.0
11128.733,214.0
11133.185,231.0
11137.638,187.0
11142.093,209.0
11146.55,221.0
11151.009,233.0
11155.469,221.0
11159.931,221.0
11164.395,239.0
11168.86,225.0
11173.328,245.0
11177.798,252.0
11182.269,224.0
11186.741,252.0
11191.216,238.0
11195.692,245.0
11200.171,233.0
11204.651,212.0
11209.133,248.0
11213.616,224.0
11218.102,243.0
11222.589,245.0
11227.078,260.0
11231.569,241.0
11236.062,252.0
11240.556,256.0
11245.052,238.0
11249.55,244.0
11254.05,243.0
11258.552,276.0
11263.056,268.0
11267.561,272.0
11272.067,242.0
11276.576,298.0
11281.087,280.0
11285.6,273.0
11290.114,258.0
11294.63,300.0
11299.147,279.0
11303.667,288.0
11308.188,283.0
11312.712,282.0
11317.237,286.0
11321.765,282.0
11326.293,299.0
11330.823,275.0
11335.355,295.0
11339.89,296.0
11344.426,357.0
11348.964,298.0
11353.504,325.0
11358.045,329.0
11362.588,370.0
11367.133,339.0
11371.68,332.0
11376.229,347.0
11380.779,333.0
11385.332,374.0
11389.886,362.0
11394.441,399.0
11398.999,402.0
11403.559,404.0
11408.12,413.0
11412.684,430.0
11417.249,424.0
11421.816,419.0
11426.385,485.0
11430.955,464.0
11435.527,456.0
11440.102,455.0
11444.678,485.0
11449.256,512.0
11453.836,502.0
11458.417,506.0
11463.0,555.0
11467.585,506.0
11472.172,561.0
11476.761,547.0
11481.352,560.0
11485.944,532.0
11490.539,552.0
11495.136,588.0
11499.733,614.0
11504.333,580.0
11508.935,627.0
11513.538,644.0
11518.144,610.0
11522.751,574.0
11527.36,591.0
11531.972,647.0
11536.584,625.0
11541.198,656.0
11545.814,683.0
11550.433,636.0
11555.053,598.0
11559.675,712.0
11564.299,694.0
11568.925,633.0
11573.553,625.0
11578.183,712.0
11582.813,698.0
11587.446,628.0
11592.081,768.0
11596.718,742.0
11601.356,593.0
11605.997,639.0
11610.64,722.0
11615.284,739.0
11619.931,635.0
11624.579,706.0
11629.229,690.0
11633.88,629.0
11638.533,635.0
11643.188,778.0
11647.846,645.0
11652.505,518.0
11657.166,739.0
11661.829,744.0
11666.494,533.0
11671.161,520.0
11675.83,849.0
11680.5,834.0
11685.172,528.0
11689.846,528.0
11694.521,548.0
11699.199,425.0
11703.879,374.0
11708.561,416.0
11713.244,345.0
11717.93,362.0
11722.617,367.0
11727.307,350.0
11731.998,308.0
11736.69,277.0
11741.385,280.0
11746.081,295.0
11750.779,278.0
11755.4795,319.0
11760.182,263.0
11764.886,273.0
11769.592,291.0
11774.3,288.0
11779.01,253.0
11783.722,273.0
11788.436,275.0
11793.151,288.0
11797.868,243.0
11802.587,325.0
11807.308,285.0
11812.03,264.0
11816.755,259.0
11821.481,288.0
11826.21,261.0
11830.94,278.0
11835.673,271.0
11840.407,237.0
11845.144,249.0
11849.882,235.0
11854.622,236.0
11859.364,199.0
11864.108,225.0
11868.8545,299.0
11873.602,199.0
11878.351,220.0
11883.102,230.0
11887.8545,200.0
11892.609,221.0
11897.366,198.0
11902.125,189.0
11906.886,222.0
11911.648,187.0
11916.413,206.0
11921.18,199.0
11925.948,210.0
11930.719,209.0
11935.491,215.0
11940.266,191.0
11945.042,193.0
11949.82,229.0
11954.601,194.0
11959.383,221.0
11964.167,212.0
11968.953,213.0
11973.74,185.0
11978.529,211.0
11983.32,189.0
11988.113,206.0
11992.908,204.0
