M/Z,Intensity
800.0,129.0
800.32,162.0
800.64014,55.0
800.9604,178.0
801.28076,295.0
801.60126,77.0
801.9219,117.0
802.2426,214.0
802.56354,62.0
802.8846,266.0
803.20575,176.0
803.52704,84.0
803.84845,108.0
804.17,173.0
804.49164,86.0
804.8134,72.0
805.1353,168.0
805.4574,133.0
805.7796,66.0
806.1019,197.0
806.4244,166.0
806.74695,56.0
807.06964,144.0
807.39246,140.0
807.7154,47.0
808.03845,106.0
808.3617,211.0
808.68506,48.0
809.00854,136.0
809.33215,210.0
809.6559,59.0
809.97974,102.0
810.3037,191.0
810.6278,74.0
810.9521,116.0
811.2765,168.0
811.601,73.0
811.92566,120.0
812.2504,192.0
812.5753,85.0
812.9003,103.0
813.22546,162.0
813.5508,69.0
813.8762,79.0
814.2018,173.0
814.52747,77.0
814.8533,89.0
815.1792,176.0
815.50525,103.0
815.8314,60.0
816.1578,164.0
816.48425,111.0
816.81085,185.0
817.1376,235.0
817.4644,116.0
817.7914,81.0
818.11847,201.0
818.44574,111.0
818.77313,70.0
819.10065,162.0
819.4283,98.0
819.75604,40.0
820.0839,127.0
820.412,108.0
820.7402,52.0
821.0685,122.0
821.3969,123.0
821.72546,81.0
822.05414,121.0
822.38293,131.0
822.7119,49.0
823.041,213.0
823.37024,146.0
823.6996,51.0
824.02905,179.0
824.35864,170.0
824.6884,174.0
825.0183,2051.0
825.3483,207.0
825.67847,87.0
826.0087,952.0
826.3391,151.0
826.6696,71.0
827.0003,328.0
827.3311,150.0
827.66205,54.0
827.9931,117.0
828.3243,130.0
828.65564,53.0
828.9871,110.0
829.3187,164.0
829.65045,48.0
829.9823,109.0
830.3143,170.0
830.6464,47.0
830.9787,122.0
831.3111,166.0
831.6436,68.0
831.97626,124.0
832.309,160.0
832.64197,56.0
832.97504,159.0
833.3082,157.0
833.64154,52.0
833.975,131.0
834.3086,162.0
834.64233,50.0
834.9762,109.0
835.3102,122.0
835.6443,51.0
835.9785,123.0
836.3129,175.0
836.64746,63.0
836.9821,174.0
837.3169,160.0
837.6518,58.0
837.9869,139.0
838.3221,150.0
838.6574,104.0
838.99286,542.0
839.3284,161.0
839.6642,74.0
840.00006,326.0
840.33606,166.0
840.6722,82.0
841.0084,478.0
841.34485,137.0
841.6814,77.0
842.01807,269.0
842.35486,211.0
842.6918,53.0
843.0289,178.0
843.3661,169.0
843.7034,48.0
844.0409,122.0
844.37854,154.0
844.7163,95.0
845.0542,339.0
845.3922,257.0
845.73035,90.0
846.06866,218.0
846.4071,156.0
846.74567,86.0
847.08435,187.0
847.42316,118.0
847.76215,67.0
848.10126,166.0
848.4405,117.0
848.77985,51.0
849.1194,169.0
849.45905,103.0
849.7988,47.0
850.13873,132.0
850.47876,108.0
850.819,76.0
851.1593,127.0
851.49976,66.0
851.84033,64.0
852.1811,152.0
852.522,110.0
852.863,54.0
853.2041,160.0
853.5454,70.0
853.88684,82.0
854.2284,136.0
854.57007,80.0
854.9119,503.0
855.2539,160.0
855.596,68.0
855.93823,249.0
856.2806,181.0
856.6231,62.0
856.96576,235.0
857.30853,159.0
857.6514,58.0
857.9945,151.0
858.3377,166.0
858.681,71.0
859.0245,150.0
859.3681,142.0
859.71185,67.0
860.0557,134.0
860.3997,129.0
860.7439,642.0
861.0882,979.0
861.4326,153.0
861.77716,452.0
862.1219,385.0
862.46674,138.0
862.8117,264.0
863.15686,175.0
863.50214,99.0
863.84753,117.0
864.19305,147.0
864.53876,79.0
864.8846,114.0
865.2305,157.0
865.5766,82.0
865.92285,101.0
866.2692,161.0
866.6157,44.0
866.96234,177.0
867.30914,136.0
867.65607,49.0
868.0031,142.0
868.35034,145.0
868.6977,56.0
869.04517,109.0
869.39276,111.0
869.74054,38.0
870.08844,110.0
870.43646,105.0
870.7846,81.0
871.13293,117.0
871.4814,89.0
871.82996,69.0
872.1787,131.0
872.5276,92.0
872.8766,171.0
873.2257,168.0
873.575,55.0
873.92444,110.0
874.274,154.0
874.6237,55.0
874.9736,112.0
875.32355,162.0
875.6737,55.0
876.024,114.0
876.3744,160.0
876.7249,198.0
877.0756,250.0
877.42645,152.0
877.7774,187.0
878.12854,143.0
878.4798,103.0
878.8312,156.0
879.18274,140.0
879.5344,68.0
879.8862,99.0
880.23816,170.0
880.5903,69.0
880.9425,105.0
881.29486,146.0
881.6474,58.0
882.00006,117.0
882.35284,124.0
882.7058,77.0
883.0589,144.0
883.4121,135.0
883.7655,59.0
884.119,113.0
884.47266,83.0
884.8264,70.0
885.18036,138.0
885.5344,70.0
885.8886,58.0
886.243,135.0
886.5975,81.0
886.9521,74.0
887.3069,133.0
887.6618,44.0
888.01685,104.0
888.3721,126.0
888.7274,74.0
889.0829,135.0
889.43854,170.0
889.7943,58.0
890.1502,119.0
890.5063,159.0
890.8625,69.0
891.2188,158.0
891.5753,81.0
891.93195,67.0
892.2887,176.0
892.6456,73.0
893.0027,116.0
893.35986,163.0
893.7172,64.0
894.0747,111.0
894.4323,122.0
894.7901,95.0
895.148,117.0
895.50604,103.0
895.86426,99.0
896.2226,135.0
896.58105,85.0
896.9397,96.0
897.29846,131.0
897.6574,48.0
898.0165,94.0
898.3757,119.0
898.73505,71.0
899.09454,123.0
899.45416,104.0
899.81396,64.0
900.1739,132.0
900.53394,68.0
900.89417,78.0
901.2545,139.0
901.615,49.0
901.97565,94.0
902.3364,134.0
902.6974,40.0
903.0585,101.0
903.4197,138.0
903.78107,70.0
904.1426,130.0
904.5042,111.0
904.866,72.0
905.22797,155.0
905.5901,78.0
905.95233,90.0
906.3147,160.0
906.67725,37.0
907.0399,87.0
907.4027,129.0
907.7657,60.0
908.1288,132.0
908.49207,109.0
908.85547,50.0
909.219,138.0
909.5827,77.0
909.94653,74.0
910.3105,130.0
910.6746,68.0
911.0389,106.0
911.4033,125.0
911.7679,44.0
912.13257,110.0
912.49744,90.0
912.8624,69.0
913.2276,113.0
913.5929,51.0
913.9583,79.0
914.3239,124.0
914.68964,52.0
915.05554,107.0
915.4216,124.0
915.7877,50.0
916.15405,99.0
916.5205,106.0
916.88715,57.0
917.2539,162.0
917.6208,63.0
917.98785,95.0
918.35504,132.0
918.7224,52.0
919.0899,94.0
919.4575,105.0
919.8253,60.0
920.19324,136.0
920.56134,84.0
920.92957,83.0
921.2979,160.0
921.66644,66.0
922.0351,108.0
922.40393,156.0
922.7729,67.0
923.14197,116.0
923.5112,97.0
923.8806,52.0
924.2502,120.0
924.6199,52.0
924.98975,67.0
925.35974,113.0
925.72986,60.0
926.10016,100.0
926.4706,97.0
926.8412,61.0
927.2119,145.0
927.5828,61.0
927.95386,75.0
928.325,121.0
928.69635,50.0
929.0678,94.0
929.43945,139.0
929.8112,68.0
930.18317,116.0
930.55524,85.0
930.9274,81.0
931.2998,106.0
931.6723,64.0
932.045,86.0
932.4178,108.0
932.7908,40.0
933.1639,117.0
933.5372,105.0
933.9106,60.0
934.2841,164.0
934.65784,58.0
935.0317,73.0
935.4057,119.0
935.77985,47.0
936.1542,120.0
936.5286,76.0
936.90326,53.0
937.278,159.0
937.65295,53.0
938.028,74.0
938.4032,127.0
938.77856,54.0
939.15405,93.0
939.5297,86.0
939.9055,51.0
940.2815,144.0
940.6576,65.0
941.0339,70.0
941.4103,107.0
941.78687,51.0
942.1636,115.0
942.54047,66.0
942.9175,64.0
943.2947,126.0
943.672,52.0
944.04944,106.0
944.42706,110.0
944.8048,49.0
945.18274,106.0
945.5608,75.0
945.939,70.0
946.3174,124.0
946.6959,45.0
947.0746,86.0
947.4534,95.0
947.8324,58.0
948.21155,149.0
948.5908,67.0
948.9703,64.0
949.34985,126.0
949.7296,46.0
950.1095,104.0
950.48956,99.0
950.86975,57.0
951.2501,110.0
951.6306,60.0
952.0113,86.0
952.3921,127.0
952.7731,52.0
953.1542,104.0
953.53546,74.0
953.9169,55.0
954.29846,120.0
954.6802,43.0
955.0621,105.0
955.4441,128.0
955.8263,55.0
956.2086,124.0
956.5911,58.0
956.97375,104.0
957.35657,102.0
957.7395,42.0
958.1226,82.0
958.50586,80.0
958.8893,76.0
959.2728,115.0
959.65656,53.0
960.0404,70.0
960.42444,116.0
960.8086,50.0
961.19293,98.0
961.5774,70.0
961.96204,87.0
962.3468,130.0
962.73175,42.0
963.1168,92.0
963.5021,81.0
963.88745,74.0
964.273,127.0
964.6587,52.0
965.04456,101.0
965.4306,106.0
965.8168,60.0
966.2031,124.0
966.5896,59.0
966.97626,71.0
967.36304,128.0
967.75,48.0
968.1371,103.0
968.52435,97.0
968.91174,62.0
969.2993,147.0
969.687,63.0
970.0749,131.0
970.4629,105.0
970.8511,70.0
971.23944,111.0
971.6279,69.0
972.0166,78.0
972.4054,118.0
972.7944,55.0
973.1835,120.0
973.57275,73.0
973.96216,57.0
974.35175,130.0
974.7415,60.0
975.1314,95.0
975.5215,92.0
975.9117,56.0
976.30206,120.0
976.69257,36.0
977.08325,113.0
977.47406,138.0
977.86505,57.0
978.2562,113.0
978.6475,65.0
979.039,93.0
979.4306,104.0
979.8224,59.0
980.2143,106.0
980.6064,59.0
980.99866,74.0
981.39105,104.0
981.7836,64.0
982.17633,114.0
982.5692,70.0
982.9622,92.0
983.3554,119.0
983.7488,62.0
984.1423,138.0
984.53595,70.0
984.92975,107.0
985.3237,107.0
985.71783,54.0
986.1121,124.0
986.5066,90.0
986.9012,77.0
987.29596,138.0
987.69086,50.0
988.08594,124.0
988.4812,95.0
988.8766,62.0
989.27216,117.0
989.66785,36.0
990.0637,104.0
990.4597,110.0
990.8559,48.0
991.25226,106.0
991.64874,71.0
992.0454,111.0
992.4422,115.0
992.8392,65.0
993.2363,134.0
993.6336,60.0
994.03107,95.0
994.42865,121.0
994.8264,61.0
995.22437,142.0
995.62244,72.0
996.0207,73.0
996.4191,73.0
996.8177,43.0
997.21643,96.0
997.6153,60.0
998.01434,75.0
998.4136,113.0
998.8129,56.0
999.21246,114.0
999.6121,58.0
1000.01196,98.0
1000.412,113.0
1000.81213,74.0
1001.21246,118.0
1001.613,78.0
1002.0136,103.0
1002.4144,114.0
1002.81537,69.0
1003.2165,94.0
1003.6178,76.0
1004.0192,91.0
1004.42084,123.0
1004.82263,65.0
1005.22455,123.0
1005.62665,75.0
1006.0289,133.0
1006.4313,108.0
1006.83386,81.0
1007.2366,137.0
1007.63947,67.0
1008.04254,166.0
1008.44574,106.0
1008.8491,108.0
1009.2527,144.0
1009.6564,67.0
1010.06024,129.0
1010.4643,103.0
1010.86847,61.0
1011.2728,133.0
1011.6773,55.0
1012.082,101.0
1012.4868,81.0
1012.8918,75.0
1013.29694,119.0
1013.7023,60.0
1014.1077,166.0
1014.51337,108.0
1014.9192,108.0
1015.32513,115.0
1015.73126,53.0
1016.1376,109.0
1016.544,94.0
1016.9506,76.0
1017.3574,128.0
1017.76434,52.0
1018.17145,110.0
1018.57874,70.0
1018.98615,74.0
1019.39374,107.0
1019.8015,58.0
1020.2094,117.0
1020.6175,79.0
1021.02576,69.0
1021.43414,165.0
1021.8427,75.0
1022.25146,132.0
1022.66034,69.0
1023.0694,101.0
1023.47864,127.0
1023.888,76.0
1024.2976,103.0
1024.7073,58.0
1025.1172,108.0
1025.5272,84.0
1025.9374,87.0
1026.3478,130.0
1026.7583,62.0
1027.169,93.0
1027.5798,89.0
1027.9908,158.0
1028.4021,116.0
1028.8135,77.0
1029.225,114.0
1029.6367,82.0
1030.0486,226.0
1030.4606,122.0
1030.8728,135.0
1031.2852,115.0
1031.6976,54.0
1032.1104,113.0
1032.5232,102.0
1032.9362,83.0
1033.3494,108.0
1033.7627,81.0
1034.1761,134.0
1034.5898,73.0
1035.0037,91.0
1035.4177,97.0
1035.8319,83.0
1036.2462,136.0
1036.6608,72.0
1037.0754,87.0
1037.4902,96.0
1037.9053,63.0
1038.3204,103.0
1038.7357,56.0
1039.1512,92.0
1039.5669,90.0
1039.9827,67.0
1040.3987,110.0
1040.8148,47.0
1041.2312,91.0
1041.6477,92.0
1042.0643,74.0
1042.4812,127.0
1042.8982,59.0
1043.3153,143.0
1043.7327,98.0
1044.1501,109.0
1044.5677,108.0
1044.9856,98.0
1045.4036,125.0
1045.8218,96.0
1046.2401,125.0
1046.6586,75.0
1047.0773,99.0
1047.4961,122.0
1047.915,69.0
1048.3342,135.0
1048.7535,53.0
1049.1731,111.0
1049.5928,110.0
1050.0126,315.0
1050.4326,92.0
1050.8528,208.0
1051.2731,135.0
1051.6936,80.0
1052.1143,134.0
1052.5352,93.0
1052.9562,97.0
1053.3773,126.0
1053.7987,76.0
1054.2202,102.0
1054.6418,81.0
1055.0637,101.0
1055.4857,99.0
1055.908,98.0
1056.3303,120.0
1056.7528,68.0
1057.1755,110.0
1057.5984,104.0
1058.0215,67.0
1058.4447,125.0
1058.868,61.0
1059.2916,116.0
1059.7153,90.0
1060.1392,119.0
1060.5632,135.0
1060.9874,111.0
1061.4119,147.0
1061.8364,75.0
1062.2611,118.0
1062.686,74.0
1063.1111,114.0
1063.5364,103.0
1063.9618,76.0
1064.3873,106.0
1064.8131,64.0
1065.239,109.0
1065.6652,219.0
1066.0914,348.0
1066.5178,108.0
1066.9445,267.0
1067.3712,135.0
1067.7982,155.0
1068.2253,113.0
1068.6526,91.0
1069.0801,114.0
1069.5077,89.0
1069.9355,104.0
1070.3635,86.0
1070.7916,62.0
1071.22,106.0
1071.6484,103.0
1072.0771,164.0
1072.506,104.0
1072.9349,115.0
1073.3641,130.0
1073.7935,101.0
1074.223,119.0
1074.6527,85.0
1075.0825,101.0
1075.5126,116.0
1075.9427,71.0
1076.3732,105.0
1076.8037,59.0
1077.2344,92.0
1077.6653,63.0
1078.0963,126.0
1078.5276,90.0
1078.959,97.0
1079.3906,114.0
1079.8224,65.0
1080.2543,110.0
1080.6864,70.0
1081.1187,83.0
1081.5511,86.0
1081.9838,120.0
1082.4165,107.0
1082.8495,110.0
1083.2826,100.0
1083.716,82.0
1084.1494,78.0
1084.5831,90.0
1085.017,75.0
1085.4509,101.0
1085.8851,68.0
1086.3195,123.0
1086.754,61.0
1087.1887,95.0
1087.6235,89.0
1088.0586,118.0
1088.4938,107.0
1088.9292,77.0
1089.3647,107.0
1089.8005,76.0
1090.2365,158.0
1090.6725,97.0
1091.1088,75.0
1091.5452,118.0
1091.9818,72.0
1092.4186,111.0
1092.8556,49.0
1093.2927,140.0
1093.7301,79.0
1094.1676,90.0
1094.6052,85.0
1095.0431,75.0
1095.4811,116.0
1095.9193,85.0
1096.3577,105.0
1096.7963,60.0
1097.235,94.0
1097.6738,81.0
1098.1129,86.0
1098.5521,114.0
1098.9916,63.0
1099.4312,113.0
1099.871,93.0
1100.3109,131.0
1100.751,70.0
1101.1913,98.0
1101.6317,85.0
1102.0724,76.0
1102.5132,87.0
1102.9542,65.0
1103.3954,107.0
1103.8368,89.0
1104.2783,120.0
1104.72,72.0
1105.1619,78.0
1105.6039,92.0
1106.0461,71.0
1106.4885,112.0
1106.9312,44.0
1107.3739,125.0
1107.8169,48.0
1108.26,113.0
1108.7034,68.0
1109.1469,74.0
1109.5905,93.0
1110.0343,76.0
1110.4783,94.0
1110.9225,77.0
1111.3668,109.0
1111.8114,67.0
1112.2561,106.0
1112.701,63.0
1113.1461,77.0
1113.5914,85.0
1114.0369,73.0
1114.4824,114.0
1114.9282,57.0
1115.3741,97.0
1115.8203,77.0
1116.2666,115.0
1116.7131,58.0
1117.1598,99.0
1117.6067,75.0
1118.0537,104.0
1118.501,105.0
1118.9484,71.0
1119.396,95.0
1119.8438,52.0
1120.2917,116.0
1120.7399,59.0
1121.1881,92.0
1121.6366,83.0
1122.0852,85.0
1122.534,104.0
1122.983,71.0
1123.4323,94.0
1123.8816,66.0
1124.3312,117.0
1124.7809,38.0
1125.2308,93.0
1125.6809,84.0
1126.1312,73.0
1126.5817,84.0
1127.0323,85.0
1127.4832,95.0
1127.9342,56.0
1128.3854,122.0
1128.8367,67.0
1129.2882,102.0
1129.7399,59.0
1130.1918,105.0
1130.6438,86.0
1131.0961,80.0
1131.5485,100.0
1132.0011,84.0
1132.4539,91.0
1132.9069,59.0
1133.36,121.0
1133.8134,62.0
1134.2668,123.0
1134.7206,76.0
1135.1744,78.0
1135.6285,88.0
1136.0828,92.0
1136.5372,86.0
1136.9918,79.0
1137.4467,126.0
1137.9016,73.0
1138.3568,108.0
1138.8121,61.0
1139.2677,110.0
1139.7234,69.0
1140.1793,94.0
1140.6354,68.0
1141.0917,66.0
1141.5481,91.0
1142.0048,69.0
1142.4615,101.0
1142.9186,54.0
1143.3757,89.0
1143.8331,70.0
1144.2906,102.0
1144.7484,72.0
1145.2063,91.0
1145.6644,67.0
1146.1227,93.0
1146.5812,87.0
1147.0398,63.0
1147.4987,115.0
1147.9576,73.0
1148.4169,133.0
1148.8762,67.0
1149.3358,156.0
1149.7955,50.0
1150.2555,107.0
1150.7156,62.0
1151.1759,82.0
1151.6364,105.0
1152.097,72.0
1152.5579,88.0
1153.0189,82.0
1153.4801,101.0
1153.9415,67.0
1154.4031,133.0
1154.8649,74.0
1155.3268,111.0
1155.789,58.0
1156.2512,98.0
1156.7137,77.0
1157.1764,94.0
1157.6393,86.0
1158.1023,70.0
1158.5656,105.0
1159.0289,59.0
1159.4926,122.0
1159.9563,67.0
1160.4203,100.0
1160.8844,56.0
1161.3488,96.0
1161.8134,45.0
1162.2781,86.0
1162.743,62.0
1163.2081,96.0
1163.6735,74.0
1164.1389,66.0
1164.6046,110.0
1165.0704,72.0
1165.5365,100.0
1166.0027,61.0
1166.4691,127.0
1166.9357,68.0
1167.4025,105.0
1167.8694,65.0
1168.3365,117.0
1168.8038,56.0
1169.2714,105.0
1169.739,67.0
1170.2069,94.0
1170.675,80.0
1171.1433,76.0
1171.6118,94.0
1172.0804,83.0
1172.5493,85.0
1173.0183,62.0
1173.4875,131.0
1173.9569,76.0
1174.4265,113.0
1174.8962,62.0
1175.3662,105.0
1175.8363,60.0
1176.3066,108.0
1176.7772,67.0
1177.2479,118.0
1177.7189,68.0
1178.19,66.0
1178.6613,71.0
1179.1327,87.0
1179.6044,93.0
1180.0762,74.0
1180.5482,100.0
1181.0204,65.0
1181.4928,97.0
1181.9655,69.0
1182.4382,112.0
1182.9113,70.0
1183.3844,105.0
1183.8578,50.0
1184.3313,92.0
1184.805,54.0
1185.2789,118.0
1185.753,73.0
1186.2273,114.0
1186.7018,89.0
1187.1765,77.0
1187.6514,88.0
1188.1265,62.0
1188.6017,85.0
1189.0771,70.0
1189.5527,82.0
1190.0286,63.0
1190.5045,101.0
1190.9807,63.0
1191.4572,100.0
1191.9337,61.0
1192.4105,100.0
1192.8875,61.0
1193.3646,119.0
1193.8419,68.0
1194.3195,118.0
1194.7972,66.0
1195.2751,110.0
1195.7533,63.0
1196.2316,83.0
1196.7101,74.0
1197.1887,88.0
1197.6676,89.0
1198.1467,87.0
1198.626,104.0
1199.1055,77.0
1199.5851,102.0
1200.065,74.0
1200.5449,90.0
1201.0251,72.0
1201.5056,96.0
1201.9862,59.0
1202.467,97.0
1202.948,78.0
1203.4292,95.0
1203.9105,68.0
1204.3921,94.0
1204.8739,67.0
1205.3558,117.0
1205.838,66.0
1206.3203,94.0
1206.8029,78.0
1207.2855,101.0
1207.7684,71.0
1208.2516,98.0
1208.7349,74.0
1209.2184,96.0
1209.702,88.0
1210.1859,80.0
1210.67,83.0
1211.1543,77.0
1211.6388,99.0
1212.1234,74.0
1212.6083,93.0
1213.0933,66.0
1213.5785,102.0
1214.064,68.0
1214.5496,109.0
1215.0354,77.0
1215.5214,82.0
1216.0076,56.0
1216.494,104.0
1216.9806,71.0
1217.4674,89.0
1217.9543,63.0
1218.4415,100.0
1218.929,81.0
1219.4165,104.0
1219.9043,81.0
1220.3922,108.0
1220.8804,73.0
1221.3688,118.0
1221.8573,62.0
1222.3461,113.0
1222.835,66.0
1223.3241,90.0
1223.8135,60.0
1224.303,99.0
1224.7927,72.0
1225.2826,93.0
1225.7727,71.0
1226.2631,86.0
1226.7535,87.0
1227.2443,77.0
1227.7351,81.0
1228.2262,84.0
1228.7175,58.0
1229.209,110.0
1229.7007,79.0
1230.1925,92.0
1230.6846,79.0
1231.1769,84.0
1231.6693,80.0
1232.162,76.0
1232.6549,72.0
1233.148,106.0
1233.6412,103.0
1234.1346,85.0
1234.6283,97.0
1235.1222,94.0
1235.6162,78.0
1236.1105,83.0
1236.6049,96.0
1237.0995,77.0
1237.5944,100.0
1238.0894,83.0
1238.5846,89.0
1239.0801,90.0
1239.5757,74.0
1240.0715,73.0
1240.5675,100.0
1241.0637,77.0
1241.5602,96.0
1242.0568,93.0
1242.5536,97.0
1243.0507,80.0
1243.5479,118.0
1244.0453,90.0
1244.5428,106.0
1245.0406,70.0
1245.5387,101.0
1246.0369,69.0
1246.5353,132.0
1247.0339,75.0
1247.5327,116.0
1248.0317,76.0
1248.531,92.0
1249.0304,89.0
1249.53,97.0
1250.0298,60.0
1250.5298,96.0
1251.03,75.0
1251.5304,93.0
1252.031,65.0
1252.5319,77.0
1253.0328,67.0
1253.534,92.0
1254.0355,73.0
1254.5371,89.0
1255.039,94.0
1255.541,70.0
1256.0432,96.0
1256.5457,91.0
1257.0482,93.0
1257.551,82.0
1258.0541,74.0
1258.5573,94.0
1259.0607,78.0
1259.5643,108.0
1260.0681,69.0
1260.5721,126.0
1261.0764,97.0
1261.5808,103.0
1262.0854,89.0
1262.5903,101.0
1263.0953,104.0
1263.6006,103.0
1264.1061,88.0
1264.6117,92.0
1265.1176,86.0
1265.6237,111.0
1266.1299,75.0
1266.6364,99.0
1267.1431,74.0
1267.6499,90.0
1268.157,83.0
1268.6642,89.0
1269.1716,75.0
1269.6793,107.0
1270.1871,83.0
1270.6952,119.0
1271.2035,90.0
1271.7119,91.0
1272.2206,88.0
1272.7295,99.0
1273.2385,92.0
1273.7478,68.0
1274.2573,61.0
1274.767,81.0
1275.2769,89.0
1275.787,64.0
1276.2972,90.0
1276.8077,146.0
1277.3185,112.0
1277.8295,128.0
1278.3406,90.0
1278.8519,131.0
1279.3635,104.0
1279.8752,87.0
1280.3872,91.0
1280.8994,87.0
1281.4117,80.0
1281.9243,64.0
1282.4371,86.0
1282.9501,120.0
1283.4633,100.0
1283.9767,83.0
1284.4902,116.0
1285.004,85.0
1285.5181,112.0
1286.0322,96.0
1286.5466,90.0
1287.0613,74.0
1287.576,104.0
1288.0911,79.0
1288.6063,128.0
1289.1218,72.0
1289.6375,105.0
1290.1533,76.0
1290.6694,75.0
1291.1857,73.0
1291.7021,74.0
1292.2189,80.0
1292.7357,113.0
1293.2528,94.0
1293.7701,102.0
1294.2876,91.0
1294.8053,80.0
1295.3232,106.0
1295.8414,76.0
1296.3597,86.0
1296.8783,77.0
1297.3971,84.0
1297.916,68.0
1298.4352,84.0
1298.9546,73.0
1299.4741,85.0
1299.9939,69.0
1300.5139,88.0
1301.0342,72.0
1301.5546,134.0
1302.0752,66.0
1302.5961,114.0
1303.1171,70.0
1303.6383,91.0
1304.1598,70.0
1304.6814,107.0
1305.2032,81.0
1305.7253,84.0
1306.2477,93.0
1306.7701,80.0
1307.2928,77.0
1307.8158,50.0
1308.3389,107.0
1308.8622,78.0
1309.3857,105.0
1309.9095,66.0
1310.4335,92.0
1310.9576,67.0
1311.482,92.0
1312.0066,68.0
1312.5314,103.0
1313.0564,50.0
1313.5817,89.0
1314.107,65.0
1314.6327,91.0
1315.1586,74.0
1315.6847,82.0
1316.2109,82.0
1316.7374,66.0
1317.2642,89.0
1317.791,67.0
1318.3181,65.0
1318.8455,63.0
1319.373,107.0
1319.9008,65.0
1320.4287,94.0
1320.9569,76.0
1321.4854,92.0
1322.0139,79.0
1322.5427,101.0
1323.0718,99.0
1323.601,98.0
1324.1304,69.0
1324.66,93.0
1325.19,74.0
1325.72,91.0
1326.2502,92.0
1326.7808,72.0
1327.3115,101.0
1327.8424,68.0
1328.3735,105.0
1328.9049,65.0
1329.4365,106.0
1329.9683,62.0
1330.5002,107.0
1331.0325,76.0
1331.565,113.0
1332.0975,89.0
1332.6304,106.0
1333.1635,79.0
1333.6968,101.0
1334.2302,81.0
1334.7639,71.0
1335.2979,92.0
1335.832,71.0
1336.3663,86.0
1336.9009,55.0
1337.4357,86.0
1337.9707,69.0
1338.5059,89.0
1339.0413,47.0
1339.5769,100.0
1340.1128,70.0
1340.6488,83.0
1341.185,97.0
1341.7216,78.0
1342.2583,77.0
1342.7952,72.0
1343.3323,88.0
1343.8696,68.0
1344.4072,74.0
1344.945,74.0
1345.4829,94.0
1346.0211,70.0
1346.5596,107.0
1347.0981,69.0
1347.637,83.0
1348.176,88.0
1348.7153,103.0
1349.2548,100.0
1349.7944,85.0
1350.3344,82.0
1350.8745,64.0
1351.4149,87.0
1351.9554,55.0
1352.4962,100.0
1353.0372,55.0
1353.5785,94.0
1354.1199,69.0
1354.6615,104.0
1355.2034,68.0
1355.7455,71.0
1356.2878,93.0
1356.8303,72.0
1357.373,104.0
1357.916,68.0
1358.4592,83.0
1359.0026,44.0
1359.5461,78.0
1360.09,60.0
1360.634,96.0
1361.1783,77.0
1361.7228,92.0
1362.2675,78.0
1362.8124,78.0
1363.3575,114.0
1363.9028,63.0
1364.4484,90.0
1364.9941,58.0
1365.5402,88.0
1366.0864,61.0
1366.6328,86.0
1367.1794,84.0
1367.7263,76.0
1368.2734,94.0
1368.8208,67.0
1369.3683,102.0
1369.916,53.0
1370.464,77.0
1371.0122,61.0
1371.5607,116.0
1372.1093,62.0
1372.6581,92.0
1373.2072,78.0
1373.7565,67.0
1374.306,85.0
1374.8557,68.0
1375.4056,117.0
1375.9558,69.0
1376.5062,113.0
1377.0569,78.0
1377.6077,100.0
1378.1587,82.0
1378.71,93.0
1379.2615,92.0
1379.8132,76.0
1380.3651,95.0
1380.9172,77.0
1381.4696,93.0
1382.0222,66.0
1382.5751,91.0
1383.128,63.0
1383.6813,94.0
1384.2347,74.0
1384.7885,101.0
1385.3424,83.0
1385.8965,69.0
1386.4508,82.0
1387.0054,60.0
1387.5602,84.0
1388.1152,65.0
1388.6705,94.0
1389.226,91.0
1389.7816,87.0
1390.3375,95.0
1390.8937,63.0
1391.4501,101.0
1392.0067,61.0
1392.5635,97.0
1393.1205,70.0
1393.6777,82.0
1394.2352,71.0
1394.793,64.0
1395.3508,94.0
1395.9089,65.0
1396.4673,99.0
1397.0259,63.0
1397.5847,98.0
1398.1438,76.0
1398.703,86.0
1399.2625,91.0
1399.8221,64.0
1400.3821,94.0
1400.9423,56.0
1401.5027,108.0
1402.0632,73.0
1402.624,78.0
1403.185,74.0
1403.7463,90.0
1404.3079,91.0
1404.8696,67.0
1405.4315,115.0
1405.9937,63.0
1406.556,110.0
1407.1187,87.0
1407.6815,90.0
1408.2446,87.0
1408.808,83.0
1409.3715,96.0
1409.9352,83.0
1410.4991,92.0
1411.0634,71.0
1411.6278,77.0
1412.1925,70.0
1412.7573,94.0
1413.3224,101.0
1413.8877,82.0
1414.4532,104.0
1415.019,71.0
1415.5851,96.0
1416.1514,64.0
1416.7178,79.0
1417.2844,85.0
1417.8513,85.0
1418.4185,82.0
1418.9858,67.0
1419.5535,116.0
1420.1213,72.0
1420.6893,103.0
1421.2576,95.0
1421.826,63.0
1422.3948,108.0
1422.9637,71.0
1423.533,100.0
1424.1024,50.0
1424.672,113.0
1425.2418,89.0
1425.8119,99.0
1426.3822,99.0
1426.9528,74.0
1427.5236,107.0
1428.0946,71.0
1428.6659,89.0
1429.2373,95.0
1429.809,65.0
1430.3809,105.0
1430.953,68.0
1431.5254,96.0
1432.098,77.0
1432.6709,96.0
1433.244,93.0
1433.8173,95.0
1434.3907,99.0
1434.9645,66.0
1435.5385,106.0
1436.1127,86.0
1436.6871,122.0
1437.2618,89.0
1437.8368,72.0
1438.412,98.0
1438.9873,57.0
1439.5629,103.0
1440.1387,62.0
1440.7147,76.0
1441.291,85.0
1441.8676,81.0
1442.4443,108.0
1443.0214,71.0
1443.5985,97.0
1444.1759,73.0
1444.7535,78.0
1445.3314,104.0
1445.9095,92.0
1446.4879,125.0
1447.0665,68.0
1447.6454,94.0
1448.2245,110.0
1448.8038,64.0
1449.3833,109.0
1449.963,71.0
1450.543,123.0
1451.1232,90.0
1451.7036,112.0
1452.2843,90.0
1452.8652,86.0
1453.4464,83.0
1454.0278,77.0
1454.6095,110.0
1455.1913,96.0
1455.7733,89.0
1456.3556,81.0
1456.9381,75.0
1457.5209,105.0
1458.1039,69.0
1458.6871,99.0
1459.2706,80.0
1459.8544,91.0
1460.4384,98.0
1461.0226,66.0
1461.6069,132.0
1462.1915,83.0
1462.7764,107.0
1463.3615,115.0
1463.9468,68.0
1464.5323,94.0
1465.1182,67.0
1465.7042,128.0
1466.2905,93.0
1466.8771,78.0
1467.4639,102.0
1468.0509,72.0
1468.6382,101.0
1469.2256,76.0
1469.8132,103.0
1470.4011,92.0
1470.9893,51.0
1471.5776,103.0
1472.1663,81.0
1472.7551,83.0
1473.3442,74.0
1473.9336,64.0
1474.5232,103.0
1475.113,66.0
1475.7031,115.0
1476.2935,98.0
1476.884,82.0
1477.4747,114.0
1478.0657,94.0
1478.6569,82.0
1479.2483,76.0
1479.84,69.0
1480.4319,92.0
1481.024,71.0
1481.6165,108.0
1482.2091,93.0
1482.802,114.0
1483.3951,73.0
1483.9885,82.0
1484.5822,90.0
1485.176,79.0
1485.7701,95.0
1486.3645,72.0
1486.9591,72.0
1487.5538,88.0
1488.1488,89.0
1488.744,97.0
1489.3395,91.0
1489.9352,91.0
1490.5311,92.0
1491.1273,72.0
1491.7238,91.0
1492.3204,76.0
1492.9174,76.0
1493.5145,103.0
1494.1119,72.0
1494.7096,102.0
1495.3075,71.0
1495.9056,78.0
1496.504,92.0
1497.1027,58.0
1497.7015,91.0
1498.3007,81.0
1498.9,78.0
1499.4996,90.0
1500.0995,80.0
1500.6996,89.0
1501.2998,72.0
1501.9003,94.0
1502.501,108.0
1503.1019,63.0
1503.7031,104.0
1504.3046,68.0
1504.9062,89.0
1505.5082,83.0
1506.1104,77.0
1506.7128,113.0
1507.3154,90.0
1507.9183,91.0
1508.5215,113.0
1509.1249,58.0
1509.7285,104.0
1510.3324,79.0
1510.9365,81.0
1511.5409,84.0
1512.1455,83.0
1512.7504,122.0
1513.3555,110.0
1513.9608,102.0
1514.5664,91.0
1515.1722,62.0
1515.7783,108.0
1516.3846,107.0
1516.9912,60.0
1517.598,106.0
1518.2051,68.0
1518.8124,80.0
1519.4199,93.0
1520.0277,59.0
1520.6357,89.0
1521.244,70.0
1521.8525,88.0
1522.4613,78.0
1523.0703,74.0
1523.6796,82.0
1524.2891,79.0
1524.8988,67.0
1525.5088,120.0
1526.119,73.0
1526.7295,109.0
1527.3402,76.0
1527.9512,65.0
1528.5624,121.0
1529.1738,54.0
1529.7855,80.0
1530.3975,89.0
1531.0096,76.0
1531.6221,126.0
1532.2347,72.0
1532.8477,87.0
1533.4608,100.0
1534.0742,55.0
1534.6879,112.0
1535.3018,86.0
1535.9159,74.0
1536.5303,101.0
1537.1449,68.0
1537.7598,93.0
1538.3749,68.0
1538.9902,61.0
1539.6058,91.0
1540.2217,76.0
1540.8378,76.0
1541.4541,92.0
1542.0707,78.0
1542.6875,100.0
1543.3046,81.0
1543.9219,91.0
1544.5394,81.0
1545.1572,70.0
1545.7753,90.0
1546.3936,96.0
1547.0121,84.0
1547.6309,96.0
1548.2499,79.0
1548.8691,85.0
1549.4886,81.0
1550.1084,62.0
1550.7284,77.0
1551.3486,102.0
1551.9691,80.0
1552.5898,132.0
1553.2109,64.0
1553.8323,86.0
1554.4539,99.0
1555.0757,57.0
1555.6978,94.0
1556.3201,70.0
1556.9426,59.0
1557.5654,96.0
1558.1885,64.0
1558.8118,93.0
1559.4353,119.0
1560.0591,70.0
1560.6831,113.0
1561.3074,87.0
1561.9319,86.0
1562.5566,110.0
1563.1816,63.0
1563.8069,82.0
1564.4324,90.0
1565.0581,71.0
1565.6841,93.0
1566.3103,78.0
1566.9368,65.0
1567.5636,88.0
1568.1907,59.0
1568.818,100.0
1569.4456,107.0
1570.0734,67.0
1570.7014,114.0
1571.3297,91.0
1571.9583,63.0
1572.587,103.0
1573.2161,70.0
1573.8453,99.0
1574.4749,94.0
1575.1046,55.0
1575.7346,85.0
1576.3649,73.0
1576.9954,70.0
1577.6261,89.0
1578.2572,77.0
1578.8885,74.0
1579.5201,98.0
1580.152,66.0
1580.784,87.0
1581.4164,93.0
1582.049,61.0
1582.6818,94.0
1583.3148,95.0
1583.9481,67.0
1584.5817,92.0
1585.2155,73.0
1585.8495,89.0
1586.4839,110.0
1587.1185,60.0
1587.7534,70.0
1588.3885,79.0
1589.0239,80.0
1589.6595,98.0
1590.2954,89.0
1590.9315,84.0
1591.5679,86.0
1592.2045,64.0
1592.8413,79.0
1593.4784,100.0
1594.1158,65.0
1594.7535,91.0
1595.3915,107.0
1596.0297,69.0
1596.6681,101.0
1597.3068,103.0
1597.9457,76.0
1598.5848,102.0
1599.2242,60.0
1599.8639,94.0
1600.5038,76.0
1601.144,65.0
1601.7845,84.0
1602.4253,105.0
1603.0663,86.0
1603.7075,110.0
1604.349,98.0
1604.9907,70.0
1605.6327,115.0
1606.2749,85.0
1606.9174,81.0
1607.5602,76.0
1608.2032,71.0
1608.8466,84.0
1609.4901,87.0
1610.1339,65.0
1610.778,74.0
1611.4222,90.0
1612.0668,68.0
1612.7115,102.0
1613.3567,90.0
1614.0021,56.0
1614.6477,93.0
1615.2936,82.0
1615.9397,92.0
1616.586,88.0
1617.2327,61.0
1617.8795,79.0
1618.5266,92.0
1619.1741,80.0
1619.8218,80.0
1620.4697,99.0
1621.1179,63.0
1621.7664,111.0
1622.415,76.0
1623.064,60.0
1623.7131,92.0
1624.3627,75.0
1625.0125,77.0
1625.6625,97.0
1626.3127,61.0
1626.9633,80.0
1627.614,95.0
1628.265,78.0
1628.9163,74.0
1629.5679,124.0
1630.2197,88.0
1630.8718,89.0
1631.5242,106.0
1632.1768,84.0
1632.8296,85.0
1633.4827,93.0
1634.1361,54.0
1634.7898,88.0
1635.4437,70.0
1636.0979,69.0
1636.7523,88.0
1637.407,80.0
1638.0619,71.0
1638.7172,88.0
1639.3727,90.0
1640.0284,82.0
1640.6844,103.0
1641.3407,92.0
1641.9972,76.0
1642.6539,107.0
1643.311,88.0
1643.9684,73.0
1644.626,124.0
1645.2838,100.0
1645.9419,88.0
1646.6002,125.0
1647.2589,79.0
1647.9178,105.0
1648.577,120.0
1649.2365,69.0
1649.8961,71.0
1650.556,79.0
1651.2163,46.0
1651.8768,82.0
1652.5376,83.0
1653.1986,61.0
1653.8599,87.0
1654.5214,88.0
1655.1832,74.0
1655.8453,86.0
1656.5077,91.0
1657.1703,68.0
1657.8331,104.0
1658.4962,99.0
1659.1597,73.0
1659.8234,78.0
1660.4873,88.0
1661.1515,59.0
1661.8159,81.0
1662.4806,108.0
1663.1456,61.0
1663.8109,96.0
1664.4764,94.0
1665.1422,68.0
1665.8082,70.0
1666.4746,87.0
1667.1412,82.0
1667.8081,95.0
1668.4752,77.0
1669.1426,75.0
1669.8102,75.0
1670.4781,85.0
1671.1464,79.0
1671.8148,79.0
1672.4835,99.0
1673.1525,67.0
1673.8218,88.0
1674.4913,104.0
1675.1611,75.0
1675.8312,84.0
1676.5015,71.0
1677.1721,55.0
1677.843,81.0
1678.5142,95.0
1679.1855,70.0
1679.8572,74.0
1680.5292,79.0
1681.2014,89.0
1681.8739,96.0
1682.5466,94.0
1683.2196,72.0
1683.893,97.0
1684.5665,98.0
1685.2404,67.0
1685.9144,87.0
1686.5887,111.0
1687.2634,73.0
1687.9384,80.0
1688.6135,86.0
1689.289,75.0
1689.9646,85.0
1690.6406,99.0
1691.3169,83.0
1691.9934,74.0
1692.6702,82.0
1693.3473,72.0
1694.0247,70.0
1694.7023,79.0
1695.3801,74.0
1696.0582,60.0
1696.7367,86.0
1697.4154,95.0
1698.0944,62.0
1698.7736,99.0
1699.4531,91.0
1700.1329,71.0
1700.813,99.0
1701.4933,94.0
1702.1738,80.0
1702.8547,98.0
1703.5359,96.0
1704.2173,64.0
1704.8989,91.0
1705.5809,101.0
1706.2632,83.0
1706.9457,92.0
1707.6284,99.0
1708.3115,79.0
1708.9949,77.0
1709.6785,112.0
1710.3623,86.0
1711.0465,52.0
1711.731,93.0
1712.4156,81.0
1713.1006,73.0
1713.7858,80.0
1714.4713,86.0
1715.1571,64.0
1715.8431,85.0
1716.5294,92.0
1717.2161,79.0
1717.903,79.0
1718.5901,86.0
1719.2775,74.0
1719.9652,59.0
1720.6532,85.0
1721.3414,48.0
1722.0299,85.0
1722.7188,81.0
1723.4078,79.0
1724.0972,63.0
1724.7869,78.0
1725.4768,89.0
1726.167,66.0
1726.8574,68.0
1727.5482,97.0
1728.2393,82.0
1728.9305,86.0
1729.6221,98.0
1730.314,73.0
1731.0061,79.0
1731.6985,106.0
1732.3911,72.0
1733.0841,59.0
1733.7773,71.0
1734.4708,80.0
1735.1647,67.0
1735.8588,74.0
1736.5531,89.0
1737.2477,57.0
1737.9426,67.0
1738.6378,78.0
1739.3333,76.0
1740.0289,72.0
1740.725,95.0
1741.4213,69.0
1742.1178,60.0
1742.8147,102.0
1743.5118,80.0
1744.2092,59.0
1744.9069,81.0
1745.6049,77.0
1746.3031,61.0
1747.0016,74.0
1747.7004,72.0
1748.3995,74.0
1749.0989,72.0
1749.7985,101.0
1750.4984,99.0
1751.1986,54.0
1751.899,93.0
1752.5999,72.0
1753.3009,78.0
1754.0022,64.0
1754.7039,88.0
1755.4058,72.0
1756.1079,62.0
1756.8103,78.0
1757.5131,93.0
1758.2161,63.0
1758.9193,84.0
1759.6229,75.0
1760.3268,75.0
1761.0309,76.0
1761.7354,87.0
1762.4401,78.0
1763.145,60.0
1763.8502,92.0
1764.5558,84.0
1765.2616,69.0
1765.9677,80.0
1766.6741,69.0
1767.3807,75.0
1768.0876,75.0
1768.7949,89.0
1769.5024,75.0
1770.2102,59.0
1770.9183,85.0
1771.6267,92.0
1772.3353,63.0
1773.0443,75.0
1773.7535,84.0
1774.463,85.0
1775.1729,52.0
1775.8829,73.0
1776.5933,77.0
1777.304,65.0
1778.0149,73.0
1778.7261,74.0
1779.4376,69.0
1780.1494,63.0
1780.8615,64.0
1781.5739,77.0
1782.2865,69.0
1782.9994,79.0
1783.7126,80.0
1784.4261,87.0
1785.1399,60.0
1785.854,66.0
1786.5684,80.0
1787.283,50.0
1787.9979,73.0
1788.7131,106.0
1789.4286,71.0
1790.1444,52.0
1790.8605,69.0
1791.5768,83.0
1792.2935,75.0
1793.0104,79.0
1793.7275,81.0
1794.4451,84.0
1795.1628,60.0
1795.8809,91.0
1796.5992,66.0
1797.3179,73.0
1798.0367,73.0
1798.756,102.0
1799.4755,70.0
1800.1953,61.0
1800.9154,60.0
1801.6357,91.0
1802.3564,72.0
1803.0774,87.0
1803.7986,61.0
1804.5201,68.0
1805.242,81.0
1805.964,152.0
1806.6864,153.0
1807.409,109.0
1808.1321,71.0
1808.8553,83.0
1809.5789,98.0
1810.3027,73.0
1811.0269,92.0
1811.7512,96.0
1812.476,83.0
1813.2009,75.0
1813.9261,96.0
1814.6517,91.0
1815.3776,81.0
1816.1038,60.0
1816.8302,71.0
1817.5569,83.0
1818.2839,63.0
1819.0112,73.0
1819.7389,70.0
1820.4668,61.0
1821.195,78.0
1821.9235,67.0
1822.6522,94.0
1823.3812,79.0
1824.1106,50.0
1824.8402,84.0
1825.5702,86.0
1826.3004,67.0
1827.0309,74.0
1827.7617,97.0
1828.4928,93.0
1829.2242,81.0
1829.9559,75.0
1830.6879,66.0
1831.4202,80.0
1832.1527,67.0
1832.8856,83.0
1833.6188,73.0
1834.3522,80.0
1835.0859,57.0
1835.82,80.0
1836.5543,75.0
1837.289,62.0
1838.0238,77.0
1838.759,96.0
1839.4945,86.0
1840.2303,76.0
1840.9664,109.0
1841.7028,95.0
1842.4395,98.0
1843.1764,69.0
1843.9137,90.0
1844.6512,79.0
1845.3892,62.0
1846.1273,75.0
1846.8657,78.0
1847.6045,66.0
1848.3435,90.0
1849.0829,56.0
1849.8225,67.0
1850.5624,74.0
1851.3026,60.0
1852.0431,60.0
1852.7839,86.0
1853.525,82.0
1854.2665,70.0
1855.0082,80.0
1855.7501,77.0
1856.4924,98.0
1857.235,79.0
1857.9779,152.0
1858.7211,178.0
1859.4646,123.0
1860.2084,79.0
1860.9525,97.0
1861.6969,96.0
1862.4415,86.0
1863.1865,62.0
1863.9318,75.0
1864.6774,81.0
1865.4232,78.0
1866.1694,56.0
1866.9159,80.0
1867.6627,102.0
1868.4098,77.0
1869.1571,75.0
1869.9048,83.0
1870.6527,88.0
1871.401,85.0
1872.1495,70.0
1872.8984,88.0
1873.6476,112.0
1874.3971,85.0
1875.1469,77.0
1875.8969,116.0
1876.6472,128.0
1877.3978,108.0
1878.1488,78.0
1878.9,65.0
1879.6516,81.0
1880.4034,74.0
1881.1556,83.0
1881.9081,83.0
1882.6609,86.0
1883.414,88.0
1884.1674,83.0
1884.921,203.0
1885.675,227.0
1886.4293,135.0
1887.1838,108.0
1887.9387,107.0
1888.6938,85.0
1889.4493,77.0
1890.2051,65.0
1890.9612,75.0
1891.7175,74.0
1892.4742,91.0
1893.2312,62.0
1893.9885,82.0
1894.7461,80.0
1895.504,101.0
1896.2622,79.0
1897.0208,119.0
1897.7795,141.0
1898.5387,89.0
1899.2981,73.0
1900.0579,88.0
1900.8179,76.0
1901.5782,92.0
1902.3389,73.0
1903.0999,75.0
1903.8611,94.0
1904.6227,77.0
1905.3845,78.0
1906.1467,68.0
1906.9092,89.0
1907.672,91.0
1908.435,62.0
1909.1985,71.0
1909.9622,60.0
1910.7262,76.0
1911.4905,98.0
1912.2551,81.0
1913.02,89.0
1913.7853,361.0
1914.5508,291.0
1915.3167,207.0
1916.0828,214.0
1916.8492,158.0
1917.616,98.0
1918.383,66.0
1919.1504,75.0
1919.9181,82.0
1920.686,68.0
1921.4543,89.0
1922.2229,50.0
1922.9918,60.0
1923.761,71.0
1924.5305,83.0
1925.3003,61.0
1926.0704,72.0
1926.8408,87.0
1927.6116,84.0
1928.3826,78.0
1929.1539,55.0
1929.9255,72.0
1930.6975,66.0
1931.4698,73.0
1932.2424,58.0
1933.0154,67.0
1933.7886,62.0
1934.5621,80.0
1935.3359,65.0
1936.1101,104.0
1936.8845,74.0
1937.6593,85.0
1938.4343,85.0
1939.2097,70.0
1939.9854,77.0
1940.7614,71.0
1941.5376,72.0
1942.3142,49.0
1943.0912,68.0
1943.8684,74.0
1944.646,75.0
1945.4238,65.0
1946.202,81.0
1946.9805,59.0
1947.7593,64.0
1948.5383,75.0
1949.3177,59.0
1950.0975,62.0
1950.8776,73.0
1951.658,88.0
1952.4386,70.0
1953.2196,56.0
1954.0009,63.0
1954.7825,80.0
1955.5643,80.0
1956.3466,70.0
1957.1292,52.0
1957.912,55.0
1958.6952,57.0
1959.4786,55.0
1960.2625,48.0
1961.0465,53.0
1961.8309,66.0
1962.6157,79.0
1963.4008,64.0
1964.1862,58.0
1964.9718,57.0
1965.7578,84.0
1966.5441,73.0
1967.3307,66.0
1968.1177,99.0
1968.9049,91.0
1969.6925,84.0
1970.4803,87.0
1971.2686,86.0
1972.057,71.0
1972.8458,88.0
1973.635,64.0
1974.4244,78.0
1975.2142,56.0
1976.0043,71.0
1976.7947,70.0
1977.5854,77.0
1978.3765,69.0
1979.1678,51.0
1979.9595,64.0
1980.7515,61.0
1981.5438,80.0
1982.3364,72.0
1983.1294,66.0
1983.9226,83.0
1984.7162,78.0
1985.5101,74.0
1986.3043,77.0
1987.0989,70.0
1987.8937,62.0
1988.6888,65.0
1989.4844,80.0
1990.2802,60.0
1991.0763,83.0
1991.8727,61.0
1992.6694,84.0
1993.4666,88.0
1994.2639,60.0
1995.0616,100.0
1995.8596,96.0
1996.658,92.0
1997.4567,58.0
1998.2556,54.0
1999.0549,62.0
1999.8546,73.0
2000.6545,71.0
2001.4548,68.0
2002.2554,65.0
2003.0563,83.0
2003.8575,60.0
2004.659,86.0
2005.4609,68.0
2006.2631,61.0
2007.0656,57.0
2007.8684,70.0
2008.6715,93.0
2009.475,88.0
2010.2788,78.0
2011.0829,98.0
2011.8873,148.0
2012.6921,132.0
2013.4972,101.0
2014.3026,89.0
2015.1083,76.0
2015.9143,84.0
2016.7207,69.0
2017.5273,62.0
2018.3344,73.0
2019.1417,58.0
2019.9493,66.0
2020.7573,71.0
2021.5657,82.0
2022.3743,57.0
2023.1832,60.0
2023.9926,52.0
2024.8021,64.0
2025.612,71.0
2026.4224,71.0
2027.2329,68.0
2028.0438,80.0
2028.855,97.0
2029.6665,102.0
2030.4784,75.0
2031.2905,66.0
2032.103,55.0
2032.9159,71.0
2033.729,72.0
2034.5425,84.0
2035.3563,70.0
2036.1704,82.0
2036.9849,80.0
2037.7997,89.0
2038.6147,85.0
2039.4302,54.0
2040.246,80.0
2041.062,64.0
2041.8784,77.0
2042.6952,83.0
2043.5123,77.0
2044.3297,66.0
2045.1475,59.0
2045.9656,76.0
2046.7839,78.0
2047.6027,70.0
2048.4216,51.0
2049.241,78.0
2050.0605,69.0
2050.8806,83.0
2051.701,85.0
2052.5217,90.0
2053.3428,76.0
2054.164,75.0
2054.9858,86.0
2055.8079,72.0
2056.6301,85.0
2057.453,74.0
2058.276,67.0
2059.099,64.0
2059.9229,58.0
2060.7468,74.0
2061.571,63.0
2062.3958,56.0
2063.2207,82.0
2064.046,73.0
2064.8716,78.0
2065.6975,71.0
2066.5237,91.0
2067.3503,50.0
2068.1772,71.0
2069.0046,53.0
2069.8323,66.0
2070.6602,82.0
2071.4885,67.0
2072.3171,58.0
2073.146,77.0
2073.9753,77.0
2074.805,63.0
2075.6348,66.0
2076.465,77.0
2077.2957,66.0
2078.1265,66.0
2078.9578,74.0
2079.7893,74.0
2080.6213,85.0
2081.4536,60.0
2082.2861,74.0
2083.1191,99.0
2083.9524,125.0
2084.786,104.0
2085.6199,100.0
2086.454,74.0
2087.2886,54.0
2088.1235,71.0
2088.9587,77.0
2089.7944,62.0
2090.6304,76.0
2091.4666,61.0
2092.3032,74.0
2093.1401,64.0
2093.9773,78.0
2094.815,75.0
2095.6528,67.0
2096.4912,73.0
2097.3298,63.0
2098.1687,65.0
2099.008,75.0
2099.8477,74.0
2100.6875,80.0
2101.5278,65.0
2102.3684,68.0
2103.2095,70.0
2104.0508,83.0
2104.8923,73.0
2105.7344,74.0
2106.5767,87.0
2107.4192,66.0
2108.2622,76.0
2109.1055,68.0
2109.9492,75.0
2110.7932,79.0
2111.6375,65.0
2112.4822,79.0
2113.3271,62.0
2114.1724,61.0
2115.018,68.0
2115.864,68.0
2116.7104,72.0
2117.5571,77.0
2118.404,50.0
2119.2515,62.0
2120.099,70.0
2120.9473,98.0
2121.7957,81.0
2122.6443,53.0
2123.4934,59.0
2124.3428,75.0
2125.1926,82.0
2126.0427,78.0
2126.893,98.0
2127.744,71.0
2128.595,83.0
2129.4463,81.0
2130.298,64.0
2131.1501,62.0
2132.0027,58.0
2132.8555,69.0
2133.7085,71.0
2134.562,64.0
2135.4158,73.0
2136.27,59.0
2137.1245,60.0
2137.9792,89.0
2138.8345,70.0
2139.69,85.0
2140.546,83.0
2141.402,92.0
2142.2585,117.0
2143.1155,114.0
2143.9727,105.0
2144.8303,76.0
2145.6882,64.0
2146.5464,69.0
2147.405,78.0
2148.264,59.0
2149.1233,57.0
2149.983,74.0
2150.843,67.0
2151.7034,73.0
2152.564,74.0
2153.425,83.0
2154.2864,70.0
2155.1482,80.0
2156.0103,83.0
2156.8726,74.0
2157.7354,78.0
2158.5984,64.0
2159.462,63.0
2160.3257,73.0
2161.1897,64.0
2162.0542,74.0
2162.919,68.0
2163.7842,70.0
2164.6497,84.0
2165.5156,77.0
2166.3818,55.0
2167.2483,76.0
2168.1152,93.0
2168.9824,108.0
2169.85,97.0
2170.718,76.0
2171.5864,82.0
2172.455,67.0
2173.324,76.0
2174.1934,71.0
2175.063,78.0
2175.933,73.0
2176.8035,76.0
2177.674,75.0
2178.5452,71.0
2179.4165,78.0
2180.2883,72.0
2181.1604,81.0
2182.033,82.0
2182.9058,89.0
2183.7788,71.0
2184.6523,84.0
2185.5261,83.0
2186.4004,64.0
2187.275,65.0
2188.15,61.0
2189.0251,83.0
2189.9006,78.0
2190.7766,87.0
2191.6528,65.0
2192.5295,75.0
2193.4065,86.0
2194.284,100.0
2195.1616,95.0
2196.0398,126.0
2196.9182,97.0
2197.7969,97.0
2198.676,72.0
2199.5554,76.0
2200.4353,80.0
2201.3154,62.0
2202.196,75.0
2203.077,82.0
2203.9583,70.0
2204.8398,73.0
2205.7217,66.0
2206.604,64.0
2207.4866,72.0
2208.3696,73.0
2209.253,64.0
2210.1367,69.0
2211.0208,76.0
2211.9053,86.0
2212.79,76.0
2213.675,93.0
2214.5605,97.0
2215.4463,75.0
2216.3325,89.0
2217.219,80.0
2218.106,88.0
2218.9932,80.0
2219.8809,69.0
2220.7688,82.0
2221.6572,80.0
2222.546,73.0
2223.4348,81.0
2224.3242,80.0
2225.2139,53.0
2226.104,67.0
2226.9944,63.0
2227.8853,65.0
2228.7764,80.0
2229.668,66.0
2230.5598,76.0
2231.4521,91.0
2232.3447,78.0
2233.2375,85.0
2234.1309,92.0
2235.0244,80.0
2235.9185,84.0
2236.8127,90.0
2237.7075,81.0
2238.6025,82.0
2239.498,96.0
2240.3938,66.0
2241.29,80.0
2242.1865,92.0
2243.0835,84.0
2243.9807,99.0
2244.8784,73.0
2245.7764,98.0
2246.6746,86.0
2247.5732,79.0
2248.4722,80.0
2249.3716,71.0
2250.2712,59.0
2251.1714,78.0
2252.0718,91.0
2252.9727,88.0
2253.8738,99.0
2254.7754,77.0
2255.6772,91.0
2256.5796,75.0
2257.4822,101.0
2258.3853,86.0
2259.2886,98.0
2260.1924,84.0
2261.0964,106.0
2262.001,88.0
2262.9058,76.0
2263.811,68.0
2264.7166,81.0
2265.6226,87.0
2266.5288,83.0
2267.4353,77.0
2268.3423,75.0
2269.2495,81.0
2270.1572,69.0
2271.0652,78.0
2271.9736,89.0
2272.8823,88.0
2273.7915,96.0
2274.701,82.0
2275.6108,115.0
2276.521,110.0
2277.4316,92.0
2278.3425,98.0
2279.254,85.0
2280.1655,88.0
2281.0776,81.0
2281.99,82.0
2282.9028,69.0
2283.816,73.0
2284.7295,82.0
2285.6433,73.0
2286.5576,87.0
2287.4722,91.0
2288.3872,85.0
2289.3025,80.0
2290.2183,68.0
2291.1343,66.0
2292.0508,88.0
2292.9675,87.0
2293.8848,91.0
2294.8022,93.0
2295.7202,94.0
2296.6384,92.0
2297.5571,97.0
2298.476,101.0
2299.3955,89.0
2300.3152,78.0
2301.2354,78.0
2302.1558,90.0
2303.0767,95.0
2303.9978,89.0
2304.9194,85.0
2305.8413,81.0
2306.7637,85.0
2307.6863,88.0
2308.6094,76.0
2309.5327,100.0
2310.4565,79.0
2311.3806,92.0
2312.3052,82.0
2313.23,92.0
2314.1553,85.0
2315.081,76.0
2316.007,95.0
2316.9336,85.0
2317.8604,103.0
2318.7876,99.0
2319.715,117.0
2320.643,99.0
2321.5713,115.0
2322.5,102.0
2323.429,75.0
2324.3584,98.0
2325.288,83.0
2326.2183,89.0
2327.1487,69.0
2328.0796,101.0
2329.0107,101.0
2329.9424,104.0
2330.8743,111.0
2331.8066,101.0
2332.7393,85.0
2333.6724,90.0
2334.6057,70.0
2335.5396,91.0
2336.4739,97.0
2337.4084,78.0
2338.3435,93.0
2339.2788,76.0
2340.2146,81.0
2341.1506,87.0
2342.0872,100.0
2343.024,75.0
2343.9612,73.0
2344.8987,94.0
2345.8367,104.0
2346.775,110.0
2347.7136,105.0
2348.6526,88.0
2349.592,101.0
2350.532,85.0
2351.4722,67.0
2352.4128,92.0
2353.3538,96.0
2354.2952,88.0
2355.2368,76.0
2356.179,84.0
2357.1213,77.0
2358.0642,84.0
2359.0073,78.0
2359.951,95.0
2360.895,85.0
2361.8394,84.0
2362.7842,99.0
2363.7292,99.0
2364.6748,74.0
2365.6206,88.0
2366.567,89.0
2367.5134,86.0
2368.4604,80.0
2369.4077,80.0
2370.3555,89.0
2371.3037,82.0
2372.2522,87.0
2373.2012,90.0
2374.1504,77.0
2375.1,82.0
2376.05,69.0
2377.0005,81.0
2377.9512,88.0
2378.9023,77.0
2379.854,90.0
2380.806,77.0
2381.7583,79.0
2382.711,84.0
2383.664,72.0
2384.6174,67.0
2385.5713,73.0
2386.5256,83.0
2387.4802,84.0
2388.4353,77.0
2389.3906,94.0
2390.3464,101.0
2391.3025,92.0
2392.259,75.0
2393.2158,80.0
2394.173,95.0
2395.1309,88.0
2396.0889,77.0
2397.0474,80.0
2398.006,91.0
2398.9653,68.0
2399.9248,83.0
2400.8848,94.0
2401.8452,77.0
2402.806,104.0
2403.767,66.0
2404.7285,87.0
2405.6904,98.0
2406.6526,103.0
2407.6152,76.0
2408.5784,78.0
2409.5417,75.0
2410.5056,94.0
2411.4697,76.0
2412.4343,77.0
2413.3994,95.0
2414.3647,83.0
2415.3306,87.0
2416.2966,70.0
2417.2632,72.0
2418.23,79.0
2419.1973,72.0
2420.165,69.0
2421.133,62.0
2422.1016,87.0
2423.0703,83.0
2424.0396,87.0
2425.0093,77.0
2425.9792,66.0
2426.9497,69.0
2427.9204,70.0
2428.8916,100.0
2429.863,70.0
2430.835,86.0
2431.8074,89.0
2432.78,112.0
2433.7532,77.0
2434.7266,76.0
2435.7004,79.0
2436.6748,75.0
2437.6494,64.0
2438.6245,82.0
2439.5999,81.0
2440.5757,79.0
2441.552,73.0
2442.5286,78.0
2443.5056,74.0
2444.483,67.0
2445.4607,63.0
2446.439,69.0
2447.4175,86.0
2448.3965,101.0
2449.3757,81.0
2450.3555,102.0
2451.3357,87.0
2452.3162,77.0
2453.297,82.0
2454.2783,87.0
2455.26,87.0
2456.2422,79.0
2457.2246,85.0
2458.2075,78.0
2459.191,78.0
2460.1746,71.0
2461.1587,81.0
2462.143,70.0
2463.128,80.0
2464.1133,84.0
2465.0989,102.0
2466.085,98.0
2467.0713,86.0
2468.058,61.0
2469.0454,78.0
2470.033,79.0
2471.021,68.0
2472.0095,60.0
2472.9983,95.0
2473.9875,84.0
2474.977,67.0
2475.967,70.0
2476.9575,88.0
2477.9482,77.0
2478.9395,66.0
2479.931,74.0
2480.9229,73.0
2481.9153,71.0
2482.908,71.0
2483.9011,76.0
2484.8948,78.0
2485.8887,60.0
2486.883,91.0
2487.878,67.0
2488.873,67.0
2489.8687,57.0
2490.8645,68.0
2491.8608,72.0
2492.8577,75.0
2493.8547,75.0
2494.8523,76.0
2495.8503,88.0
2496.8486,78.0
2497.8474,70.0
2498.8464,81.0
2499.846,84.0
2500.846,62.0
2501.8462,77.0
2502.847,77.0
2503.8481,82.0
2504.8496,69.0
2505.8516,69.0
2506.854,51.0
2507.8567,72.0
2508.8599,71.0
2509.8635,81.0
2510.8674,79.0
2511.8718,71.0
2512.8765,66.0
2513.8816,85.0
2514.8872,72.0
2515.893,74.0
2516.8994,74.0
2517.9062,77.0
2518.9133,94.0
2519.921,82.0
2520.929,85.0
2521.9373,82.0
2522.946,65.0
2523.9553,89.0
2524.9648,68.0
2525.9749,73.0
2526.9854,78.0
2527.996,90.0
2529.0073,65.0
2530.019,80.0
2531.031,78.0
2532.0435,94.0
2533.0562,79.0
2534.0693,80.0
2535.083,78.0
2536.097,85.0
2537.1113,65.0
2538.1262,83.0
2539.1414,65.0
2540.157,83.0
2541.173,79.0
2542.1895,56.0
2543.2063,74.0
2544.2236,66.0
2545.2412,74.0
2546.2593,73.0
2547.2778,78.0
2548.2966,76.0
2549.316,77.0
2550.3357,84.0
2551.3557,77.0
2552.3762,73.0
2553.3972,86.0
2554.4185,73.0
2555.4402,67.0
2556.4624,63.0
2557.485,69.0
2558.508,81.0
2559.5315,62.0
2560.5554,83.0
2561.5796,71.0
2562.6042,87.0
2563.6294,92.0
2564.6548,93.0
2565.6807,91.0
2566.707,91.0
2567.7336,99.0
2568.7607,90.0
2569.7883,80.0
2570.8162,76.0
2571.8445,62.0
2572.8733,60.0
2573.9023,75.0
2574.932,73.0
2575.962,91.0
2576.9922,85.0
2578.023,83.0
2579.0542,83.0
2580.086,87.0
2581.118,83.0
2582.1504,75.0
2583.1833,71.0
2584.2166,83.0
2585.2502,79.0
2586.2844,82.0
2587.3188,79.0
2588.3538,79.0
2589.3892,85.0
2590.4248,78.0
2591.461,87.0
2592.4976,103.0
2593.5347,99.0
2594.572,98.0
2595.6099,84.0
2596.6482,88.0
2597.6868,83.0
2598.7258,69.0
2599.7654,74.0
2600.8052,74.0
2601.8455,78.0
2602.8862,72.0
2603.9275,74.0
2604.969,88.0
2606.011,92.0
2607.0535,80.0
2608.0962,101.0
2609.1394,94.0
2610.183,94.0
2611.2273,85.0
2612.2717,94.0
2613.3167,90.0
2614.362,74.0
2615.4077,71.0
2616.4539,74.0
2617.5005,84.0
2618.5476,91.0
2619.595,86.0
2620.6428,84.0
2621.6912,80.0
2622.7397,92.0
2623.7888,67.0
2624.8384,87.0
2625.8884,97.0
2626.9387,90.0
2627.9895,89.0
2629.0408,72.0
2630.0923,82.0
2631.1443,58.0
2632.1968,96.0
2633.2498,88.0
2634.303,73.0
2635.3567,77.0
2636.411,93.0
2637.4653,79.0
2638.5203,79.0
2639.5757,87.0
2640.6316,77.0
2641.6877,72.0
2642.7444,80.0
2643.8015,76.0
2644.8591,91.0
2645.917,87.0
2646.9753,95.0
2648.0342,88.0
2649.0935,97.0
2650.153,90.0
2651.2131,85.0
2652.2737,94.0
2653.3345,71.0
2654.3958,84.0
2655.4575,83.0
2656.5198,87.0
2657.5823,82.0
2658.6453,73.0
2659.7087,90.0
2660.7727,87.0
2661.837,91.0
2662.9016,77.0
2663.9668,93.0
2665.0325,113.0
2666.0984,92.0
2667.1648,98.0
2668.2317,95.0
2669.299,100.0
2670.3667,75.0
2671.4348,97.0
2672.5034,78.0
2673.5725,75.0
2674.6418,72.0
2675.7117,89.0
2676.782,79.0
2677.8528,107.0
2678.9238,81.0
2679.9954,108.0
2681.0674,86.0
2682.14,69.0
2683.2126,92.0
2684.286,92.0
2685.3596,84.0
2686.4338,94.0
2687.5083,56.0
2688.5833,93.0
2689.6587,96.0
2690.7346,74.0
2691.8108,69.0
2692.8875,102.0
2693.9646,86.0
2695.0422,73.0
2696.1204,72.0
2697.1987,107.0
2698.2776,73.0
2699.357,100.0
2700.4368,93.0
2701.5168,110.0
2702.5974,85.0
2703.6785,79.0
2704.76,84.0
2705.8418,100.0
2706.924,102.0
2708.0068,74.0
2709.09,74.0
2710.1738,82.0
2711.2578,82.0
2712.3423,85.0
2713.4272,86.0
2714.5127,89.0
2715.5984,89.0
2716.6846,74.0
2717.7712,72.0
2718.8584,79.0
2719.946,89.0
2721.034,83.0
2722.1223,104.0
2723.2112,135.0
2724.3005,112.0
2725.3901,112.0
2726.4802,100.0
2727.5708,83.0
2728.6619,86.0
2729.7534,115.0
2730.8452,110.0
2731.9375,89.0
2733.0303,82.0
2734.1235,80.0
2735.2173,181.0
2736.3113,230.0
2737.4058,141.0
2738.5007,93.0
2739.5962,94.0
2740.6921,78.0
2741.7883,86.0
2742.885,83.0
2743.9822,93.0
2745.0798,93.0
2746.178,96.0
2747.2764,83.0
2748.3752,85.0
2749.4746,86.0
2750.5745,91.0
2751.6748,96.0
2752.7754,76.0
2753.8765,66.0
2754.978,89.0
2756.08,60.0
2757.1826,77.0
2758.2854,77.0
2759.3887,87.0
2760.4924,78.0
2761.5967,80.0
2762.7014,76.0
2763.8064,91.0
2764.9119,101.0
2766.0178,85.0
2767.1243,84.0
2768.2312,74.0
2769.3384,90.0
2770.446,79.0
2771.5542,81.0
2772.6628,70.0
2773.772,57.0
2774.8816,88.0
2775.9915,82.0
2777.1018,98.0
2778.2126,69.0
2779.324,94.0
2780.4358,92.0
2781.5479,88.0
2782.6604,89.0
2783.7734,80.0
2784.887,92.0
2786.001,69.0
2787.1155,86.0
2788.2302,88.0
2789.3455,73.0
2790.4612,92.0
2791.5774,100.0
2792.694,112.0
2793.8113,122.0
2794.9287,154.0
2796.0466,140.0
2797.165,166.0
2798.284,174.0
2799.4033,136.0
2800.5232,130.0
2801.6433,112.0
2802.764,130.0
2803.885,126.0
2805.0066,131.0
2806.1287,120.0
2807.2512,121.0
2808.374,140.0
2809.4973,122.0
2810.621,122.0
2811.7454,142.0
2812.87,137.0
2813.9954,139.0
2815.1208,128.0
2816.2468,126.0
2817.3733,126.0
2818.5002,103.0
2819.6277,132.0
2820.7556,116.0
2821.884,141.0
2823.0127,99.0
2824.1418,121.0
2825.2715,105.0
2826.4016,116.0
2827.5322,113.0
2828.6633,113.0
2829.7947,136.0
2830.9265,136.0
2832.0588,122.0
2833.1917,133.0
2834.325,127.0
2835.4587,123.0
2836.593,139.0
2837.7275,116.0
2838.8625,126.0
2839.998,130.0
2841.134,120.0
2842.2705,125.0
2843.4075,126.0
2844.545,102.0
2845.6829,122.0
2846.821,123.0
2847.9597,115.0
2849.0989,114.0
2850.2385,117.0
2851.3787,130.0
2852.5193,138.0
2853.6604,111.0
2854.8018,127.0
2855.9436,107.0
2857.086,142.0
2858.2288,169.0
2859.372,133.0
2860.5159,136.0
2861.6602,110.0
2862.805,115.0
2863.95,122.0
2865.0955,129.0
2866.2415,146.0
2867.388,130.0
2868.535,127.0
2869.6824,128.0
2870.8303,121.0
2871.9788,110.0
2873.1274,123.0
2874.2766,118.0
2875.4263,108.0
2876.5764,134.0
2877.727,120.0
2878.8782,132.0
2880.0298,124.0
2881.182,119.0
2882.3345,113.0
2883.4873,130.0
2884.6406,115.0
2885.7944,87.0
2886.9487,134.0
2888.1035,128.0
2889.2588,133.0
2890.4146,155.0
2891.5708,149.0
2892.7275,133.0
2893.8845,116.0
2895.042,99.0
2896.2,115.0
2897.3584,125.0
2898.5173,120.0
2899.6768,129.0
2900.8367,127.0
2901.997,128.0
2903.158,118.0
2904.3193,120.0
2905.481,154.0
2906.643,143.0
2907.8057,165.0
2908.9688,167.0
2910.1323,165.0
2911.2964,150.0
2912.461,137.0
2913.626,125.0
2914.7915,123.0
2915.9575,122.0
2917.124,115.0
2918.2908,117.0
2919.458,108.0
2920.6257,136.0
2921.794,168.0
2922.9626,165.0
2924.1318,169.0
2925.3015,178.0
2926.4717,136.0
2927.6423,134.0
2928.8135,131.0
2929.985,115.0
2931.157,127.0
2932.3293,139.0
2933.5022,113.0
2934.6755,130.0
2935.8494,128.0
2937.0237,106.0
2938.1985,112.0
2939.3738,140.0
2940.5496,118.0
2941.7258,115.0
2942.9026,129.0
2944.0798,141.0
2945.2576,143.0
2946.4358,147.0
2947.6143,147.0
2948.7932,133.0
2949.9727,138.0
2951.1526,128.0
2952.333,130.0
2953.514,154.0
2954.6953,124.0
2955.8772,103.0
2957.0596,114.0
2958.2424,140.0
2959.4258,152.0
2960.6096,147.0
2961.794,128.0
2962.9788,110.0
2964.164,112.0
2965.3496,132.0
2966.5356,108.0
2967.7222,112.0
2968.9092,107.0
2970.0967,101.0
2971.2847,133.0
2972.4731,120.0
2973.662,133.0
2974.8516,115.0
2976.0415,113.0
2977.232,133.0
2978.4229,128.0
2979.6143,139.0
2980.8062,146.0
2981.9985,133.0
2983.1914,119.0
2984.3848,112.0
2985.5786,115.0
2986.773,119.0
2987.9678,135.0
2989.1628,117.0
2990.3584,126.0
2991.5544,135.0
2992.751,132.0
2993.948,135.0
2995.1455,108.0
2996.3435,138.0
2997.542,137.0
2998.741,110.0
2999.9404,138.0
3001.1404,154.0
3002.3408,121.0
3003.5417,136.0
3004.7432,134.0
3005.945,146.0
3007.1475,133.0
3008.3503,134.0
3009.5537,156.0
3010.7576,124.0
3011.962,119.0
3013.1667,134.0
3014.372,127.0
3015.578,135.0
3016.7842,108.0
3017.991,120.0
3019.1982,119.0
3020.406,161.0
3021.6143,140.0
3022.823,169.0
3024.0322,142.0
3025.242,126.0
3026.4521,127.0
3027.6628,139.0
3028.874,111.0
3030.0857,104.0
3031.2976,134.0
3032.51,113.0
3033.723,131.0
3034.9363,131.0
3036.1501,108.0
3037.3645,144.0
3038.5793,147.0
3039.7947,137.0
3041.0105,105.0
3042.2268,126.0
3043.4436,136.0
3044.661,139.0
3045.8787,127.0
3047.097,111.0
3048.3157,109.0
3049.535,130.0
3050.7546,117.0
3051.9749,134.0
3053.1956,117.0
3054.4167,134.0
3055.6384,156.0
3056.8606,137.0
3058.0833,103.0
3059.3064,123.0
3060.53,123.0
3061.7542,115.0
3062.9788,128.0
3064.2039,129.0
3065.4294,130.0
3066.6555,131.0
3067.882,132.0
3069.1091,113.0
3070.3367,128.0
3071.5647,132.0
3072.7932,131.0
3074.0222,121.0
3075.2517,134.0
3076.4817,111.0
3077.7124,128.0
3078.9436,141.0
3080.1753,126.0
3081.4075,135.0
3082.6401,114.0
3083.8733,130.0
3085.107,120.0
3086.341,105.0
3087.5757,160.0
3088.8108,137.0
3090.0464,109.0
3091.2825,133.0
3092.519,123.0
3093.756,115.0
3094.9937,118.0
3096.2317,125.0
3097.4702,151.0
3098.7092,134.0
3099.9487,144.0
3101.1887,117.0
3102.4292,130.0
3103.6702,137.0
3104.9116,119.0
3106.1536,137.0
3107.396,135.0
3108.639,123.0
3109.8823,126.0
3111.1262,125.0
3112.3706,127.0
3113.6155,146.0
3114.8608,111.0
3116.1067,124.0
3117.353,135.0
3118.5999,145.0
3119.8474,113.0
3121.0955,118.0
3122.344,132.0
3123.593,160.0
3124.8425,129.0
3126.0925,121.0
3127.343,122.0
3128.594,125.0
3129.8455,121.0
3131.0974,128.0
3132.3499,115.0
3133.6028,115.0
3134.8562,132.0
3136.11,138.0
3137.3645,119.0
3138.6194,139.0
3139.8748,136.0
3141.1306,126.0
3142.387,132.0
3143.6438,134.0
3144.9014,129.0
3146.1594,145.0
3147.418,161.0
3148.677,137.0
3149.9365,136.0
3151.1965,134.0
3152.457,148.0
3153.718,136.0
3154.9795,131.0
3156.2415,135.0
3157.504,140.0
3158.7668,139.0
3160.0303,147.0
3161.2942,145.0
3162.5586,128.0
3163.8237,105.0
3165.0894,120.0
3166.3555,135.0
3167.622,162.0
3168.8892,123.0
3170.1567,125.0
3171.4248,129.0
3172.6934,166.0
3173.9624,96.0
3175.232,136.0
3176.502,127.0
3177.7725,116.0
3179.0435,145.0
3180.3152,130.0
3181.5874,135.0
3182.86,106.0
3184.1333,123.0
3185.407,124.0
3186.6812,177.0
3187.9558,131.0
3189.231,155.0
3190.5066,149.0
3191.7827,144.0
3193.0593,125.0
3194.3367,158.0
3195.6145,142.0
3196.8928,156.0
3198.1716,126.0
3199.451,131.0
3200.7307,136.0
3202.011,131.0
3203.2917,140.0
3204.573,122.0
3205.8547,128.0
3207.137,113.0
3208.42,150.0
3209.7034,139.0
3210.9873,131.0
3212.2717,132.0
3213.5566,162.0
3214.842,116.0
3216.128,115.0
3217.4143,127.0
3218.7012,134.0
3219.9888,118.0
3221.2769,137.0
3222.5654,143.0
3223.8545,140.0
3225.144,144.0
3226.434,152.0
3227.7246,144.0
3229.0156,133.0
3230.3071,132.0
3231.5994,134.0
3232.892,119.0
3234.1853,134.0
3235.479,136.0
3236.7732,131.0
3238.0679,134.0
3239.363,134.0
3240.6587,140.0
3241.9548,121.0
3243.2517,151.0
3244.549,143.0
3245.847,125.0
3247.1453,111.0
3248.444,105.0
3249.7434,139.0
3251.0432,135.0
3252.3438,131.0
3253.6448,130.0
3254.9463,132.0
3256.2483,126.0
3257.5508,140.0
3258.8538,121.0
3260.1572,129.0
3261.4612,125.0
3262.7659,136.0
3264.071,121.0
3265.3767,132.0
3266.6829,144.0
3267.9895,142.0
3269.2966,123.0
3270.6042,176.0
3271.9126,153.0
3273.2214,121.0
3274.5308,134.0
3275.8406,133.0
3277.151,140.0
3278.4617,133.0
3279.773,131.0
3281.085,120.0
3282.3975,134.0
3283.7104,119.0
3285.024,119.0
3286.338,132.0
3287.6523,148.0
3288.9673,142.0
3290.283,112.0
3291.599,136.0
3292.9158,108.0
3294.233,153.0
3295.5505,143.0
3296.8687,136.0
3298.1875,146.0
3299.5068,157.0
3300.8267,163.0
3302.147,116.0
3303.4678,125.0
3304.789,143.0
3306.111,138.0
3307.4336,139.0
3308.7566,139.0
3310.08,122.0
3311.404,131.0
3312.7285,137.0
3314.0537,127.0
3315.3794,141.0
3316.7056,139.0
3318.0322,118.0
3319.3594,157.0
3320.687,140.0
3322.0154,143.0
3323.3442,165.0
3324.6736,147.0
3326.0034,138.0
3327.3337,134.0
3328.6648,151.0
3329.9963,116.0
3331.3284,110.0
3332.661,140.0
3333.994,138.0
3335.3274,141.0
3336.6616,132.0
3337.9963,153.0
3339.3315,146.0
3340.6672,139.0
3342.0034,150.0
3343.3403,141.0
3344.6777,123.0
3346.0156,114.0
3347.354,138.0
3348.6929,168.0
3350.0322,180.0
3351.3723,137.0
3352.713,164.0
3354.054,149.0
3355.3955,161.0
3356.7375,144.0
3358.0803,142.0
3359.4236,131.0
3360.7673,152.0
3362.1116,127.0
3363.4563,141.0
3364.8018,155.0
3366.1477,130.0
3367.4941,126.0
3368.841,170.0
3370.1887,131.0
3371.5369,176.0
3372.8855,159.0
3374.2346,128.0
3375.5842,168.0
3376.9346,134.0
3378.2854,149.0
3379.6367,149.0
3380.9885,144.0
3382.3408,153.0
3383.6938,141.0
3385.0474,153.0
3386.4014,178.0
3387.7559,137.0
3389.1108,146.0
3390.4666,138.0
3391.8228,142.0
3393.1794,149.0
3394.5366,168.0
3395.8945,141.0
3397.253,158.0
3398.6118,147.0
3399.9712,142.0
3401.3313,170.0
3402.692,178.0
3404.053,189.0
3405.4146,180.0
3406.7766,159.0
3408.1394,127.0
3409.5027,126.0
3410.8665,150.0
3412.2307,157.0
3413.5957,165.0
3414.9612,159.0
3416.3271,137.0
3417.6936,164.0
3419.0608,163.0
3420.4285,171.0
3421.7966,177.0
3423.1653,136.0
3424.5347,140.0
3425.9045,154.0
3427.275,126.0
3428.6458,181.0
3430.017,162.0
3431.3892,128.0
3432.7617,150.0
3434.1348,149.0
3435.5083,159.0
3436.8826,157.0
3438.2573,146.0
3439.6326,160.0
3441.0083,128.0
3442.3848,136.0
3443.7617,145.0
3445.1392,131.0
3446.5173,141.0
3447.896,139.0
3449.2751,132.0
3450.6548,133.0
3452.0352,152.0
3453.416,126.0
3454.7974,151.0
3456.1792,141.0
3457.5618,150.0
3458.9448,150.0
3460.3284,150.0
3461.7124,149.0
3463.0972,125.0
3464.4824,151.0
3465.8682,149.0
3467.2544,157.0
3468.6414,148.0
3470.0288,157.0
3471.4167,123.0
3472.8054,147.0
3474.1946,130.0
3475.5842,184.0
3476.9744,158.0
3478.3652,168.0
3479.7566,151.0
3481.1484,157.0
3482.541,139.0
3483.934,143.0
3485.3276,152.0
3486.7217,158.0
3488.1165,160.0
3489.5117,166.0
3490.9075,151.0
3492.304,138.0
3493.701,166.0
3495.0984,159.0
3496.4963,155.0
3497.895,166.0
3499.2942,159.0
3500.6938,180.0
3502.0942,161.0
3503.495,155.0
3504.8965,162.0
3506.2983,163.0
3507.701,173.0
3509.104,195.0
3510.5076,170.0
3511.9119,151.0
3513.3167,146.0
3514.722,163.0
3516.128,164.0
3517.5344,146.0
3518.9414,147.0
3520.3489,177.0
3521.757,213.0
3523.1658,194.0
3524.575,172.0
3525.9849,157.0
3527.3953,167.0
3528.8062,188.0
3530.2178,236.0
3531.63,280.0
3533.0425,178.0
3534.4558,183.0
3535.8696,157.0
3537.284,151.0
3538.6987,166.0
3540.1143,161.0
3541.5303,172.0
3542.9468,179.0
3544.364,154.0
3545.7817,176.0
3547.2,157.0
3548.619,181.0
3550.0383,133.0
3551.4583,148.0
3552.879,168.0
3554.3,148.0
3555.7217,182.0
3557.144,166.0
3558.567,151.0
3559.9902,155.0
3561.4143,176.0
3562.8389,193.0
3564.264,190.0
3565.6897,195.0
3567.116,165.0
3568.5427,177.0
3569.9702,172.0
3571.3982,182.0
3572.8267,206.0
3574.2559,172.0
3575.6855,190.0
3577.1157,175.0
3578.5466,199.0
3579.978,230.0
3581.41,220.0
3582.8425,194.0
3584.2756,174.0
3585.7092,184.0
3587.1436,201.0
3588.5784,191.0
3590.014,186.0
3591.45,206.0
3592.8865,162.0
3594.3237,171.0
3595.7615,225.0
3597.1997,193.0
3598.6387,240.0
3600.0781,237.0
3601.518,253.0
3602.9587,187.0
3604.4,178.0
3605.8416,178.0
3607.284,252.0
3608.7268,318.0
3610.1704,226.0
3611.6145,188.0
3613.059,181.0
3614.5044,199.0
3615.9502,329.0
3617.3965,386.0
3618.8435,278.0
3620.291,203.0
3621.739,176.0
3623.1877,169.0
3624.637,197.0
3626.087,192.0
3627.5374,197.0
3628.9883,200.0
3630.44,177.0
3631.892,175.0
3633.3447,156.0
3634.798,187.0
3636.252,197.0
3637.7065,207.0
3639.1616,178.0
3640.6172,217.0
3642.0735,180.0
3643.5303,215.0
3644.9878,216.0
3646.4458,209.0
3647.9043,200.0
3649.3635,219.0
3650.8232,200.0
3652.2837,186.0
3653.7446,190.0
3655.206,169.0
3656.6682,194.0
3658.1309,199.0
3659.594,216.0
3661.0579,221.0
3662.5222,198.0
3663.9873,170.0
3665.453,230.0
3666.919,198.0
3668.3857,190.0
3669.853,175.0
3671.321,169.0
3672.7896,166.0
3674.2585,179.0
3675.7283,194.0
3677.1985,233.0
3678.6694,251.0
3680.1409,232.0
3681.613,220.0
3683.0857,187.0
3684.5588,166.0
3686.0327,168.0
3687.507,167.0
3688.9822,191.0
3690.4578,160.0
3691.9338,210.0
3693.4106,202.0
3694.888,205.0
3696.366,181.0
3697.8445,202.0
3699.3237,194.0
3700.8035,224.0
3702.2837,176.0
3703.7646,190.0
3705.246,178.0
3706.7283,218.0
3708.211,247.0
3709.6943,341.0
3711.1782,268.0
3712.6626,249.0
3714.1477,206.0
3715.6333,173.0
3717.1196,219.0
3718.6064,220.0
3720.094,197.0
3721.582,217.0
3723.0706,245.0
3724.5598,207.0
3726.0496,222.0
3727.54,201.0
3729.031,210.0
3730.5227,206.0
3732.015,235.0
3733.5078,310.0
3735.0012,409.0
3736.495,304.0
3737.9897,284.0
3739.4849,216.0
3740.9807,232.0
3742.477,241.0
3743.974,278.0
3745.4717,249.0
3746.97,221.0
3748.4688,225.0
3749.968,530.0
3751.468,1077.0
3752.9685,1251.0
3754.4697,671.0
3755.9714,465.0
3757.4739,296.0
3758.9768,255.0
3760.4805,228.0
3761.9846,217.0
3763.4895,216.0
3764.9949,206.0
3766.501,273.0
3768.0076,299.0
3769.515,247.0
3771.0227,231.0
3772.531,252.0
3774.04,265.0
3775.5496,270.0
3777.0598,264.0
3778.5706,216.0
3780.082,217.0
3781.594,266.0
3783.1067,403.0
3784.6199,451.0
3786.1338,291.0
3787.6482,283.0
3789.1633,246.0
3790.679,199.0
3792.1953,195.0
3793.7122,194.0
3795.2297,197.0
3796.7478,227.0
3798.2666,254.0
3799.786,255.0
3801.306,215.0
3802.8264,202.0
3804.3477,208.0
3805.8694,237.0
3807.3918,218.0
3808.9148,203.0
3810.4385,228.0
3811.9626,226.0
3813.4875,274.0
3815.013,290.0
3816.539,273.0
3818.0657,241.0
3819.593,202.0
3821.1208,204.0
3822.6494,210.0
3824.1785,214.0
3825.7083,196.0
3827.2385,192.0
3828.7695,193.0
3830.301,235.0
3831.8333,280.0
3833.366,239.0
3834.8994,238.0
3836.4333,221.0
3837.968,213.0
3839.5032,208.0
3841.039,259.0
3842.5754,228.0
3844.1125,192.0
3845.6501,216.0
3847.1885,286.0
3848.7273,345.0
3850.2668,329.0
3851.807,282.0
3853.3477,221.0
3854.889,259.0
3856.431,215.0
3857.9734,258.0
3859.5166,196.0
3861.0603,190.0
3862.6047,210.0
3864.1497,249.0
3865.6953,240.0
3867.2417,253.0
3868.7886,221.0
3870.3362,208.0
3871.8843,243.0
3873.433,224.0
3874.9824,244.0
3876.5325,230.0
3878.083,221.0
3879.6343,241.0
3881.186,279.0
3882.7385,260.0
3884.2915,245.0
3885.8452,240.0
3887.3997,244.0
3888.9546,202.0
3890.5103,202.0
3892.0664,233.0
3893.6233,204.0
3895.1807,250.0
3896.7388,224.0
3898.2974,257.0
3899.8567,256.0
3901.4167,279.0
3902.9773,237.0
3904.5386,278.0
3906.1003,253.0
3907.6628,250.0
3909.2258,223.0
3910.7896,217.0
3912.3538,188.0
3913.9187,237.0
3915.4844,219.0
3917.0505,231.0
3918.6174,261.0
3920.1848,223.0
3921.753,218.0
3923.3215,196.0
3924.8909,240.0
3926.461,204.0
3928.0315,186.0
3929.6028,230.0
3931.1746,177.0
3932.747,228.0
3934.32,209.0
3935.8938,213.0
3937.4683,195.0
3939.0432,192.0
3940.619,227.0
3942.195,227.0
3943.772,190.0
3945.3494,206.0
3946.9275,185.0
3948.5063,221.0
3950.0857,260.0
3951.6658,223.0
3953.2463,215.0
3954.8276,212.0
3956.4097,187.0
3957.9922,170.0
3959.5754,231.0
3961.1592,210.0
3962.7437,211.0
3964.3289,196.0
3965.9146,191.0
3967.501,216.0
3969.088,173.0
3970.6755,192.0
3972.264,193.0
3973.8528,191.0
3975.4424,180.0
3977.0325,185.0
3978.6233,173.0
3980.2148,188.0
3981.807,213.0
3983.3997,224.0
3984.993,225.0
3986.587,198.0
3988.1816,199.0
3989.7769,197.0
3991.3728,199.0
3992.9692,223.0
3994.5664,212.0
3996.1643,210.0
3997.7627,201.0
3999.3618,191.0
4000.9617,201.0
4002.562,239.0
4004.163,217.0
4005.7646,235.0
4007.367,220.0
4008.97,226.0
4010.5735,226.0
4012.1777,213.0
4013.7827,252.0
4015.3882,233.0
4016.9944,237.0
4018.601,253.0
4020.2085,255.0
4021.8167,231.0
4023.4253,240.0
4025.0347,238.0
4026.6448,239.0
4028.2554,284.0
4029.8667,254.0
4031.4788,246.0
4033.0913,251.0
4034.7046,283.0
4036.3184,339.0
4037.9329,341.0
4039.548,276.0
4041.1638,303.0
4042.7803,377.0
4044.3975,336.0
4046.0151,327.0
4047.6335,309.0
4049.2527,320.0
4050.8723,463.0
4052.4927,454.0
4054.1138,418.0
4055.7354,388.0
4057.3577,339.0
4058.9807,483.0
4060.6042,567.0
4062.2285,495.0
4063.8535,465.0
4065.479,338.0
4067.1052,372.0
4068.7322,457.0
4070.3596,470.0
4071.9878,647.0
4073.6167,629.0
4075.246,485.0
4076.8762,524.0
4078.507,518.0
4080.1384,649.0
4081.7705,753.0
4083.4033,651.0
4085.0366,822.0
4086.6707,962.0
4088.3054,616.0
4089.9407,483.0
4091.5767,460.0
4093.2134,1421.0
4094.8506,2138.0
4096.489,1250.0
4098.1274,522.0
4099.7666,404.0
4101.4067,1413.0
4103.0474,4162.0
4104.6885,3224.0
4106.3306,1102.0
4107.973,529.0
4109.616,379.0
4111.2603,368.0
4112.905,421.0
4114.55,523.0
4116.196,443.0
4117.8423,294.0
4119.4893,310.0
4121.137,267.0
4122.7856,288.0
4124.4346,328.0
4126.0845,261.0
4127.735,276.0
4129.3857,218.0
4131.0376,219.0
4132.69,224.0
4134.343,252.0
4135.9966,239.0
4137.651,240.0
4139.306,246.0
4140.962,232.0
4142.618,204.0
4144.2754,261.0
4145.933,265.0
4147.5913,220.0
4149.2505,252.0
4150.91,239.0
4152.5703,275.0
4154.2314,253.0
4155.893,233.0
4157.5557,249.0
4159.2188,276.0
4160.8823,275.0
4162.547,252.0
4164.212,282.0
4165.8774,285.0
4167.544,279.0
4169.211,264.0
4170.8784,265.0
4172.547,254.0
4174.216,322.0
4175.8857,334.0
4177.556,293.0
4179.227,285.0
4180.899,253.0
4182.5713,231.0
4184.244,239.0
4185.918,276.0
4187.5923,306.0
4189.267,296.0
4190.943,283.0
4192.619,231.0
4194.2964,267.0
4195.974,314.0
4197.6523,294.0
4199.3315,289.0
4201.011,249.0
4202.6914,257.0
4204.3726,239.0
4206.054,242.0
4207.737,239.0
4209.42,217.0
4211.1035,242.0
4212.788,258.0
4214.473,219.0
4216.1587,234.0
4217.845,235.0
4219.532,223.0
4221.22,218.0
4222.9087,214.0
4224.5977,237.0
4226.2876,223.0
4227.978,243.0
4229.6694,272.0
4231.3613,260.0
4233.0537,250.0
4234.747,292.0
4236.441,261.0
4238.1353,217.0
4239.8306,272.0
4241.5264,252.0
4243.223,291.0
4244.9204,277.0
4246.618,271.0
4248.317,283.0
4250.016,277.0
4251.7163,282.0
4253.417,265.0
4255.118,318.0
4256.8203,281.0
4258.523,308.0
4260.2266,303.0
4261.9307,322.0
4263.6353,333.0
4265.341,321.0
4267.047,391.0
4268.754,441.0
4270.4614,353.0
4272.1694,286.0
4273.8784,296.0
4275.588,429.0
4277.2983,671.0
4279.0093,460.0
4280.7207,332.0
4282.433,289.0
4284.146,516.0
4285.86,1087.0
4287.574,702.0
4289.289,474.0
4291.005,335.0
4292.721,279.0
4294.4385,236.0
4296.1562,280.0
4297.8745,376.0
4299.5938,365.0
4301.3135,290.0
4303.034,266.0
4304.7554,274.0
4306.477,278.0
4308.1997,265.0
4309.923,238.0
4311.647,223.0
4313.3716,260.0
4315.097,231.0
4316.823,221.0
4318.55,224.0
4320.2773,240.0
4322.0054,272.0
4323.7344,259.0
4325.464,215.0
4327.194,234.0
4328.925,256.0
4330.6562,267.0
4332.3887,276.0
4334.1216,250.0
4335.8555,234.0
4337.59,259.0
4339.3247,254.0
4341.0605,278.0
4342.797,236.0
4344.534,233.0
4346.272,237.0
4348.0103,223.0
4349.7495,266.0
4351.4893,225.0
4353.23,229.0
4354.971,248.0
4356.7134,307.0
4358.456,287.0
4360.199,265.0
4361.9434,260.0
4363.688,229.0
4365.4336,240.0
4367.1797,231.0
4368.927,235.0
4370.6743,244.0
4372.4224,269.0
4374.1714,254.0
4375.921,280.0
4377.6714,265.0
4379.4224,252.0
4381.1743,249.0
4382.927,243.0
4384.6797,275.0
4386.4336,292.0
4388.188,304.0
4389.9434,273.0
4391.699,266.0
4393.456,283.0
4395.2134,326.0
4396.9717,280.0
4398.7305,282.0
4400.4897,335.0
4402.25,317.0
4404.0107,312.0
4405.7725,286.0
4407.5347,357.0
4409.298,471.0
4411.0615,356.0
4412.826,295.0
4414.5913,268.0
4416.357,470.0
4418.1235,570.0
4419.8906,358.0
4421.6587,288.0
4423.4272,324.0
4425.197,264.0
4426.967,295.0
4428.738,327.0
4430.5093,372.0
4432.2812,350.0
4434.054,301.0
4435.8276,291.0
4437.602,342.0
4439.377,450.0
4441.153,395.0
4442.929,344.0
4444.7065,307.0
4446.4844,300.0
4448.263,295.0
4450.0425,332.0
4451.8223,337.0
4453.603,293.0
4455.3843,319.0
4457.1665,342.0
4458.949,354.0
4460.733,383.0
4462.517,348.0
4464.3022,306.0
4466.088,344.0
4467.8745,491.0
4469.6616,474.0
4471.4497,386.0
4473.2383,354.0
4475.0273,318.0
4476.8174,312.0
4478.608,302.0
4480.3994,307.0
4482.1914,372.0
4483.9844,361.0
4485.778,272.0
4487.5723,312.0
4489.367,325.0
4491.163,362.0
4492.9595,319.0
4494.757,297.0
4496.5547,287.0
4498.3535,378.0
4500.153,372.0
4501.953,345.0
4503.754,326.0
4505.555,332.0
4507.3574,350.0
4509.16,318.0
4510.964,333.0
4512.768,346.0
4514.573,379.0
4516.379,311.0
4518.1855,298.0
4519.9927,326.0
4521.801,367.0
4523.6094,353.0
4525.419,329.0
4527.229,264.0
4529.04,359.0
4530.8516,436.0
4532.664,424.0
4534.477,332.0
4536.291,259.0
4538.1055,344.0
4539.921,360.0
4541.737,311.0
4543.5537,244.0
4545.371,250.0
4547.1895,261.0
4549.0083,300.0
4550.828,276.0
4552.6484,254.0
4554.4697,252.0
4556.2915,230.0
4558.1143,222.0
4559.9375,275.0
4561.7617,282.0
4563.5864,249.0
4565.4116,268.0
4567.238,231.0
4569.0645,279.0
4570.892,294.0
4572.72,256.0
4574.5493,237.0
4576.379,269.0
4578.2095,273.0
4580.0405,275.0
4581.8726,262.0
4583.705,283.0
4585.5386,286.0
4587.3726,288.0
4589.2075,225.0
4591.043,289.0
4592.8794,301.0
4594.7163,276.0
4596.554,275.0
4598.3926,310.0
4600.232,307.0
4602.0723,289.0
4603.913,291.0
4605.755,248.0
4607.597,273.0
4609.4404,273.0
4611.284,276.0
4613.129,285.0
4614.974,273.0
4616.8203,273.0
4618.667,275.0
4620.5146,274.0
4622.363,324.0
4624.212,266.0
4626.0615,282.0
4627.912,256.0
4629.763,265.0
4631.615,259.0
4633.468,257.0
4635.3213,265.0
4637.1753,269.0
4639.0303,243.0
4640.8857,282.0
4642.742,237.0
4644.599,291.0
4646.457,253.0
4648.3154,241.0
4650.175,244.0
4652.0347,264.0
4653.8955,245.0
4655.757,258.0
4657.619,278.0
4659.4824,257.0
4661.346,271.0
4663.211,263.0
4665.076,273.0
4666.9424,227.0
4668.809,260.0
4670.677,265.0
4672.545,256.0
4674.414,274.0
4676.2837,257.0
4678.1543,285.0
4680.0254,272.0
4681.8975,260.0
4683.77,270.0
4685.6436,268.0
4687.5176,232.0
4689.3926,248.0
4691.2686,242.0
4693.145,274.0
4695.0225,277.0
4696.9004,245.0
4698.7793,268.0
4700.6587,253.0
4702.539,276.0
4704.42,238.0
4706.302,280.0
4708.184,254.0
4710.0674,268.0
4711.951,297.0
4713.836,312.0
4715.7217,258.0
4717.608,252.0
4719.495,220.0
4721.383,262.0
4723.2715,243.0
4725.1606,238.0
4727.051,243.0
4728.9414,260.0
4730.833,285.0
4732.725,268.0
4734.618,277.0
4736.512,246.0
4738.4067,230.0
4740.3022,242.0
4742.198,239.0
4744.095,270.0
4745.9927,291.0
4747.891,233.0
4749.79,244.0
4751.69,243.0
4753.591,245.0
4755.492,232.0
4757.3945,201.0
4759.2974,253.0
4761.201,253.0
4763.1055,239.0
4765.0107,256.0
4766.9165,238.0
4768.823,197.0
4770.731,215.0
4772.639,226.0
4774.5483,198.0
4776.458,212.0
4778.3687,246.0
4780.28,222.0
4782.192,235.0
4784.105,206.0
4786.0186,223.0
4787.933,222.0
4789.848,217.0
4791.764,199.0
4793.6807,228.0
4795.598,262.0
4797.5166,238.0
4799.4355,227.0
4801.3555,185.0
4803.276,207.0
4805.1973,217.0
4807.119,213.0
4809.042,231.0
4810.966,200.0
4812.89,228.0
4814.8154,195.0
4816.741,210.0
4818.668,195.0
4820.595,200.0
4822.5234,182.0
4824.4526,203.0
4826.3823,214.0
4828.313,206.0
4830.244,205.0
4832.1763,241.0
4834.1094,209.0
4836.043,228.0
4837.9775,215.0
4839.9126,226.0
4841.8486,215.0
4843.785,210.0
4845.7227,228.0
4847.661,194.0
4849.6,216.0
4851.54,196.0
4853.4805,197.0
4855.422,219.0
4857.3643,227.0
4859.307,215.0
4861.251,202.0
4863.1953,182.0
4865.1406,200.0
4867.087,201.0
4869.0337,223.0
4870.9814,178.0
4872.9297,208.0
4874.879,222.0
4876.829,200.0
4878.78,202.0
4880.7314,190.0
4882.6836,220.0
4884.6367,193.0
4886.5903,237.0
4888.545,230.0
4890.5005,199.0
4892.4565,215.0
4894.4136,203.0
4896.3716,198.0
4898.33,212.0
4900.2896,216.0
4902.2495,220.0
4904.2104,208.0
4906.1724,192.0
4908.135,192.0
4910.098,211.0
4912.062,203.0
4914.027,201.0
4915.9927,215.0
4917.959,224.0
4919.9263,216.0
4921.894,227.0
4923.863,233.0
4925.8325,223.0
4927.8027,221.0
4929.774,203.0
4931.7456,226.0
4933.7183,200.0
4935.692,230.0
4937.666,248.0
4939.641,194.0
4941.617,215.0
4943.5938,170.0
4945.5713,183.0
4947.5493,215.0
4949.5283,222.0
4951.5083,252.0
4953.489,222.0
4955.47,244.0
4957.4526,207.0
4959.4355,214.0
4961.4194,204.0
4963.404,231.0
4965.389,218.0
4967.3755,233.0
4969.3623,225.0
4971.35,227.0
4973.339,243.0
4975.328,230.0
4977.3184,232.0
4979.309,218.0
4981.301,233.0
4983.2935,236.0
4985.2866,235.0
4987.281,208.0
4989.276,261.0
4991.2715,271.0
4993.268,205.0
4995.265,246.0
4997.263,234.0
4999.262,255.0
5001.2617,264.0
5003.262,264.0
5005.2637,254.0
5007.2656,227.0
5009.2686,223.0
5011.2725,247.0
5013.277,256.0
5015.282,245.0
5017.2886,243.0
5019.2954,243.0
5021.303,218.0
5023.3115,232.0
5025.321,242.0
5027.331,236.0
5029.342,231.0
5031.3535,256.0
5033.366,235.0
5035.3794,261.0
5037.3936,249.0
5039.4087,252.0
5041.4243,250.0
5043.441,263.0
5045.4585,228.0
5047.4766,240.0
5049.4956,262.0
5051.5156,243.0
5053.536,263.0
5055.5576,228.0
5057.58,230.0
5059.603,224.0
5061.627,252.0
5063.6514,240.0
5065.677,221.0
5067.703,226.0
5069.73,251.0
5071.758,235.0
5073.7866,225.0
5075.816,238.0
5077.846,243.0
5079.8774,240.0
5081.909,226.0
5083.942,226.0
5085.9756,225.0
5088.01,246.0
5090.045,235.0
5092.081,265.0
5094.1177,229.0
5096.1553,251.0
5098.194,209.0
5100.233,245.0
5102.273,226.0
5104.314,241.0
5106.3555,237.0
5108.398,252.0
5110.4414,244.0
5112.4854,265.0
5114.5303,274.0
5116.576,279.0
5118.6226,238.0
5120.67,218.0
5122.7183,230.0
5124.7676,220.0
5126.8174,293.0
5128.868,263.0
5130.92,271.0
5132.972,249.0
5135.0254,209.0
5137.0796,233.0
5139.1343,218.0
5141.19,250.0
5143.2466,254.0
5145.3037,290.0
5147.362,285.0
5149.421,284.0
5151.4805,232.0
5153.541,207.0
5155.6025,246.0
5157.6646,230.0
5159.7275,278.0
5161.7915,249.0
5163.8564,213.0
5165.922,221.0
5167.9883,234.0
5170.0557,247.0
5172.1235,247.0
5174.1924,243.0
5176.262,254.0
5178.3325,264.0
5180.404,232.0
5182.476,209.0
5184.549,233.0
5186.6226,254.0
5188.6973,263.0
5190.773,241.0
5192.849,206.0
5194.9263,241.0
5197.0044,232.0
5199.083,237.0
5201.1626,245.0
5203.243,309.0
5205.324,252.0
5207.4062,267.0
5209.4893,244.0
5211.573,222.0
5213.6577,228.0
5215.743,224.0
5217.8296,237.0
5219.9165,264.0
5222.0044,288.0
5224.0933,261.0
5226.183,257.0
5228.2734,255.0
5230.3647,243.0
5232.457,243.0
5234.55,213.0
5236.6436,273.0
5238.7383,265.0
5240.834,260.0
5242.93,285.0
5245.0273,280.0
5247.1255,263.0
5249.224,259.0
5251.3237,263.0
5253.4243,277.0
5255.526,289.0
5257.628,261.0
5259.731,292.0
5261.835,249.0
5263.9395,239.0
5266.045,257.0
5268.1514,260.0
5270.259,228.0
5272.3667,263.0
5274.4756,275.0
5276.5854,283.0
5278.6963,262.0
5280.8076,283.0
5282.92,281.0
5285.033,266.0
5287.147,258.0
5289.2617,273.0
5291.3774,227.0
5293.494,250.0
5295.6113,237.0
5297.7295,285.0
5299.8486,318.0
5301.9688,314.0
5304.0894,294.0
5306.211,268.0
5308.3335,268.0
5310.457,237.0
5312.581,216.0
5314.706,246.0
5316.832,328.0
5318.959,336.0
5321.0864,312.0
5323.215,263.0
5325.344,234.0
5327.4746,270.0
5329.6055,229.0
5331.7373,253.0
5333.87,262.0
5336.004,257.0
5338.138,227.0
5340.2734,226.0
5342.4097,247.0
5344.547,289.0
5346.6846,268.0
5348.823,243.0
5350.963,257.0
5353.1035,246.0
5355.2446,261.0
5357.3867,274.0
5359.53,288.0
5361.674,287.0
5363.8184,270.0
5365.964,267.0
5368.1104,260.0
5370.258,262.0
5372.406,281.0
5374.5547,278.0
5376.7046,301.0
5378.8555,292.0
5381.007,290.0
5383.159,287.0
5385.3125,275.0
5387.467,265.0
5389.6216,282.0
5391.7773,302.0
5393.934,288.0
5396.092,269.0
5398.25,300.0
5400.409,292.0
5402.5693,265.0
5404.7305,257.0
5406.8926,314.0
5409.055,330.0
5411.2188,331.0
5413.3833,304.0
5415.549,301.0
5417.715,300.0
5419.882,270.0
5422.05,277.0
5424.2188,274.0
5426.3887,297.0
5428.559,289.0
5430.7305,292.0
5432.903,314.0
5435.076,278.0
5437.25,289.0
5439.425,293.0
5441.6006,299.0
5443.7773,298.0
5445.955,284.0
5448.1333,283.0
5450.3125,294.0
5452.4927,273.0
5454.674,258.0
5456.8555,236.0
5459.038,307.0
5461.2217,293.0
5463.4062,286.0
5465.592,291.0
5467.778,275.0
5469.965,299.0
5472.153,333.0
5474.342,289.0
5476.5317,276.0
5478.722,280.0
5480.9136,291.0
5483.106,271.0
5485.2993,317.0
5487.4937,281.0
5489.6885,353.0
5491.8843,299.0
5494.081,302.0
5496.279,294.0
5498.4775,265.0
5500.677,276.0
5502.877,323.0
5505.078,337.0
5507.2803,353.0
5509.4834,330.0
5511.687,333.0
5513.8916,305.0
5516.097,307.0
5518.3037,311.0
5520.511,286.0
5522.719,346.0
5524.928,315.0
5527.138,289.0
5529.349,319.0
5531.561,256.0
5533.7734,335.0
5535.987,301.0
5538.201,326.0
5540.4165,309.0
5542.633,300.0
5544.85,279.0
5547.068,329.0
5549.2866,308.0
5551.5063,315.0
5553.727,317.0
5555.9487,281.0
5558.171,313.0
5560.394,313.0
5562.618,331.0
5564.8433,324.0
5567.0693,320.0
5569.2964,293.0
5571.524,277.0
5573.7524,275.0
5575.982,300.0
5578.2124,258.0
5580.444,294.0
5582.676,313.0
5584.9087,359.0
5587.1426,291.0
5589.3774,291.0
5591.6133,263.0
5593.85,297.0
5596.0874,291.0
5598.3257,302.0
5600.565,305.0
5602.805,324.0
5605.0464,263.0
5607.2886,295.0
5609.5312,282.0
5611.775,281.0
5614.0195,284.0
5616.265,319.0
5618.5117,282.0
5620.7593,276.0
5623.008,283.0
5625.257,297.0
5627.507,311.0
5629.758,295.0
5632.01,304.0
5634.2627,326.0
5636.5166,298.0
5638.771,267.0
5641.0264,299.0
5643.2827,286.0
5645.54,262.0
5647.7983,279.0
5650.0576,280.0
5652.318,289.0
5654.5786,270.0
5656.8403,258.0
5659.103,265.0
5661.3667,306.0
5663.6313,289.0
5665.897,307.0
5668.1636,287.0
5670.4307,255.0
5672.6987,317.0
5674.968,276.0
5677.238,298.0
5679.509,322.0
5681.781,310.0
5684.0537,293.0
5686.327,270.0
5688.6016,290.0
5690.877,322.0
5693.1533,306.0
5695.4307,325.0
5697.709,329.0
5699.9883,295.0
5702.268,331.0
5704.549,325.0
5706.8306,320.0
5709.1133,335.0
5711.397,314.0
5713.6816,330.0
5715.9673,325.0
5718.254,333.0
5720.541,354.0
5722.829,311.0
5725.118,313.0
5727.408,371.0
5729.699,331.0
5731.991,348.0
5734.284,314.0
5736.578,349.0
5738.8726,352.0
5741.168,332.0
5743.4644,355.0
5745.7617,346.0
5748.06,390.0
5750.3594,344.0
5752.6597,344.0
5754.961,366.0
5757.2627,394.0
5759.5654,369.0
5761.869,325.0
5764.174,363.0
5766.4795,340.0
5768.786,380.0
5771.0938,397.0
5773.4023,441.0
5775.712,402.0
5778.022,403.0
5780.333,325.0
5782.645,358.0
5784.958,353.0
5787.272,378.0
5789.587,391.0
5791.903,416.0
5794.2197,369.0
5796.5376,409.0
5798.8564,400.0
5801.176,423.0
5803.496,415.0
5805.8174,464.0
5808.1396,421.0
5810.463,375.0
5812.787,415.0
5815.1123,440.0
5817.4385,401.0
5819.7656,485.0
5822.0938,470.0
5824.4224,425.0
5826.752,409.0
5829.0825,423.0
5831.414,517.0
5833.7466,418.0
5836.08,411.0
5838.4146,563.0
5840.75,586.0
5843.0864,482.0
5845.424,415.0
5847.762,513.0
5850.101,413.0
5852.441,393.0
5854.7817,381.0
5857.1235,408.0
5859.4663,410.0
5861.81,393.0
5864.155,386.0
5866.5005,389.0
5868.847,378.0
5871.195,418.0
5873.5435,394.0
5875.893,422.0
5878.2437,396.0
5880.5947,380.0
5882.947,420.0
5885.3,386.0
5887.654,438.0
5890.009,429.0
5892.3647,393.0
5894.7217,401.0
5897.0796,381.0
5899.4385,425.0
5901.7983,388.0
5904.159,428.0
5906.521,474.0
5908.884,439.0
5911.2476,465.0
5913.612,427.0
5915.977,427.0
5918.3433,446.0
5920.7104,382.0
5923.0786,426.0
5925.4478,462.0
5927.818,439.0
5930.189,435.0
5932.561,475.0
5934.934,495.0
5937.308,440.0
5939.683,414.0
5942.059,471.0
5944.436,487.0
5946.814,438.0
5949.193,423.0
5951.5728,432.0
5953.9536,463.0
5956.335,437.0
5958.7173,469.0
5961.1006,544.0
5963.485,494.0
5965.87,473.0
5968.2563,523.0
5970.6436,474.0
5973.0317,467.0
5975.421,510.0
5977.811,554.0
5980.202,482.0
5982.594,462.0
5984.9873,465.0
5987.3813,499.0
5989.7764,423.0
5992.1724,528.0
5994.5693,505.0
5996.9673,454.0
5999.366,451.0
6001.766,559.0
6004.167,593.0
6006.569,501.0
6008.9717,527.0
6011.3755,609.0
6013.7803,491.0
6016.1855,459.0
6018.592,519.0
6020.999,543.0
6023.407,447.0
6025.8164,491.0
6028.2266,458.0
6030.6377,473.0
6033.05,441.0
6035.463,497.0
6037.877,501.0
6040.292,479.0
6042.708,437.0
6045.125,492.0
6047.543,509.0
6049.962,445.0
6052.382,428.0
6054.8027,402.0
6057.2246,414.0
6059.6475,423.0
6062.0713,512.0
6064.496,536.0
6066.922,461.0
6069.3486,450.0
6071.7764,457.0
6074.205,405.0
6076.635,425.0
6079.0654,431.0
6081.497,452.0
6083.9297,414.0
6086.3633,505.0
6088.798,450.0
6091.2334,455.0
6093.67,422.0
6096.1074,461.0
6098.546,450.0
6100.9854,499.0
6103.426,465.0
6105.867,460.0
6108.3096,492.0
6110.753,495.0
6113.1973,461.0
6115.6426,487.0
6118.089,573.0
6120.536,518.0
6122.9844,501.0
6125.4336,477.0
6127.884,487.0
6130.335,557.0
6132.787,645.0
6135.24,607.0
6137.6943,526.0
6140.1494,507.0
6142.6055,561.0
6145.0625,582.0
6147.5205,616.0
6149.9795,635.0
6152.4395,661.0
6154.9004,637.0
6157.3623,693.0
6159.825,710.0
6162.289,615.0
6164.754,490.0
6167.2197,551.0
6169.6865,544.0
6172.1543,631.0
6174.623,865.0
6177.093,957.0
6179.5635,733.0
6182.035,691.0
6184.508,653.0
6186.9814,644.0
6189.456,671.0
6191.9316,1062.0
6194.408,1065.0
6196.8857,852.0
6199.3643,729.0
6201.844,689.0
6204.325,663.0
6206.807,602.0
6209.29,577.0
6211.774,585.0
6214.259,645.0
6216.7446,758.0
6219.2314,739.0
6221.719,613.0
6224.208,557.0
6226.6978,565.0
6229.1885,700.0
6231.68,834.0
6234.173,837.0
6236.6665,722.0
6239.161,637.0
6241.6567,572.0
6244.1533,575.0
6246.651,778.0
6249.1494,886.0
6251.649,716.0
6254.1494,714.0
6256.651,826.0
6259.1533,749.0
6261.6567,717.0
6264.1616,551.0
6266.6675,540.0
6269.1743,553.0
6271.682,910.0
6274.191,1246.0
6276.7007,1005.0
6279.2114,662.0
6281.723,583.0
6284.236,528.0
6286.7495,526.0
6289.264,1160.0
6291.78,1658.0
6294.2964,1300.0
6296.814,773.0
6299.3325,624.0
6301.852,518.0
6304.3726,515.0
6306.8945,493.0
6309.4175,557.0
6311.9414,562.0
6314.4663,504.0
6316.992,504.0
6319.519,529.0
6322.047,450.0
6324.5757,462.0
6327.1055,473.0
6329.636,499.0
6332.168,476.0
6334.7007,483.0
6337.2344,465.0
6339.769,479.0
6342.305,476.0
6344.8423,516.0
6347.3804,483.0
6349.9194,455.0
6352.4595,463.0
6355.0005,465.0
6357.5425,477.0
6360.0854,450.0
6362.6294,468.0
6365.1743,490.0
6367.72,477.0
6370.267,513.0
6372.8154,477.0
6375.3647,476.0
6377.915,496.0
6380.4663,495.0
6383.0186,498.0
6385.572,514.0
6388.126,573.0
6390.681,501.0
6393.2373,497.0
6395.7944,513.0
6398.3525,464.0
6400.912,495.0
6403.4727,595.0
6406.034,542.0
6408.5967,494.0
6411.16,488.0
6413.7246,522.0
6416.29,475.0
6418.8564,502.0
6421.424,513.0
6423.992,493.0
6426.562,511.0
6429.133,539.0
6431.7046,565.0
6434.2773,489.0
6436.851,498.0
6439.426,515.0
6442.0015,494.0
6444.578,521.0
6447.156,563.0
6449.735,568.0
6452.315,472.0
6454.896,533.0
6457.478,486.0
6460.061,533.0
6462.645,482.0
6465.23,516.0
6467.816,527.0
6470.403,510.0
6472.991,537.0
6475.5806,477.0
6478.171,511.0
6480.762,535.0
6483.3545,506.0
6485.9478,495.0
6488.542,528.0
6491.137,540.0
6493.734,529.0
6496.3315,586.0
6498.93,539.0
6501.53,514.0
6504.1304,482.0
6506.732,543.0
6509.3345,532.0
6511.938,540.0
6514.543,582.0
6517.149,567.0
6519.756,513.0
6522.364,527.0
6524.9727,638.0
6527.5825,591.0
6530.1934,600.0
6532.8057,587.0
6535.419,582.0
6538.033,595.0
6540.6484,675.0
6543.2646,630.0
6545.882,621.0
6548.5,600.0
6551.1196,643.0
6553.74,566.0
6556.362,653.0
6558.9844,789.0
6561.608,670.0
6564.2324,598.0
6566.858,588.0
6569.485,609.0
6572.113,588.0
6574.7417,638.0
6577.3716,640.0
6580.0024,660.0
6582.6343,625.0
6585.267,642.0
6587.9014,645.0
6590.5366,606.0
6593.173,623.0
6595.81,645.0
6598.448,641.0
6601.0874,557.0
6603.728,603.0
6606.3696,625.0
6609.012,636.0
6611.656,641.0
6614.3003,628.0
6616.946,620.0
6619.593,629.0
6622.2407,616.0
6624.8896,681.0
6627.5396,645.0
6630.1904,621.0
6632.8423,606.0
6635.4956,609.0
6638.15,699.0
6640.805,799.0
6643.4614,656.0
6646.1187,647.0
6648.7773,592.0
6651.437,600.0
6654.0977,648.0
6656.7593,817.0
6659.422,691.0
6662.0854,591.0
6664.7505,604.0
6667.4165,582.0
6670.0835,556.0
6672.7515,535.0
6675.4204,528.0
6678.091,556.0
6680.762,618.0
6683.4346,591.0
6686.108,560.0
6688.782,526.0
6691.4575,523.0
6694.1343,603.0
6696.812,627.0
6699.4907,547.0
6702.1704,584.0
6704.851,545.0
6707.533,603.0
6710.2163,637.0
6712.9004,588.0
6715.5854,637.0
6718.2715,619.0
6720.959,643.0
6723.6475,723.0
6726.337,671.0
6729.0273,632.0
6731.7188,600.0
6734.4116,570.0
6737.1055,649.0
6739.8003,709.0
6742.496,769.0
6745.193,690.0
6747.891,621.0
6750.5903,573.0
6753.2905,593.0
6755.9917,724.0
6758.6943,849.0
6761.398,782.0
6764.1025,689.0
6766.808,691.0
6769.5146,633.0
6772.2227,614.0
6774.9316,650.0
6777.6416,768.0
6780.3525,822.0
6783.0645,782.0
6785.778,816.0
6788.492,668.0
6791.2075,733.0
6793.924,742.0
6796.6416,663.0
6799.3604,696.0
6802.08,649.0
6804.801,705.0
6807.5225,836.0
6810.2456,872.0
6812.9697,696.0
6815.695,626.0
6818.421,553.0
6821.1484,638.0
6823.877,960.0
6826.6064,954.0
6829.337,802.0
6832.069,584.0
6834.802,560.0
6837.5356,580.0
6840.2705,757.0
6843.007,909.0
6845.744,902.0
6848.4824,638.0
6851.2217,629.0
6853.9624,675.0
6856.704,756.0
6859.447,767.0
6862.1904,701.0
6864.9355,622.0
6867.6816,570.0
6870.4287,617.0
6873.177,546.0
6875.9263,569.0
6878.677,554.0
6881.428,550.0
6884.1807,591.0
6886.9346,601.0
6889.6895,529.0
6892.4453,530.0
6895.202,616.0
6897.9604,582.0
6900.7197,583.0
6903.48,639.0
6906.241,624.0
6909.004,585.0
6911.7676,656.0
6914.532,668.0
6917.298,609.0
6920.065,654.0
6922.833,650.0
6925.602,552.0
6928.372,604.0
6931.1436,641.0
6933.916,610.0
6936.6895,619.0
6939.4644,612.0
6942.24,576.0
6945.017,590.0
6947.795,671.0
6950.574,646.0
6953.3545,650.0
6956.1357,604.0
6958.918,648.0
6961.7017,650.0
6964.4863,633.0
6967.272,627.0
6970.059,560.0
6972.847,606.0
6975.636,655.0
6978.4263,701.0
6981.218,707.0
6984.0103,770.0
6986.8037,655.0
6989.5986,641.0
6992.3945,753.0
6995.1914,700.0
6997.9893,813.0
7000.7886,888.0
7003.589,804.0
7006.39,747.0
7009.193,818.0
7011.9966,719.0
7014.8013,728.0
7017.6074,866.0
7020.4146,882.0
7023.2227,852.0
7026.0317,1057.0
7028.8423,851.0
7031.654,729.0
7034.4663,675.0
7037.2803,688.0
7040.095,821.0
7042.911,1220.0
7045.7285,1057.0
7048.547,717.0
7051.366,606.0
7054.1865,641.0
7057.0083,843.0
7059.831,1510.0
7062.655,1460.0
7065.48,951.0
7068.306,735.0
7071.1333,638.0
7073.962,653.0
7076.7915,633.0
7079.622,718.0
7082.454,685.0
7085.287,651.0
7088.121,704.0
7090.9565,687.0
7093.793,731.0
7096.6304,727.0
7099.469,749.0
7102.309,708.0
7105.15,684.0
7107.992,759.0
7110.8354,813.0
7113.6797,844.0
7116.5254,779.0
7119.372,711.0
7122.2197,826.0
7125.069,908.0
7127.919,1004.0
7130.77,855.0
7133.6226,717.0
7136.476,797.0
7139.3306,1016.0
7142.1865,1077.0
7145.0435,875.0
7147.9014,869.0
7150.7607,893.0
7153.621,951.0
7156.4824,1360.0
7159.345,1411.0
7162.209,1152.0
7165.0737,971.0
7167.94,1004.0
7170.807,1089.0
7173.6753,1230.0
7176.545,1043.0
7179.4155,1077.0
7182.287,991.0
7185.16,923.0
7188.034,1070.0
7190.909,1104.0
7193.7856,987.0
7196.663,1286.0
7199.542,1374.0
7202.422,1058.0
7205.3027,843.0
7208.185,681.0
7211.0684,800.0
7213.9526,1722.0
7216.8384,1738.0
7219.725,1076.0
7222.613,792.0
7225.502,667.0
7228.392,943.0
7231.283,2235.0
7234.176,2516.0
7237.0693,1401.0
7239.9644,935.0
7242.8604,687.0
7245.7573,685.0
7248.656,645.0
7251.555,703.0
7254.4556,683.0
7257.3574,684.0
7260.2603,591.0
7263.1646,586.0
7266.07,639.0
7268.976,661.0
7271.884,686.0
7274.7925,583.0
7277.7026,616.0
7280.614,625.0
7283.526,661.0
7286.4395,694.0
7289.354,636.0
7292.2695,647.0
7295.1865,734.0
7298.1045,715.0
7301.024,625.0
7303.9443,601.0
7306.8657,555.0
7309.7886,685.0
7312.7124,946.0
7315.6377,834.0
7318.564,633.0
7321.491,544.0
7324.42,524.0
7327.3496,696.0
7330.281,1002.0
7333.213,941.0
7336.146,646.0
7339.0806,595.0
7342.016,532.0
7344.953,651.0
7347.891,739.0
7350.83,667.0
7353.7705,592.0
7356.712,616.0
7359.655,591.0
7362.5986,558.0
7365.5435,546.0
7368.4897,555.0
7371.437,592.0
7374.3857,608.0
7377.3354,608.0
7380.2866,646.0
7383.239,628.0
7386.192,597.0
7389.1465,576.0
7392.102,582.0
7395.059,502.0
7398.017,617.0
7400.976,701.0
7403.9365,654.0
7406.898,526.0
7409.861,548.0
7412.8247,490.0
7415.79,616.0
7418.7563,689.0
7421.7236,628.0
7424.6924,551.0
7427.662,465.0
7430.6333,454.0
7433.6055,666.0
7436.579,675.0
7439.5537,591.0
7442.5293,573.0
7445.5063,488.0
7448.4844,439.0
7451.464,483.0
7454.4443,500.0
7457.4263,481.0
7460.409,478.0
7463.3936,418.0
7466.379,470.0
7469.365,503.0
7472.353,464.0
7475.342,417.0
7478.332,407.0
7481.323,453.0
7484.316,563.0
7487.3096,650.0
7490.3047,523.0
7493.301,438.0
7496.2983,403.0
7499.297,422.0
7502.2964,460.0
7505.2974,451.0
7508.2993,407.0
7511.3027,476.0
7514.307,444.0
7517.313,420.0
7520.32,466.0
7523.328,404.0
7526.3374,452.0
7529.348,477.0
7532.36,450.0
7535.373,400.0
7538.387,401.0
7541.4023,394.0
7544.419,488.0
7547.4365,525.0
7550.4556,510.0
7553.4756,422.0
7556.497,389.0
7559.5195,424.0
7562.5435,496.0
7565.5684,539.0
7568.5947,435.0
7571.622,418.0
7574.651,395.0
7577.6807,376.0
7580.712,379.0
7583.744,408.0
7586.778,403.0
7589.8125,412.0
7592.8486,385.0
7595.8857,391.0
7598.9243,467.0
7601.964,443.0
7605.005,386.0
7608.047,374.0
7611.0903,342.0
7614.135,460.0
7617.18,514.0
7620.227,457.0
7623.275,424.0
7626.324,385.0
7629.3745,398.0
7632.4263,441.0
7635.479,438.0
7638.533,352.0
7641.5884,422.0
7644.645,396.0
7647.7026,420.0
7650.7617,368.0
7653.8223,414.0
7656.884,368.0
7659.947,426.0
7663.0107,420.0
7666.076,396.0
7669.1426,404.0
7672.2104,379.0
7675.2793,429.0
7678.3496,442.0
7681.421,465.0
7684.4937,427.0
7687.5674,427.0
7690.6426,477.0
7693.7188,456.0
7696.7964,471.0
7699.875,485.0
7702.955,425.0
7706.036,488.0
7709.1187,472.0
7712.202,547.0
7715.287,437.0
7718.373,479.0
7721.4604,479.0
7724.549,467.0
7727.6387,501.0
7730.7295,509.0
7733.822,509.0
7736.9155,497.0
7740.0103,516.0
7743.1064,544.0
7746.2036,557.0
7749.3022,558.0
7752.402,564.0
7755.503,600.0
7758.605,536.0
7761.7085,564.0
7764.813,574.0
7767.919,549.0
7771.026,634.0
7774.1343,628.0
7777.244,581.0
7780.355,458.0
7783.4673,549.0
7786.5806,655.0
7789.6953,742.0
7792.811,664.0
7795.928,691.0
7799.0464,552.0
7802.166,587.0
7805.287,565.0
7808.409,588.0
7811.5327,675.0
7814.657,681.0
7817.783,615.0
7820.91,528.0
7824.0386,597.0
7827.168,689.0
7830.299,773.0
7833.431,660.0
7836.5645,584.0
7839.699,586.0
7842.835,613.0
7845.972,745.0
7849.1104,788.0
7852.25,644.0
7855.391,633.0
7858.533,609.0
7861.677,602.0
7864.8213,605.0
7867.9673,648.0
7871.1143,568.0
7874.2627,638.0
7877.4126,667.0
7880.5635,682.0
7883.716,712.0
7886.869,681.0
7890.024,633.0
7893.18,576.0
7896.3374,696.0
7899.496,857.0
7902.656,856.0
7905.817,689.0
7908.979,697.0
7912.1426,698.0
7915.3076,797.0
7918.4736,1092.0
7921.641,951.0
7924.8096,804.0
7927.9795,738.0
7931.151,737.0
7934.323,721.0
7937.497,849.0
7940.672,848.0
7943.848,891.0
7947.026,817.0
7950.2046,835.0
7953.385,905.0
7956.566,915.0
7959.7485,847.0
7962.9326,925.0
7966.1177,988.0
7969.304,1050.0
7972.4917,1130.0
7975.6807,994.0
7978.871,1038.0
7982.0625,1089.0
7985.2554,1195.0
7988.4497,1336.0
7991.645,1345.0
7994.842,1242.0
7998.0396,1247.0
8001.239,1277.0
8004.4395,1601.0
8007.641,1483.0
8010.844,1494.0
8014.0483,1505.0
8017.254,1495.0
8020.461,1549.0
8023.669,1667.0
8026.8784,1639.0
8030.0894,1651.0
8033.3013,1721.0
8036.5146,1976.0
8039.7295,2163.0
8042.9453,2121.0
8046.1626,1896.0
8049.381,1981.0
8052.6006,2364.0
8055.822,2694.0
8059.044,2803.0
8062.2676,2456.0
8065.4927,2569.0
8068.7188,2893.0
8071.9463,2942.0
8075.1753,3173.0
8078.4053,3171.0
8081.6367,3499.0
8084.869,4117.0
8088.103,3689.0
8091.3384,3092.0
8094.5747,2972.0
8097.8125,3813.0
8101.052,5576.0
8104.292,5261.0
8107.5337,4378.0
8110.777,3917.0
8114.021,3754.0
8117.2666,5848.0
8120.5137,7480.0
8123.7617,6718.0
8127.011,6325.0
8130.262,5123.0
8133.514,5038.0
8136.7676,5704.0
8140.0225,6748.0
8143.2783,8804.0
8146.5356,8166.0
8149.7944,6235.0
8153.054,7619.0
8156.3154,6928.0
8159.578,7479.0
8162.842,9202.0
8166.107,8635.0
8169.3735,13575.0
8172.641,13398.0
8175.91,7671.0
8179.1807,4263.0
8182.452,4790.0
8185.725,19533.0
8188.9995,26694.0
8192.275,12184.0
8195.553,4836.0
8198.831,3790.0
8202.11,17704.0
8205.392,46477.0
8208.674,28480.0
8211.957,9176.0
8215.242,3841.0
8218.528,2754.0
8221.815,2414.0
8225.1045,3246.0
8228.395,4036.0
8231.686,2925.0
8234.979,1780.0
8238.272,1378.0
8241.567,1472.0
8244.864,1691.0
8248.162,1728.0
8251.461,1458.0
8254.762,1264.0
8258.063,1178.0
8261.367,1223.0
8264.672,1293.0
8267.978,1295.0
8271.285,1342.0
8274.594,1186.0
8277.903,1098.0
8281.215,1071.0
8284.527,1113.0
8287.841,1301.0
8291.156,1186.0
8294.473,1117.0
8297.79,1093.0
8301.109,1104.0
8304.43,1221.0
8307.751,1377.0
8311.074,1309.0
8314.398,1408.0
8317.725,1265.0
8321.052,1181.0
8324.38,1147.0
8327.71,1252.0
8331.041,1637.0
8334.373,1539.0
8337.707,1215.0
8341.042,1111.0
8344.378,1258.0
8347.716,1860.0
8351.055,1909.0
8354.3955,1471.0
8357.737,1381.0
8361.08,1186.0
8364.425,1050.0
8367.7705,940.0
8371.117,1053.0
8374.466,1354.0
8377.815,1504.0
8381.167,1107.0
8384.52,815.0
8387.873,901.0
8391.229,1125.0
8394.585,1422.0
8397.942,1077.0
8401.302,880.0
8404.662,849.0
8408.024,933.0
8411.388,943.0
8414.752,931.0
8418.118,858.0
8421.485,814.0
8424.854,804.0
8428.224,758.0
8431.595,912.0
8434.968,852.0
8438.342,831.0
8441.717,849.0
8445.094,851.0
8448.472,932.0
8451.851,894.0
8455.231,892.0
8458.613,943.0
8461.997,961.0
8465.382,1162.0
8468.768,1114.0
8472.155,1077.0
8475.544,1198.0
8478.935,1038.0
8482.326,1081.0
8485.719,1180.0
8489.113,1381.0
8492.509,1540.0
8495.906,1381.0
8499.305,1303.0
8502.704,1396.0
8506.105,1605.0
8509.508,1901.0
8512.911,1696.0
8516.316,1789.0
8519.723,2010.0
8523.131,1760.0
8526.54,1919.0
8529.95,1832.0
8533.362,2694.0
8536.775,3373.0
8540.19,2346.0
8543.606,1452.0
8547.023,1249.0
8550.442,3361.0
8553.862,4999.0
8557.284,2949.0
8560.707,1586.0
8564.131,1450.0
8567.557,3979.0
8570.983,7611.0
8574.412,4713.0
8577.842,2318.0
8581.272,1471.0
8584.705,1138.0
8588.139,981.0
8591.574,1298.0
8595.011,1744.0
8598.449,1661.0
8601.889,1080.0
8605.329,823.0
8608.771,803.0
8612.215,730.0
8615.66,753.0
8619.106,807.0
8622.554,819.0
8626.003,711.0
8629.453,719.0
8632.905,710.0
8636.358,765.0
8639.8125,816.0
8643.269,743.0
8646.726,698.0
8650.185,726.0
8653.645,730.0
8657.106,769.0
8660.569,751.0
8664.033,772.0
8667.499,798.0
8670.966,814.0
8674.435,805.0
8677.904,822.0
8681.375,925.0
8684.848,834.0
8688.321,849.0
8691.797,885.0
8695.273,1017.0
8698.752,1034.0
8702.231,990.0
8705.712,905.0
8709.194,1025.0
8712.678,1133.0
8716.163,1238.0
8719.649,1079.0
8723.138,1125.0
8726.627,1138.0
8730.117,1230.0
8733.609,1218.0
8737.103,1211.0
8740.598,1264.0
8744.094,1207.0
8747.592,1215.0
8751.091,1411.0
8754.591,1576.0
8758.093,1513.0
8761.596,1379.0
8765.101,1331.0
8768.606,1477.0
8772.114,1872.0
8775.623,1759.0
8779.133,1620.0
8782.645,1770.0
8786.157,1614.0
8789.672,1753.0
8793.1875,1696.0
8796.705,2267.0
8800.224,2725.0
8803.744,1930.0
8807.266,1470.0
8810.788,1600.0
8814.3125,3301.0
8817.838,3528.0
8821.365,2256.0
8824.894,1749.0
8828.424,1900.0
8831.955,3593.0
8835.488,4001.0
8839.022,2756.0
8842.558,2259.0
8846.095,1860.0
8849.633,1648.0
8853.173,1738.0
8856.714,2476.0
8860.257,2914.0
8863.801,2124.0
8867.347,1720.0
8870.894,1722.0
8874.442,2651.0
8877.992,3645.0
8881.543,2779.0
8885.096,2127.0
8888.649,1789.0
8892.205,1836.0
8895.762,1821.0
8899.32,2201.0
8902.88,2405.0
8906.441,1907.0
8910.004,1705.0
8913.568,1808.0
8917.134,2672.0
8920.7,2537.0
8924.269,1997.0
8927.838,1906.0
8931.409,2068.0
8934.981,2933.0
8938.556,2720.0
8942.131,2210.0
8945.708,2044.0
8949.286,1704.0
8952.866,1569.0
8956.447,1596.0
8960.03,2018.0
8963.614,2030.0
8967.199,1615.0
8970.786,1414.0
8974.374,1585.0
8977.964,1768.0
8981.555,1823.0
8985.147,1542.0
8988.741,1528.0
8992.337,1639.0
8995.934,1827.0
8999.532,1688.0
9003.132,1416.0
9006.733,1523.0
9010.336,1688.0
9013.94,1429.0
9017.546,1382.0
9021.153,1405.0
9024.762,1676.0
9028.372,1819.0
9031.983,1446.0
9035.597,1180.0
9039.211,1276.0
9042.826,1780.0
9046.443,1625.0
9050.062,1233.0
9053.682,1024.0
9057.303,1454.0
9060.926,2185.0
9064.55,1894.0
9068.176,1140.0
9071.803,940.0
9075.432,1275.0
9079.062,1551.0
9082.693,1257.0
9086.326,1027.0
9089.961,931.0
9093.597,1034.0
9097.234,1128.0
9100.873,983.0
9104.514,1020.0
9108.155,905.0
9111.799,798.0
9115.443,744.0
9119.09,921.0
9122.737,1033.0
9126.387,913.0
9130.037,835.0
9133.689,817.0
9137.343,1030.0
9140.998,1045.0
9144.654,959.0
9148.3125,884.0
9151.972,781.0
9155.633,863.0
9159.295,778.0
9162.959,998.0
9166.624,1086.0
9170.291,821.0
9173.959,701.0
9177.629,809.0
9181.3,1295.0
9184.973,1297.0
9188.646,913.0
9192.322,665.0
9195.999,955.0
9199.678,1235.0
9203.357,997.0
9207.039,870.0
9210.722,715.0
9214.406,598.0
9218.092,567.0
9221.779,699.0
9225.468,909.0
9229.158,773.0
9232.85,587.0
9236.543,537.0
9240.237,802.0
9243.934,985.0
9247.631,734.0
9251.33,570.0
9255.03,487.0
9258.732,427.0
9262.436,458.0
9266.141,530.0
9269.847,537.0
9273.555,401.0
9277.264,384.0
9280.975,431.0
9284.687,480.0
9288.4,430.0
9292.116,393.0
9295.833,382.0
9299.552,402.0
9303.271,437.0
9306.993,383.0
9310.716,347.0
9314.44,394.0
9318.166,344.0
9321.894,315.0
9325.622,373.0
9329.353,353.0
9333.084,366.0
9336.817,345.0
9340.552,320.0
9344.288,376.0
9348.025,345.0
9351.765,361.0
9355.505,307.0
9359.247,349.0
9362.991,332.0
9366.736,344.0
9370.483,315.0
9374.231,329.0
9377.981,316.0
9381.732,318.0
9385.485,311.0
9389.239,348.0
9392.995,332.0
9396.752,323.0
9400.511,335.0
9404.2705,306.0
9408.032,295.0
9411.796,354.0
9415.561,282.0
9419.327,340.0
9423.095,299.0
9426.864,338.0
9430.635,323.0
9434.407,281.0
9438.181,263.0
9441.956,326.0
9445.732,358.0
9449.511,324.0
9453.291,259.0
9457.072,291.0
9460.855,334.0
9464.64,318.0
9468.426,307.0
9472.213,339.0
9476.002,261.0
9479.792,227.0
9483.584,296.0
9487.377,310.0
9491.172,316.0
9494.969,269.0
9498.767,258.0
9502.566,279.0
9506.367,360.0
9510.17,310.0
9513.974,312.0
9517.779,265.0
9521.586,269.0
9525.395,252.0
9529.205,278.0
9533.017,319.0
9536.83,265.0
9540.645,235.0
9544.461,265.0
9548.278,325.0
9552.098,336.0
9555.919,231.0
9559.741,241.0
9563.565,249.0
9567.391,256.0
9571.218,265.0
9575.046,257.0
9578.876,207.0
9582.708,219.0
9586.541,230.0
9590.376,238.0
9594.212,224.0
9598.05,248.0
9601.889,212.0
9605.7295,200.0
9609.572,208.0
9613.416,204.0
9617.262,211.0
9621.108,186.0
9624.957,199.0
9628.807,200.0
9632.658,193.0
9636.512,217.0
9640.366,225.0
9644.223,221.0
9648.08,197.0
9651.939,205.0
9655.8,193.0
9659.662,220.0
9663.526,197.0
9667.392,202.0
9671.259,187.0
9675.127,189.0
9678.997,201.0
9682.869,225.0
9686.742,189.0
9690.617,166.0
9694.493,177.0
9698.371,201.0
9702.25,169.0
9706.131,192.0
9710.014,197.0
9713.897,166.0
9717.783,202.0
9721.67,182.0
9725.559,160.0
9729.449,180.0
9733.341,193.0
9737.234,165.0
9741.129,173.0
9745.025,202.0
9748.924,184.0
9752.823,180.0
9756.725,170.0
9760.627,176.0
9764.531,163.0
9768.4375,174.0
9772.345,202.0
9776.254,184.0
9780.164,197.0
9784.076,166.0
9787.99,213.0
9791.905,197.0
9795.822,191.0
9799.74,173.0
9803.66,199.0
9807.582,199.0
9811.505,184.0
9815.43,195.0
9819.355,197.0
9823.283,187.0
9827.213,228.0
9831.144,218.0
9835.076,213.0
9839.01,188.0
9842.945,189.0
9846.883,284.0
9850.821,240.0
9854.762,204.0
9858.704,187.0
9862.647,175.0
9866.593,213.0
9870.539,200.0
9874.487,215.0
9878.4375,206.0
9882.389,198.0
9886.342,172.0
9890.296,203.0
9894.252,180.0
9898.21,207.0
9902.169,201.0
9906.13,193.0
9910.093,206.0
9914.057,199.0
9918.022,201.0
9921.989,202.0
9925.958,215.0
9929.929,184.0
9933.9,193.0
9937.874,168.0
9941.85,230.0
9945.826,186.0
9949.805,179.0
9953.784,172.0
9957.766,197.0
9961.749,193.0
9965.733,172.0
9969.72,177.0
9973.708,197.0
9977.697,178.0
9981.688,180.0
9985.681,188.0
9989.675,200.0
9993.671,200.0
9997.668,179.0
10001.667,200.0
10005.668,186.0
10009.67,157.0
10013.674,208.0
10017.68,163.0
10021.687,189.0
10025.695,162.0
10029.706,202.0
10033.718,186.0
10037.731,183.0
10041.746,173.0
10045.763,182.0
10049.781,192.0
10053.801,182.0
10057.822,201.0
10061.846,189.0
10065.87,198.0
10069.896,210.0
10073.925,195.0
10077.954,200.0
10081.985,182.0
10086.019,187.0
10090.053,202.0
10094.089,193.0
10098.127,211.0
10102.166,188.0
10106.207,205.0
10110.25,177.0
10114.294,211.0
10118.34,188.0
10122.387,208.0
10126.436,189.0
10130.486,225.0
10134.538,204.0
10138.592,174.0
10142.647,201.0
10146.704,208.0
10150.763,197.0
10154.823,205.0
10158.885,184.0
10162.948,216.0
10167.014,209.0
10171.08,202.0
10175.148,229.0
10179.219,185.0
10183.29,181.0
10187.363,197.0
10191.438,210.0
10195.515,179.0
10199.593,202.0
10203.673,226.0
10207.754,196.0
10211.837,201.0
10215.922,222.0
10220.008,211.0
10224.096,216.0
10228.186,195.0
10232.276,221.0
10236.369,215.0
10240.464,189.0
10244.56,228.0
10248.657,204.0
10252.757,185.0
10256.858,208.0
10260.961,203.0
10265.065,229.0
10269.172,224.0
10273.279,214.0
10277.389,192.0
10281.5,196.0
10285.612,186.0
10289.727,193.0
10293.843,194.0
10297.96,209.0
10302.079,224.0
10306.2,167.0
10310.322,221.0
10314.446,207.0
10318.572,226.0
10322.699,204.0
10326.828,215.0
10330.959,232.0
10335.092,198.0
10339.226,218.0
10343.361,202.0
10347.499,194.0
10351.638,207.0
10355.778,204.0
10359.921,178.0
10364.064,202.0
10368.21,229.0
10372.357,199.0
10376.507,228.0
10380.657,203.0
10384.81,243.0
10388.964,201.0
10393.119,223.0
10397.276,224.0
10401.436,212.0
10405.596,193.0
10409.758,226.0
10413.922,209.0
10418.088,204.0
10422.255,205.0
10426.424,195.0
10430.595,169.0
10434.767,206.0
10438.94,228.0
10443.116,225.0
10447.294,191.0
10451.473,209.0
10455.653,187.0
10459.836,232.0
10464.02,192.0
10468.205,217.0
10472.393,196.0
10476.581,207.0
10480.771,209.0
10484.964,194.0
10489.158,215.0
10493.354,207.0
10497.551,211.0
10501.75,216.0
10505.951,210.0
10510.153,201.0
10514.357,199.0
10518.563,210.0
10522.7705,209.0
10526.9795,200.0
10531.19,217.0
10535.403,200.0
10539.617,187.0
10543.833,186.0
10548.051,201.0
10552.27,202.0
10556.49,213.0
10560.713,188.0
10564.9375,185.0
10569.163,223.0
10573.391,207.0
10577.62,193.0
10581.852,218.0
10586.084,216.0
10590.318,197.0
10594.555,233.0
10598.793,200.0
10603.032,209.0
10607.273,190.0
10611.517,195.0
10615.761,214.0
10620.007,230.0
10624.255,189.0
10628.505,205.0
10632.756,212.0
10637.009,217.0
10641.264,199.0
10645.5205,201.0
10649.778,204.0
10654.038,184.0
10658.3,211.0
10662.563,215.0
10666.828,220.0
10671.095,215.0
10675.363,182.0
10679.634,217.0
10683.905,205.0
10688.179,245.0
10692.454,213.0
10696.731,223.0
10701.01,225.0
10705.29,201.0
10709.572,226.0
10713.856,211.0
10718.142,217.0
10722.429,244.0
10726.718,218.0
10731.009,225.0
10735.301,216.0
10739.595,231.0
10743.891,225.0
10748.188,221.0
10752.487,209.0
10756.788,256.0
10761.091,207.0
10765.3955,200.0
10769.702,205.0
10774.01,197.0
10778.319,220.0
10782.631,203.0
10786.944,192.0
10791.259,242.0
10795.575,226.0
10799.894,233.0
10804.214,203.0
10808.535,185.0
10812.858,218.0
10817.184,204.0
10821.511,215.0
10825.839,213.0
10830.169,222.0
10834.501,196.0
10838.835,210.0
10843.171,229.0
10847.508,207.0
10851.847,196.0
10856.1875,232.0
10860.53,231.0
10864.874,233.0
10869.22,226.0
10873.567,196.0
10877.917,213.0
10882.269,227.0
10886.621,232.0
10890.976,209.0
10895.332,227.0
10899.69,215.0
10904.051,238.0
10908.412,216.0
10912.775,234.0
10917.141,218.0
10921.508,219.0
10925.876,244.0
10930.246,232.0
10934.618,219.0
10938.992,226.0
10943.368,250.0
10947.745,208.0
10952.124,213.0
10956.505,204.0
10960.888,249.0
10965.272,217.0
10969.658,248.0
10974.046,226.0
10978.436,234.0
10982.827,247.0
10987.221,232.0
10991.615,221.0
10996.012,234.0
11000.41,219.0
11004.811,271.0
11009.213,254.0
11013.616,241.0
11018.021,245.0
11022.429,224.0
11026.838,257.0
11031.249,219.0
11035.661,271.0
11040.075,232.0
11044.491,295.0
11048.909,241.0
11053.329,253.0
11057.75,243.0
11062.173,264.0
11066.598,261.0
11071.024,248.0
11075.453,297.0
11079.884,242.0
11084.315,252.0
11088.749,244.0
11093.185,273.0
11097.622,245.0
11102.062,290.0
11106.502,242.0
11110.944,269.0
11115.389,263.0
11119.835,269.0
11124.283,255.0
11128.733,295.0
11133.185,243.0
11137.638,276.0
11142.093,266.0
11146.55,270.0
11151.009,289.0
11155.469,291.0
11159.931,294.0
11164.395,294.0
11168.86,286.0
11173.328,270.0
11177.798,268.0
11182.269,270.0
11186.741,309.0
11191.216,284.0
11195.692,288.0
11200.171,318.0
11204.651,289.0
11209.133,285.0
11213.616,302.0
11218.102,260.0
11222.589,296.0
11227.078,317.0
11231.569,313.0
11236.062,283.0
11240.556,298.0
11245.052,276.0
11249.55,297.0
11254.05,313.0
11258.552,302.0
11263.056,341.0
11267.561,344.0
11272.067,322.0
11276.576,350.0
11281.087,332.0
11285.6,347.0
11290.114,344.0
11294.63,339.0
11299.147,376.0
11303.667,325.0
11308.188,376.0
11312.712,389.0
11317.237,417.0
11321.765,420.0
11326.293,381.0
11330.823,436.0
11335.355,412.0
11339.89,400.0
11344.426,421.0
11348.964,462.0
11353.504,434.0
11358.045,425.0
11362.588,464.0
11367.133,478.0
11371.68,485.0
11376.229,500.0
11380.779,529.0
11385.332,538.0
11389.886,525.0
11394.441,553.0
11398.999,520.0
11403.559,537.0
11408.12,526.0
11412.684,553.0
11417.249,578.0
11421.816,650.0
11426.385,609.0
11430.955,644.0
11435.527,670.0
11440.102,668.0
11444.678,651.0
11449.256,736.0
11453.836,712.0
11458.417,727.0
11463.0,727.0
11467.585,759.0
11472.172,751.0
11476.761,767.0
11481.352,823.0
11485.944,796.0
11490.539,801.0
11495.136,850.0
11499.733,869.0
11504.333,884.0
11508.935,905.0
11513.538,973.0
11518.144,922.0
11522.751,948.0
11527.36,1023.0
11531.972,1036.0
11536.584,915.0
11541.198,979.0
11545.814,1069.0
11550.433,1049.0
11555.053,940.0
11559.675,1062.0
11564.299,1098.0
11568.925,1031.0
11573.553,1054.0
11578.183,1178.0
11582.813,1163.0
11587.446,965.0
11592.081,1133.0
11596.718,1217.0
11601.356,1023.0
11605.997,995.0
11610.64,1248.0
11615.284,1172.0
11619.931,1070.0
11624.579,1142.0
11629.229,1233.0
11633.88,1059.0
11638.533,1025.0
11643.188,1315.0
11647.846,1114.0
11652.505,867.0
11657.166,1175.0
11661.829,1257.0
11666.494,943.0
11671.161,850.0
11675.83,1455.0
11680.5,1405.0
11685.172,870.0
11689.846,840.0
11694.521,931.0
11699.199,794.0
11703.879,628.0
11708.561,695.0
11713.244,592.0
11717.93,562.0
11722.617,605.0
11727.307,592.0
11731.998,518.0
11736.69,499.0
11741.385,501.0
11746.081,466.0
11750.779,419.0
11755.4795,431.0
11760.182,449.0
11764.886,397.0
11769.592,435.0
11774.3,396.0
11779.01,392.0
11783.722,428.0
11788.436,422.0
11793.151,405.0
11797.868,372.0
11802.587,424.0
11807.308,388.0
11812.03,352.0
11816.755,389.0
11821.481,412.0
11826.21,389.0
11830.94,386.0
11835.673,398.0
11840.407,309.0
11845.144,323.0
11849.882,351.0
11854.622,296.0
11859.364,312.0
11864.108,290.0
11868.8545,296.0
11873.602,256.0
11878.351,309.0
11883.102,275.0
11887.8545,268.0
11892.609,276.0
11897.366,262.0
11902.125,256.0
11906.886,273.0
11911.648,288.0
11916.413,239.0
11921.18,247.0
11925.948,235.0
11930.719,272.0
11935.491,212.0
11940.266,240.0
11945.042,239.0
11949.82,230.0
11954.601,233.0
11959.383,253.0
11964.167,235.0
11968.953,225.0
11973.74,229.0
11978.529,240.0
11983.32,220.0
11988.113,225.0
11992.908,219.0
