M/Z,Intensity
800.0,148.0
800.32,172.0
800.64014,50.0
800.9604,131.0
801.28076,257.0
801.60126,77.0
801.9219,99.0
802.2426,240.0
802.56354,64.0
802.8846,290.0
803.20575,221.0
803.52704,101.0
803.84845,135.0
804.17,225.0
804.49164,109.0
804.8134,77.0
805.1353,193.0
805.4574,118.0
805.7796,75.0
806.1019,202.0
806.4244,215.0
806.74695,79.0
807.06964,192.0
807.39246,185.0
807.7154,60.0
808.03845,164.0
808.3617,209.0
808.68506,61.0
809.00854,141.0
809.33215,235.0
809.6559,63.0
809.97974,122.0
810.3037,235.0
810.6278,118.0
810.9521,161.0
811.2765,222.0
811.601,97.0
811.92566,167.0
812.2504,196.0
812.5753,103.0
812.9003,141.0
813.22546,205.0
813.5508,93.0
813.8762,99.0
814.2018,177.0
814.52747,99.0
814.8533,103.0
815.1792,205.0
815.50525,104.0
815.8314,87.0
816.1578,188.0
816.48425,115.0
816.81085,133.0
817.1376,283.0
817.4644,115.0
817.7914,76.0
818.11847,235.0
818.44574,94.0
818.77313,72.0
819.10065,200.0
819.4283,127.0
819.75604,56.0
820.0839,174.0
820.412,123.0
820.7402,49.0
821.0685,199.0
821.3969,162.0
821.72546,64.0
822.05414,135.0
822.38293,153.0
822.7119,84.0
823.041,247.0
823.37024,147.0
823.6996,63.0
824.02905,218.0
824.35864,157.0
824.6884,202.0
825.0183,2311.0
825.3483,186.0
825.67847,116.0
826.0087,1073.0
826.3391,209.0
826.6696,72.0
827.0003,388.0
827.3311,168.0
827.66205,48.0
827.9931,180.0
828.3243,149.0
828.65564,53.0
828.9871,154.0
829.3187,142.0
829.65045,59.0
829.9823,115.0
830.3143,154.0
830.6464,59.0
830.9787,141.0
831.3111,171.0
831.6436,60.0
831.97626,126.0
832.309,167.0
832.64197,71.0
832.97504,162.0
833.3082,168.0
833.64154,72.0
833.975,123.0
834.3086,197.0
834.64233,92.0
834.9762,195.0
835.3102,182.0
835.6443,81.0
835.9785,160.0
836.3129,173.0
836.64746,65.0
836.9821,253.0
837.3169,178.0
837.6518,71.0
837.9869,200.0
838.3221,161.0
838.6574,108.0
838.99286,536.0
839.3284,200.0
839.6642,78.0
840.00006,325.0
840.33606,173.0
840.6722,106.0
841.0084,549.0
841.34485,175.0
841.6814,89.0
842.01807,328.0
842.35486,215.0
842.6918,63.0
843.0289,223.0
843.3661,174.0
843.7034,61.0
844.0409,164.0
844.37854,150.0
844.7163,86.0
845.0542,272.0
845.3922,224.0
845.73035,80.0
846.06866,196.0
846.4071,167.0
846.74567,88.0
847.08435,198.0
847.42316,137.0
847.76215,71.0
848.10126,162.0
848.4405,87.0
848.77985,65.0
849.1194,141.0
849.45905,114.0
849.7988,72.0
850.13873,181.0
850.47876,117.0
850.819,86.0
851.1593,179.0
851.49976,104.0
851.84033,83.0
852.1811,170.0
852.522,109.0
852.863,101.0
853.2041,173.0
853.5454,91.0
853.88684,98.0
854.2284,180.0
854.57007,93.0
854.9119,551.0
855.2539,181.0
855.596,80.0
855.93823,304.0
856.2806,170.0
856.6231,69.0
856.96576,276.0
857.30853,173.0
857.6514,64.0
857.9945,203.0
858.3377,188.0
858.681,82.0
859.0245,210.0
859.3681,160.0
859.71185,73.0
860.0557,169.0
860.3997,150.0
860.7439,334.0
861.0882,574.0
861.4326,150.0
861.77716,252.0
862.1219,308.0
862.46674,126.0
862.8117,166.0
863.15686,184.0
863.50214,86.0
863.84753,117.0
864.19305,176.0
864.53876,67.0
864.8846,139.0
865.2305,173.0
865.5766,75.0
865.92285,97.0
866.2692,183.0
866.6157,75.0
866.96234,153.0
867.30914,165.0
867.65607,66.0
868.0031,128.0
868.35034,154.0
868.6977,48.0
869.04517,116.0
869.39276,125.0
869.74054,51.0
870.08844,126.0
870.43646,113.0
870.7846,87.0
871.13293,154.0
871.4814,88.0
871.82996,74.0
872.1787,147.0
872.5276,104.0
872.8766,173.0
873.2257,190.0
873.575,75.0
873.92444,140.0
874.274,185.0
874.6237,59.0
874.9736,127.0
875.32355,165.0
875.6737,65.0
876.024,131.0
876.3744,185.0
876.7249,169.0
877.0756,224.0
877.42645,164.0
877.7774,155.0
878.12854,187.0
878.4798,132.0
878.8312,123.0
879.18274,175.0
879.5344,93.0
879.8862,99.0
880.23816,177.0
880.5903,75.0
880.9425,112.0
881.29486,160.0
881.6474,43.0
882.00006,116.0
882.35284,158.0
882.7058,67.0
883.0589,147.0
883.4121,138.0
883.7655,60.0
884.119,152.0
884.47266,115.0
884.8264,72.0
885.18036,145.0
885.5344,91.0
885.8886,77.0
886.243,150.0
886.5975,69.0
886.9521,106.0
887.3069,175.0
887.6618,58.0
888.01685,117.0
888.3721,145.0
888.7274,69.0
889.0829,125.0
889.43854,176.0
889.7943,78.0
890.1502,142.0
890.5063,137.0
890.8625,68.0
891.2188,145.0
891.5753,71.0
891.93195,65.0
892.2887,174.0
892.6456,64.0
893.0027,137.0
893.35986,166.0
893.7172,62.0
894.0747,148.0
894.4323,128.0
894.7901,104.0
895.148,158.0
895.50604,97.0
895.86426,78.0
896.2226,156.0
896.58105,69.0
896.9397,103.0
897.29846,129.0
897.6574,54.0
898.0165,116.0
898.3757,139.0
898.73505,49.0
899.09454,155.0
899.45416,100.0
899.81396,83.0
900.1739,148.0
900.53394,78.0
900.89417,88.0
901.2545,170.0
901.615,57.0
901.97565,102.0
902.3364,153.0
902.6974,63.0
903.0585,142.0
903.4197,154.0
903.78107,97.0
904.1426,146.0
904.5042,110.0
904.866,70.0
905.22797,166.0
905.5901,66.0
905.95233,83.0
906.3147,170.0
906.67725,53.0
907.0399,96.0
907.4027,131.0
907.7657,43.0
908.1288,129.0
908.49207,117.0
908.85547,68.0
909.219,158.0
909.5827,75.0
909.94653,73.0
910.3105,163.0
910.6746,54.0
911.0389,101.0
911.4033,104.0
911.7679,64.0
912.13257,112.0
912.49744,96.0
912.8624,62.0
913.2276,135.0
913.5929,76.0
913.9583,71.0
914.3239,130.0
914.68964,52.0
915.05554,121.0
915.4216,125.0
915.7877,60.0
916.15405,139.0
916.5205,121.0
916.88715,68.0
917.2539,174.0
917.6208,58.0
917.98785,93.0
918.35504,177.0
918.7224,75.0
919.0899,129.0
919.4575,113.0
919.8253,69.0
920.19324,169.0
920.56134,99.0
920.92957,94.0
921.2979,148.0
921.66644,54.0
922.0351,113.0
922.40393,133.0
922.7729,51.0
923.14197,138.0
923.5112,94.0
923.8806,69.0
924.2502,130.0
924.6199,72.0
924.98975,91.0
925.35974,107.0
925.72986,51.0
926.10016,161.0
926.4706,105.0
926.8412,65.0
927.2119,119.0
927.5828,62.0
927.95386,109.0
928.325,133.0
928.69635,64.0
929.0678,120.0
929.43945,145.0
929.8112,107.0
930.18317,142.0
930.55524,105.0
930.9274,73.0
931.2998,145.0
931.6723,64.0
932.045,100.0
932.4178,129.0
932.7908,57.0
933.1639,130.0
933.5372,106.0
933.9106,70.0
934.2841,175.0
934.65784,67.0
935.0317,107.0
935.4057,117.0
935.77985,61.0
936.1542,146.0
936.5286,82.0
936.90326,72.0
937.278,154.0
937.65295,48.0
938.028,100.0
938.4032,123.0
938.77856,57.0
939.15405,127.0
939.5297,88.0
939.9055,85.0
940.2815,143.0
940.6576,74.0
941.0339,108.0
941.4103,87.0
941.78687,57.0
942.1636,115.0
942.54047,72.0
942.9175,78.0
943.2947,144.0
943.672,59.0
944.04944,119.0
944.42706,108.0
944.8048,64.0
945.18274,120.0
945.5608,83.0
945.939,104.0
946.3174,126.0
946.6959,59.0
947.0746,108.0
947.4534,98.0
947.8324,69.0
948.21155,182.0
948.5908,73.0
948.9703,88.0
949.34985,126.0
949.7296,55.0
950.1095,115.0
950.48956,88.0
950.86975,69.0
951.2501,123.0
951.6306,60.0
952.0113,82.0
952.3921,146.0
952.7731,63.0
953.1542,131.0
953.53546,88.0
953.9169,77.0
954.29846,159.0
954.6802,46.0
955.0621,107.0
955.4441,126.0
955.8263,63.0
956.2086,128.0
956.5911,57.0
956.97375,85.0
957.35657,118.0
957.7395,54.0
958.1226,117.0
958.50586,85.0
958.8893,71.0
959.2728,151.0
959.65656,66.0
960.0404,117.0
960.42444,102.0
960.8086,56.0
961.19293,123.0
961.5774,82.0
961.96204,94.0
962.3468,125.0
962.73175,69.0
963.1168,111.0
963.5021,80.0
963.88745,86.0
964.273,133.0
964.6587,49.0
965.04456,100.0
965.4306,115.0
965.8168,67.0
966.2031,126.0
966.5896,69.0
966.97626,94.0
967.36304,128.0
967.75,54.0
968.1371,134.0
968.52435,116.0
968.91174,58.0
969.2993,135.0
969.687,68.0
970.0749,122.0
970.4629,121.0
970.8511,78.0
971.23944,152.0
971.6279,72.0
972.0166,96.0
972.4054,97.0
972.7944,53.0
973.1835,131.0
973.57275,76.0
973.96216,83.0
974.35175,107.0
974.7415,62.0
975.1314,100.0
975.5215,105.0
975.9117,62.0
976.30206,122.0
976.69257,51.0
977.08325,93.0
977.47406,121.0
977.86505,79.0
978.2562,137.0
978.6475,66.0
979.039,70.0
979.4306,114.0
979.8224,59.0
980.2143,126.0
980.6064,72.0
980.99866,83.0
981.39105,126.0
981.7836,80.0
982.17633,169.0
982.5692,87.0
982.9622,108.0
983.3554,118.0
983.7488,69.0
984.1423,142.0
984.53595,87.0
984.92975,106.0
985.3237,145.0
985.71783,84.0
986.1121,140.0
986.5066,85.0
986.9012,108.0
987.29596,133.0
987.69086,72.0
988.08594,133.0
988.4812,115.0
988.8766,64.0
989.27216,124.0
989.66785,59.0
990.0637,103.0
990.4597,132.0
990.8559,55.0
991.25226,119.0
991.64874,59.0
992.0454,144.0
992.4422,108.0
992.8392,63.0
993.2363,118.0
993.6336,80.0
994.03107,134.0
994.42865,97.0
994.8264,65.0
995.22437,138.0
995.62244,67.0
996.0207,96.0
996.4191,115.0
996.8177,54.0
997.21643,142.0
997.6153,60.0
998.01434,79.0
998.4136,115.0
998.8129,72.0
999.21246,113.0
999.6121,81.0
1000.01196,121.0
1000.412,132.0
1000.81213,86.0
1001.21246,114.0
1001.613,85.0
1002.0136,134.0
1002.4144,108.0
1002.81537,72.0
1003.2165,125.0
1003.6178,81.0
1004.0192,80.0
1004.42084,130.0
1004.82263,66.0
1005.22455,133.0
1005.62665,78.0
1006.0289,166.0
1006.4313,115.0
1006.83386,103.0
1007.2366,136.0
1007.63947,83.0
1008.04254,236.0
1008.44574,80.0
1008.8491,126.0
1009.2527,125.0
1009.6564,67.0
1010.06024,170.0
1010.4643,111.0
1010.86847,80.0
1011.2728,132.0
1011.6773,70.0
1012.082,155.0
1012.4868,88.0
1012.8918,75.0
1013.29694,123.0
1013.7023,82.0
1014.1077,182.0
1014.51337,99.0
1014.9192,128.0
1015.32513,126.0
1015.73126,76.0
1016.1376,134.0
1016.544,76.0
1016.9506,81.0
1017.3574,139.0
1017.76434,60.0
1018.17145,120.0
1018.57874,80.0
1018.98615,90.0
1019.39374,117.0
1019.8015,67.0
1020.2094,110.0
1020.6175,77.0
1021.02576,86.0
1021.43414,127.0
1021.8427,88.0
1022.25146,150.0
1022.66034,65.0
1023.0694,115.0
1023.47864,114.0
1023.888,121.0
1024.2976,130.0
1024.7073,77.0
1025.1172,112.0
1025.5272,91.0
1025.9374,90.0
1026.3478,123.0
1026.7583,68.0
1027.169,107.0
1027.5798,94.0
1027.9908,154.0
1028.4021,136.0
1028.8135,99.0
1029.225,99.0
1029.6367,106.0
1030.0486,319.0
1030.4606,100.0
1030.8728,191.0
1031.2852,150.0
1031.6976,81.0
1032.1104,153.0
1032.5232,86.0
1032.9362,103.0
1033.3494,111.0
1033.7627,83.0
1034.1761,120.0
1034.5898,77.0
1035.0037,114.0
1035.4177,108.0
1035.8319,98.0
1036.2462,126.0
1036.6608,64.0
1037.0754,98.0
1037.4902,91.0
1037.9053,86.0
1038.3204,138.0
1038.7357,64.0
1039.1512,110.0
1039.5669,96.0
1039.9827,96.0
1040.3987,121.0
1040.8148,61.0
1041.2312,109.0
1041.6477,86.0
1042.0643,86.0
1042.4812,117.0
1042.8982,58.0
1043.3153,113.0
1043.7327,114.0
1044.1501,153.0
1044.5677,102.0
1044.9856,122.0
1045.4036,103.0
1045.8218,130.0
1046.2401,136.0
1046.6586,88.0
1047.0773,114.0
1047.4961,129.0
1047.915,106.0
1048.3342,136.0
1048.7535,83.0
1049.1731,117.0
1049.5928,84.0
1050.0126,255.0
1050.4326,122.0
1050.8528,164.0
1051.2731,133.0
1051.6936,103.0
1052.1143,161.0
1052.5352,93.0
1052.9562,111.0
1053.3773,112.0
1053.7987,159.0
1054.2202,125.0
1054.6418,74.0
1055.0637,143.0
1055.4857,95.0
1055.908,93.0
1056.3303,134.0
1056.7528,70.0
1057.1755,110.0
1057.5984,107.0
1058.0215,93.0
1058.4447,135.0
1058.868,73.0
1059.2916,108.0
1059.7153,112.0
1060.1392,141.0
1060.5632,98.0
1060.9874,112.0
1061.4119,126.0
1061.8364,93.0
1062.2611,143.0
1062.686,68.0
1063.1111,106.0
1063.5364,112.0
1063.9618,102.0
1064.3873,113.0
1064.8131,74.0
1065.239,121.0
1065.6652,164.0
1066.0914,281.0
1066.5178,111.0
1066.9445,240.0
1067.3712,135.0
1067.7982,150.0
1068.2253,112.0
1068.6526,89.0
1069.0801,118.0
1069.5077,111.0
1069.9355,95.0
1070.3635,104.0
1070.7916,75.0
1071.22,117.0
1071.6484,114.0
1072.0771,151.0
1072.506,105.0
1072.9349,104.0
1073.3641,158.0
1073.7935,101.0
1074.223,144.0
1074.6527,84.0
1075.0825,82.0
1075.5126,130.0
1075.9427,100.0
1076.3732,125.0
1076.8037,75.0
1077.2344,105.0
1077.6653,67.0
1078.0963,98.0
1078.5276,87.0
1078.959,83.0
1079.3906,110.0
1079.8224,70.0
1080.2543,82.0
1080.6864,80.0
1081.1187,95.0
1081.5511,78.0
1081.9838,161.0
1082.4165,95.0
1082.8495,101.0
1083.2826,134.0
1083.716,72.0
1084.1494,104.0
1084.5831,89.0
1085.017,89.0
1085.4509,107.0
1085.8851,92.0
1086.3195,91.0
1086.754,45.0
1087.1887,104.0
1087.6235,107.0
1088.0586,121.0
1088.4938,119.0
1088.9292,104.0
1089.3647,119.0
1089.8005,89.0
1090.2365,178.0
1090.6725,107.0
1091.1088,132.0
1091.5452,148.0
1091.9818,105.0
1092.4186,143.0
1092.8556,78.0
1093.2927,122.0
1093.7301,67.0
1094.1676,100.0
1094.6052,81.0
1095.0431,90.0
1095.4811,99.0
1095.9193,86.0
1096.3577,137.0
1096.7963,58.0
1097.235,97.0
1097.6738,84.0
1098.1129,83.0
1098.5521,87.0
1098.9916,90.0
1099.4312,100.0
1099.871,86.0
1100.3109,117.0
1100.751,75.0
1101.1913,105.0
1101.6317,65.0
1102.0724,90.0
1102.5132,115.0
1102.9542,67.0
1103.3954,115.0
1103.8368,74.0
1104.2783,131.0
1104.72,67.0
1105.1619,95.0
1105.6039,75.0
1106.0461,84.0
1106.4885,100.0
1106.9312,87.0
1107.3739,110.0
1107.8169,52.0
1108.26,107.0
1108.7034,74.0
1109.1469,102.0
1109.5905,94.0
1110.0343,79.0
1110.4783,97.0
1110.9225,74.0
1111.3668,107.0
1111.8114,57.0
1112.2561,104.0
1112.701,68.0
1113.1461,102.0
1113.5914,76.0
1114.0369,93.0
1114.4824,89.0
1114.9282,68.0
1115.3741,106.0
1115.8203,76.0
1116.2666,124.0
1116.7131,70.0
1117.1598,90.0
1117.6067,65.0
1118.0537,89.0
1118.501,110.0
1118.9484,75.0
1119.396,104.0
1119.8438,50.0
1120.2917,104.0
1120.7399,84.0
1121.1881,103.0
1121.6366,100.0
1122.0852,82.0
1122.534,75.0
1122.983,64.0
1123.4323,92.0
1123.8816,63.0
1124.3312,102.0
1124.7809,51.0
1125.2308,101.0
1125.6809,75.0
1126.1312,85.0
1126.5817,100.0
1127.0323,81.0
1127.4832,98.0
1127.9342,73.0
1128.3854,127.0
1128.8367,64.0
1129.2882,113.0
1129.7399,59.0
1130.1918,119.0
1130.6438,92.0
1131.0961,80.0
1131.5485,110.0
1132.0011,85.0
1132.4539,97.0
1132.9069,64.0
1133.36,110.0
1133.8134,71.0
1134.2668,109.0
1134.7206,63.0
1135.1744,87.0
1135.6285,82.0
1136.0828,79.0
1136.5372,87.0
1136.9918,61.0
1137.4467,117.0
1137.9016,58.0
1138.3568,119.0
1138.8121,57.0
1139.2677,111.0
1139.7234,74.0
1140.1793,105.0
1140.6354,81.0
1141.0917,73.0
1141.5481,115.0
1142.0048,80.0
1142.4615,104.0
1142.9186,59.0
1143.3757,116.0
1143.8331,50.0
1144.2906,97.0
1144.7484,72.0
1145.2063,102.0
1145.6644,79.0
1146.1227,94.0
1146.5812,86.0
1147.0398,75.0
1147.4987,77.0
1147.9576,70.0
1148.4169,128.0
1148.8762,65.0
1149.3358,132.0
1149.7955,67.0
1150.2555,130.0
1150.7156,88.0
1151.1759,111.0
1151.6364,82.0
1152.097,78.0
1152.5579,93.0
1153.0189,95.0
1153.4801,97.0
1153.9415,75.0
1154.4031,111.0
1154.8649,69.0
1155.3268,108.0
1155.789,58.0
1156.2512,125.0
1156.7137,76.0
1157.1764,94.0
1157.6393,86.0
1158.1023,80.0
1158.5656,97.0
1159.0289,75.0
1159.4926,97.0
1159.9563,65.0
1160.4203,110.0
1160.8844,80.0
1161.3488,114.0
1161.8134,61.0
1162.2781,110.0
1162.743,71.0
1163.2081,93.0
1163.6735,86.0
1164.1389,85.0
1164.6046,79.0
1165.0704,82.0
1165.5365,91.0
1166.0027,55.0
1166.4691,101.0
1166.9357,66.0
1167.4025,95.0
1167.8694,74.0
1168.3365,115.0
1168.8038,72.0
1169.2714,99.0
1169.739,100.0
1170.2069,106.0
1170.675,86.0
1171.1433,100.0
1171.6118,95.0
1172.0804,88.0
1172.5493,90.0
1173.0183,84.0
1173.4875,115.0
1173.9569,65.0
1174.4265,117.0
1174.8962,70.0
1175.3662,114.0
1175.8363,74.0
1176.3066,120.0
1176.7772,76.0
1177.2479,100.0
1177.7189,81.0
1178.19,97.0
1178.6613,88.0
1179.1327,94.0
1179.6044,89.0
1180.0762,96.0
1180.5482,86.0
1181.0204,81.0
1181.4928,93.0
1181.9655,72.0
1182.4382,104.0
1182.9113,75.0
1183.3844,89.0
1183.8578,80.0
1184.3313,104.0
1184.805,59.0
1185.2789,120.0
1185.753,88.0
1186.2273,102.0
1186.7018,79.0
1187.1765,91.0
1187.6514,88.0
1188.1265,97.0
1188.6017,86.0
1189.0771,100.0
1189.5527,93.0
1190.0286,75.0
1190.5045,79.0
1190.9807,70.0
1191.4572,97.0
1191.9337,73.0
1192.4105,127.0
1192.8875,71.0
1193.3646,107.0
1193.8419,77.0
1194.3195,111.0
1194.7972,73.0
1195.2751,96.0
1195.7533,65.0
1196.2316,110.0
1196.7101,84.0
1197.1887,121.0
1197.6676,89.0
1198.1467,105.0
1198.626,103.0
1199.1055,98.0
1199.5851,87.0
1200.065,102.0
1200.5449,103.0
1201.0251,60.0
1201.5056,86.0
1201.9862,77.0
1202.467,115.0
1202.948,76.0
1203.4292,104.0
1203.9105,72.0
1204.3921,98.0
1204.8739,67.0
1205.3558,102.0
1205.838,65.0
1206.3203,106.0
1206.8029,60.0
1207.2855,116.0
1207.7684,79.0
1208.2516,122.0
1208.7349,52.0
1209.2184,92.0
1209.702,74.0
1210.1859,96.0
1210.67,69.0
1211.1543,87.0
1211.6388,100.0
1212.1234,99.0
1212.6083,87.0
1213.0933,93.0
1213.5785,85.0
1214.064,70.0
1214.5496,103.0
1215.0354,91.0
1215.5214,106.0
1216.0076,79.0
1216.494,93.0
1216.9806,81.0
1217.4674,117.0
1217.9543,71.0
1218.4415,92.0
1218.929,99.0
1219.4165,123.0
1219.9043,72.0
1220.3922,90.0
1220.8804,91.0
1221.3688,116.0
1221.8573,81.0
1222.3461,123.0
1222.835,86.0
1223.3241,118.0
1223.8135,74.0
1224.303,119.0
1224.7927,79.0
1225.2826,107.0
1225.7727,75.0
1226.2631,98.0
1226.7535,85.0
1227.2443,84.0
1227.7351,72.0
1228.2262,92.0
1228.7175,54.0
1229.209,97.0
1229.7007,94.0
1230.1925,89.0
1230.6846,86.0
1231.1769,102.0
1231.6693,71.0
1232.162,95.0
1232.6549,94.0
1233.148,105.0
1233.6412,78.0
1234.1346,94.0
1234.6283,81.0
1235.1222,108.0
1235.6162,91.0
1236.1105,80.0
1236.6049,83.0
1237.0995,98.0
1237.5944,88.0
1238.0894,94.0
1238.5846,76.0
1239.0801,117.0
1239.5757,65.0
1240.0715,109.0
1240.5675,118.0
1241.0637,127.0
1241.5602,98.0
1242.0568,101.0
1242.5536,89.0
1243.0507,101.0
1243.5479,109.0
1244.0453,83.0
1244.5428,103.0
1245.0406,67.0
1245.5387,112.0
1246.0369,78.0
1246.5353,120.0
1247.0339,106.0
1247.5327,116.0
1248.0317,98.0
1248.531,100.0
1249.0304,88.0
1249.53,99.0
1250.0298,89.0
1250.5298,101.0
1251.03,66.0
1251.5304,93.0
1252.031,66.0
1252.5319,86.0
1253.0328,60.0
1253.534,110.0
1254.0355,75.0
1254.5371,111.0
1255.039,128.0
1255.541,78.0
1256.0432,120.0
1256.5457,74.0
1257.0482,96.0
1257.551,105.0
1258.0541,78.0
1258.5573,102.0
1259.0607,86.0
1259.5643,114.0
1260.0681,75.0
1260.5721,110.0
1261.0764,162.0
1261.5808,114.0
1262.0854,135.0
1262.5903,124.0
1263.0953,129.0
1263.6006,125.0
1264.1061,106.0
1264.6117,109.0
1265.1176,117.0
1265.6237,112.0
1266.1299,101.0
1266.6364,81.0
1267.1431,100.0
1267.6499,98.0
1268.157,103.0
1268.6642,92.0
1269.1716,99.0
1269.6793,99.0
1270.1871,99.0
1270.6952,116.0
1271.2035,86.0
1271.7119,113.0
1272.2206,92.0
1272.7295,98.0
1273.2385,93.0
1273.7478,85.0
1274.2573,106.0
1274.767,84.0
1275.2769,101.0
1275.787,74.0
1276.2972,93.0
1276.8077,138.0
1277.3185,110.0
1277.8295,118.0
1278.3406,98.0
1278.8519,146.0
1279.3635,105.0
1279.8752,119.0
1280.3872,103.0
1280.8994,93.0
1281.4117,78.0
1281.9243,93.0
1282.4371,115.0
1282.9501,87.0
1283.4633,100.0
1283.9767,99.0
1284.4902,118.0
1285.004,119.0
1285.5181,117.0
1286.0322,91.0
1286.5466,87.0
1287.0613,86.0
1287.576,92.0
1288.0911,75.0
1288.6063,127.0
1289.1218,94.0
1289.6375,101.0
1290.1533,85.0
1290.6694,81.0
1291.1857,114.0
1291.7021,79.0
1292.2189,97.0
1292.7357,106.0
1293.2528,96.0
1293.7701,101.0
1294.2876,104.0
1294.8053,88.0
1295.3232,111.0
1295.8414,103.0
1296.3597,83.0
1296.8783,59.0
1297.3971,103.0
1297.916,60.0
1298.4352,107.0
1298.9546,66.0
1299.4741,83.0
1299.9939,61.0
1300.5139,87.0
1301.0342,70.0
1301.5546,112.0
1302.0752,77.0
1302.5961,89.0
1303.1171,82.0
1303.6383,95.0
1304.1598,89.0
1304.6814,89.0
1305.2032,110.0
1305.7253,87.0
1306.2477,98.0
1306.7701,88.0
1307.2928,87.0
1307.8158,83.0
1308.3389,105.0
1308.8622,74.0
1309.3857,84.0
1309.9095,61.0
1310.4335,90.0
1310.9576,68.0
1311.482,113.0
1312.0066,76.0
1312.5314,89.0
1313.0564,81.0
1313.5817,84.0
1314.107,62.0
1314.6327,111.0
1315.1586,73.0
1315.6847,82.0
1316.2109,82.0
1316.7374,69.0
1317.2642,94.0
1317.791,87.0
1318.3181,96.0
1318.8455,58.0
1319.373,84.0
1319.9008,63.0
1320.4287,91.0
1320.9569,65.0
1321.4854,83.0
1322.0139,76.0
1322.5427,107.0
1323.0718,64.0
1323.601,91.0
1324.1304,77.0
1324.66,105.0
1325.19,97.0
1325.72,80.0
1326.2502,93.0
1326.7808,79.0
1327.3115,97.0
1327.8424,79.0
1328.3735,84.0
1328.9049,65.0
1329.4365,106.0
1329.9683,53.0
1330.5002,101.0
1331.0325,81.0
1331.565,118.0
1332.0975,75.0
1332.6304,121.0
1333.1635,100.0
1333.6968,95.0
1334.2302,93.0
1334.7639,86.0
1335.2979,84.0
1335.832,63.0
1336.3663,83.0
1336.9009,63.0
1337.4357,95.0
1337.9707,62.0
1338.5059,86.0
1339.0413,73.0
1339.5769,98.0
1340.1128,70.0
1340.6488,90.0
1341.185,86.0
1341.7216,99.0
1342.2583,83.0
1342.7952,74.0
1343.3323,106.0
1343.8696,68.0
1344.4072,92.0
1344.945,70.0
1345.4829,106.0
1346.0211,66.0
1346.5596,97.0
1347.0981,96.0
1347.637,86.0
1348.176,85.0
1348.7153,83.0
1349.2548,97.0
1349.7944,99.0
1350.3344,106.0
1350.8745,82.0
1351.4149,99.0
1351.9554,69.0
1352.4962,89.0
1353.0372,78.0
1353.5785,94.0
1354.1199,88.0
1354.6615,95.0
1355.2034,83.0
1355.7455,71.0
1356.2878,80.0
1356.8303,72.0
1357.373,88.0
1357.916,73.0
1358.4592,97.0
1359.0026,71.0
1359.5461,86.0
1360.09,72.0
1360.634,92.0
1361.1783,84.0
1361.7228,104.0
1362.2675,95.0
1362.8124,90.0
1363.3575,91.0
1363.9028,70.0
1364.4484,87.0
1364.9941,66.0
1365.5402,85.0
1366.0864,90.0
1366.6328,107.0
1367.1794,75.0
1367.7263,102.0
1368.2734,89.0
1368.8208,72.0
1369.3683,87.0
1369.916,62.0
1370.464,100.0
1371.0122,55.0
1371.5607,103.0
1372.1093,71.0
1372.6581,84.0
1373.2072,104.0
1373.7565,98.0
1374.306,104.0
1374.8557,70.0
1375.4056,102.0
1375.9558,80.0
1376.5062,88.0
1377.0569,62.0
1377.6077,107.0
1378.1587,74.0
1378.71,110.0
1379.2615,98.0
1379.8132,77.0
1380.3651,87.0
1380.9172,69.0
1381.4696,83.0
1382.0222,63.0
1382.5751,92.0
1383.128,76.0
1383.6813,172.0
1384.2347,103.0
1384.7885,106.0
1385.3424,106.0
1385.8965,86.0
1386.4508,96.0
1387.0054,68.0
1387.5602,98.0
1388.1152,82.0
1388.6705,100.0
1389.226,79.0
1389.7816,82.0
1390.3375,94.0
1390.8937,68.0
1391.4501,99.0
1392.0067,63.0
1392.5635,88.0
1393.1205,74.0
1393.6777,79.0
1394.2352,96.0
1394.793,85.0
1395.3508,96.0
1395.9089,82.0
1396.4673,118.0
1397.0259,79.0
1397.5847,100.0
1398.1438,103.0
1398.703,104.0
1399.2625,99.0
1399.8221,81.0
1400.3821,94.0
1400.9423,76.0
1401.5027,98.0
1402.0632,82.0
1402.624,100.0
1403.185,87.0
1403.7463,109.0
1404.3079,111.0
1404.8696,86.0
1405.4315,127.0
1405.9937,74.0
1406.556,97.0
1407.1187,69.0
1407.6815,96.0
1408.2446,75.0
1408.808,81.0
1409.3715,81.0
1409.9352,64.0
1410.4991,90.0
1411.0634,70.0
1411.6278,91.0
1412.1925,74.0
1412.7573,75.0
1413.3224,84.0
1413.8877,63.0
1414.4532,118.0
1415.019,80.0
1415.5851,122.0
1416.1514,63.0
1416.7178,90.0
1417.2844,86.0
1417.8513,80.0
1418.4185,99.0
1418.9858,67.0
1419.5535,109.0
1420.1213,79.0
1420.6893,99.0
1421.2576,76.0
1421.826,83.0
1422.3948,110.0
1422.9637,57.0
1423.533,115.0
1424.1024,64.0
1424.672,103.0
1425.2418,90.0
1425.8119,93.0
1426.3822,105.0
1426.9528,67.0
1427.5236,93.0
1428.0946,92.0
1428.6659,84.0
1429.2373,88.0
1429.809,79.0
1430.3809,103.0
1430.953,71.0
1431.5254,104.0
1432.098,99.0
1432.6709,109.0
1433.244,110.0
1433.8173,118.0
1434.3907,101.0
1434.9645,80.0
1435.5385,116.0
1436.1127,100.0
1436.6871,105.0
1437.2618,89.0
1437.8368,93.0
1438.412,108.0
1438.9873,76.0
1439.5629,96.0
1440.1387,78.0
1440.7147,88.0
1441.291,78.0
1441.8676,66.0
1442.4443,90.0
1443.0214,70.0
1443.5985,101.0
1444.1759,76.0
1444.7535,115.0
1445.3314,104.0
1445.9095,91.0
1446.4879,127.0
1447.0665,86.0
1447.6454,95.0
1448.2245,78.0
1448.8038,83.0
1449.3833,93.0
1449.963,94.0
1450.543,105.0
1451.1232,98.0
1451.7036,119.0
1452.2843,106.0
1452.8652,89.0
1453.4464,97.0
1454.0278,83.0
1454.6095,110.0
1455.1913,104.0
1455.7733,139.0
1456.3556,110.0
1456.9381,88.0
1457.5209,103.0
1458.1039,79.0
1458.6871,104.0
1459.2706,92.0
1459.8544,79.0
1460.4384,107.0
1461.0226,75.0
1461.6069,131.0
1462.1915,92.0
1462.7764,137.0
1463.3615,122.0
1463.9468,88.0
1464.5323,94.0
1465.1182,61.0
1465.7042,105.0
1466.2905,84.0
1466.8771,84.0
1467.4639,91.0
1468.0509,82.0
1468.6382,92.0
1469.2256,77.0
1469.8132,79.0
1470.4011,94.0
1470.9893,80.0
1471.5776,95.0
1472.1663,75.0
1472.7551,86.0
1473.3442,114.0
1473.9336,62.0
1474.5232,106.0
1475.113,75.0
1475.7031,101.0
1476.2935,84.0
1476.884,95.0
1477.4747,99.0
1478.0657,72.0
1478.6569,77.0
1479.2483,90.0
1479.84,87.0
1480.4319,97.0
1481.024,76.0
1481.6165,133.0
1482.2091,85.0
1482.802,130.0
1483.3951,100.0
1483.9885,70.0
1484.5822,92.0
1485.176,81.0
1485.7701,102.0
1486.3645,78.0
1486.9591,72.0
1487.5538,90.0
1488.1488,83.0
1488.744,95.0
1489.3395,83.0
1489.9352,73.0
1490.5311,104.0
1491.1273,82.0
1491.7238,84.0
1492.3204,98.0
1492.9174,80.0
1493.5145,111.0
1494.1119,78.0
1494.7096,96.0
1495.3075,76.0
1495.9056,71.0
1496.504,97.0
1497.1027,71.0
1497.7015,90.0
1498.3007,91.0
1498.9,76.0
1499.4996,80.0
1500.0995,70.0
1500.6996,90.0
1501.2998,84.0
1501.9003,88.0
1502.501,95.0
1503.1019,70.0
1503.7031,103.0
1504.3046,82.0
1504.9062,88.0
1505.5082,88.0
1506.1104,92.0
1506.7128,86.0
1507.3154,103.0
1507.9183,86.0
1508.5215,112.0
1509.1249,74.0
1509.7285,85.0
1510.3324,78.0
1510.9365,63.0
1511.5409,92.0
1512.1455,63.0
1512.7504,140.0
1513.3555,125.0
1513.9608,111.0
1514.5664,102.0
1515.1722,76.0
1515.7783,104.0
1516.3846,72.0
1516.9912,69.0
1517.598,76.0
1518.2051,74.0
1518.8124,80.0
1519.4199,91.0
1520.0277,77.0
1520.6357,92.0
1521.244,90.0
1521.8525,62.0
1522.4613,91.0
1523.0703,62.0
1523.6796,101.0
1524.2891,70.0
1524.8988,68.0
1525.5088,109.0
1526.119,84.0
1526.7295,94.0
1527.3402,76.0
1527.9512,77.0
1528.5624,87.0
1529.1738,88.0
1529.7855,100.0
1530.3975,89.0
1531.0096,69.0
1531.6221,90.0
1532.2347,82.0
1532.8477,88.0
1533.4608,85.0
1534.0742,66.0
1534.6879,81.0
1535.3018,86.0
1535.9159,73.0
1536.5303,98.0
1537.1449,60.0
1537.7598,71.0
1538.3749,101.0
1538.9902,71.0
1539.6058,78.0
1540.2217,91.0
1540.8378,74.0
1541.4541,74.0
1542.0707,61.0
1542.6875,83.0
1543.3046,78.0
1543.9219,76.0
1544.5394,104.0
1545.1572,79.0
1545.7753,92.0
1546.3936,87.0
1547.0121,76.0
1547.6309,109.0
1548.2499,76.0
1548.8691,81.0
1549.4886,97.0
1550.1084,62.0
1550.7284,70.0
1551.3486,99.0
1551.9691,77.0
1552.5898,90.0
1553.2109,79.0
1553.8323,80.0
1554.4539,100.0
1555.0757,59.0
1555.6978,95.0
1556.3201,92.0
1556.9426,80.0
1557.5654,93.0
1558.1885,73.0
1558.8118,85.0
1559.4353,98.0
1560.0591,83.0
1560.6831,84.0
1561.3074,89.0
1561.9319,74.0
1562.5566,96.0
1563.1816,68.0
1563.8069,75.0
1564.4324,78.0
1565.0581,71.0
1565.6841,84.0
1566.3103,73.0
1566.9368,67.0
1567.5636,97.0
1568.1907,57.0
1568.818,83.0
1569.4456,112.0
1570.0734,61.0
1570.7014,84.0
1571.3297,85.0
1571.9583,73.0
1572.587,90.0
1573.2161,76.0
1573.8453,92.0
1574.4749,107.0
1575.1046,70.0
1575.7346,96.0
1576.3649,71.0
1576.9954,84.0
1577.6261,86.0
1578.2572,75.0
1578.8885,68.0
1579.5201,58.0
1580.152,52.0
1580.784,77.0
1581.4164,66.0
1582.049,70.0
1582.6818,95.0
1583.3148,80.0
1583.9481,72.0
1584.5817,89.0
1585.2155,76.0
1585.8495,99.0
1586.4839,89.0
1587.1185,73.0
1587.7534,109.0
1588.3885,75.0
1589.0239,71.0
1589.6595,87.0
1590.2954,86.0
1590.9315,59.0
1591.5679,73.0
1592.2045,63.0
1592.8413,77.0
1593.4784,79.0
1594.1158,63.0
1594.7535,81.0
1595.3915,104.0
1596.0297,80.0
1596.6681,87.0
1597.3068,86.0
1597.9457,72.0
1598.5848,78.0
1599.2242,70.0
1599.8639,71.0
1600.5038,88.0
1601.144,72.0
1601.7845,80.0
1602.4253,106.0
1603.0663,87.0
1603.7075,103.0
1604.349,79.0
1604.9907,60.0
1605.6327,90.0
1606.2749,74.0
1606.9174,85.0
1607.5602,80.0
1608.2032,63.0
1608.8466,86.0
1609.4901,73.0
1610.1339,71.0
1610.778,69.0
1611.4222,80.0
1612.0668,67.0
1612.7115,107.0
1613.3567,84.0
1614.0021,76.0
1614.6477,96.0
1615.2936,76.0
1615.9397,82.0
1616.586,78.0
1617.2327,59.0
1617.8795,90.0
1618.5266,70.0
1619.1741,72.0
1619.8218,83.0
1620.4697,97.0
1621.1179,69.0
1621.7664,93.0
1622.415,71.0
1623.064,55.0
1623.7131,87.0
1624.3627,74.0
1625.0125,75.0
1625.6625,83.0
1626.3127,69.0
1626.9633,80.0
1627.614,88.0
1628.265,73.0
1628.9163,81.0
1629.5679,105.0
1630.2197,81.0
1630.8718,96.0
1631.5242,103.0
1632.1768,88.0
1632.8296,80.0
1633.4827,79.0
1634.1361,60.0
1634.7898,82.0
1635.4437,85.0
1636.0979,60.0
1636.7523,77.0
1637.407,87.0
1638.0619,64.0
1638.7172,81.0
1639.3727,89.0
1640.0284,57.0
1640.6844,102.0
1641.3407,59.0
1641.9972,94.0
1642.6539,98.0
1643.311,90.0
1643.9684,72.0
1644.626,141.0
1645.2838,129.0
1645.9419,73.0
1646.6002,150.0
1647.2589,75.0
1647.9178,104.0
1648.577,93.0
1649.2365,93.0
1649.8961,84.0
1650.556,86.0
1651.2163,79.0
1651.8768,76.0
1652.5376,92.0
1653.1986,55.0
1653.8599,78.0
1654.5214,68.0
1655.1832,76.0
1655.8453,71.0
1656.5077,85.0
1657.1703,69.0
1657.8331,85.0
1658.4962,108.0
1659.1597,58.0
1659.8234,84.0
1660.4873,101.0
1661.1515,66.0
1661.8159,77.0
1662.4806,97.0
1663.1456,73.0
1663.8109,92.0
1664.4764,94.0
1665.1422,63.0
1665.8082,86.0
1666.4746,74.0
1667.1412,62.0
1667.8081,86.0
1668.4752,105.0
1669.1426,75.0
1669.8102,67.0
1670.4781,97.0
1671.1464,72.0
1671.8148,91.0
1672.4835,117.0
1673.1525,74.0
1673.8218,108.0
1674.4913,97.0
1675.1611,85.0
1675.8312,93.0
1676.5015,101.0
1677.1721,66.0
1677.843,80.0
1678.5142,91.0
1679.1855,54.0
1679.8572,74.0
1680.5292,81.0
1681.2014,75.0
1681.8739,67.0
1682.5466,87.0
1683.2196,71.0
1683.893,104.0
1684.5665,97.0
1685.2404,74.0
1685.9144,86.0
1686.5887,103.0
1687.2634,78.0
1687.9384,90.0
1688.6135,88.0
1689.289,65.0
1689.9646,74.0
1690.6406,82.0
1691.3169,79.0
1691.9934,66.0
1692.6702,96.0
1693.3473,80.0
1694.0247,78.0
1694.7023,86.0
1695.3801,67.0
1696.0582,74.0
1696.7367,85.0
1697.4154,80.0
1698.0944,63.0
1698.7736,84.0
1699.4531,99.0
1700.1329,69.0
1700.813,104.0
1701.4933,98.0
1702.1738,84.0
1702.8547,87.0
1703.5359,77.0
1704.2173,87.0
1704.8989,87.0
1705.5809,122.0
1706.2632,78.0
1706.9457,88.0
1707.6284,98.0
1708.3115,95.0
1708.9949,88.0
1709.6785,80.0
1710.3623,106.0
1711.0465,69.0
1711.731,86.0
1712.4156,68.0
1713.1006,77.0
1713.7858,78.0
1714.4713,75.0
1715.1571,64.0
1715.8431,87.0
1716.5294,105.0
1717.2161,71.0
1717.903,86.0
1718.5901,78.0
1719.2775,71.0
1719.9652,64.0
1720.6532,84.0
1721.3414,88.0
1722.0299,72.0
1722.7188,79.0
1723.4078,79.0
1724.0972,68.0
1724.7869,70.0
1725.4768,71.0
1726.167,61.0
1726.8574,72.0
1727.5482,102.0
1728.2393,66.0
1728.9305,85.0
1729.6221,84.0
1730.314,89.0
1731.0061,83.0
1731.6985,89.0
1732.3911,74.0
1733.0841,65.0
1733.7773,83.0
1734.4708,65.0
1735.1647,69.0
1735.8588,74.0
1736.5531,89.0
1737.2477,65.0
1737.9426,86.0
1738.6378,85.0
1739.3333,82.0
1740.0289,78.0
1740.725,93.0
1741.4213,84.0
1742.1178,77.0
1742.8147,98.0
1743.5118,72.0
1744.2092,66.0
1744.9069,73.0
1745.6049,84.0
1746.3031,79.0
1747.0016,77.0
1747.7004,76.0
1748.3995,88.0
1749.0989,73.0
1749.7985,83.0
1750.4984,87.0
1751.1986,70.0
1751.899,68.0
1752.5999,96.0
1753.3009,77.0
1754.0022,83.0
1754.7039,79.0
1755.4058,77.0
1756.1079,58.0
1756.8103,68.0
1757.5131,79.0
1758.2161,54.0
1758.9193,77.0
1759.6229,95.0
1760.3268,78.0
1761.0309,72.0
1761.7354,92.0
1762.4401,71.0
1763.145,65.0
1763.8502,98.0
1764.5558,79.0
1765.2616,75.0
1765.9677,73.0
1766.6741,72.0
1767.3807,73.0
1768.0876,63.0
1768.7949,74.0
1769.5024,87.0
1770.2102,64.0
1770.9183,67.0
1771.6267,88.0
1772.3353,93.0
1773.0443,67.0
1773.7535,82.0
1774.463,76.0
1775.1729,70.0
1775.8829,66.0
1776.5933,73.0
1777.304,75.0
1778.0149,63.0
1778.7261,74.0
1779.4376,76.0
1780.1494,59.0
1780.8615,75.0
1781.5739,84.0
1782.2865,55.0
1782.9994,74.0
1783.7126,96.0
1784.4261,81.0
1785.1399,61.0
1785.854,75.0
1786.5684,72.0
1787.283,62.0
1787.9979,68.0
1788.7131,86.0
1789.4286,81.0
1790.1444,72.0
1790.8605,90.0
1791.5768,74.0
1792.2935,52.0
1793.0104,70.0
1793.7275,74.0
1794.4451,92.0
1795.1628,56.0
1795.8809,81.0
1796.5992,72.0
1797.3179,68.0
1798.0367,80.0
1798.756,87.0
1799.4755,71.0
1800.1953,71.0
1800.9154,77.0
1801.6357,87.0
1802.3564,72.0
1803.0774,67.0
1803.7986,79.0
1804.5201,63.0
1805.242,79.0
1805.964,166.0
1806.6864,189.0
1807.409,134.0
1808.1321,85.0
1808.8553,109.0
1809.5789,111.0
1810.3027,88.0
1811.0269,91.0
1811.7512,94.0
1812.476,82.0
1813.2009,92.0
1813.9261,92.0
1814.6517,118.0
1815.3776,88.0
1816.1038,75.0
1816.8302,105.0
1817.5569,81.0
1818.2839,60.0
1819.0112,71.0
1819.7389,80.0
1820.4668,59.0
1821.195,64.0
1821.9235,82.0
1822.6522,84.0
1823.3812,65.0
1824.1106,59.0
1824.8402,89.0
1825.5702,85.0
1826.3004,72.0
1827.0309,100.0
1827.7617,92.0
1828.4928,69.0
1829.2242,66.0
1829.9559,84.0
1830.6879,82.0
1831.4202,79.0
1832.1527,77.0
1832.8856,60.0
1833.6188,79.0
1834.3522,67.0
1835.0859,55.0
1835.82,82.0
1836.5543,97.0
1837.289,73.0
1838.0238,83.0
1838.759,93.0
1839.4945,99.0
1840.2303,79.0
1840.9664,101.0
1841.7028,104.0
1842.4395,76.0
1843.1764,81.0
1843.9137,74.0
1844.6512,73.0
1845.3892,71.0
1846.1273,74.0
1846.8657,70.0
1847.6045,89.0
1848.3435,75.0
1849.0829,77.0
1849.8225,85.0
1850.5624,74.0
1851.3026,69.0
1852.0431,92.0
1852.7839,71.0
1853.525,91.0
1854.2665,71.0
1855.0082,92.0
1855.7501,79.0
1856.4924,65.0
1857.235,69.0
1857.9779,211.0
1858.7211,248.0
1859.4646,158.0
1860.2084,106.0
1860.9525,105.0
1861.6969,107.0
1862.4415,95.0
1863.1865,64.0
1863.9318,84.0
1864.6774,75.0
1865.4232,73.0
1866.1694,50.0
1866.9159,76.0
1867.6627,115.0
1868.4098,87.0
1869.1571,75.0
1869.9048,89.0
1870.6527,68.0
1871.401,92.0
1872.1495,78.0
1872.8984,83.0
1873.6476,123.0
1874.3971,108.0
1875.1469,88.0
1875.8969,124.0
1876.6472,117.0
1877.3978,116.0
1878.1488,85.0
1878.9,79.0
1879.6516,103.0
1880.4034,77.0
1881.1556,76.0
1881.9081,73.0
1882.6609,75.0
1883.414,61.0
1884.1674,88.0
1884.921,259.0
1885.675,247.0
1886.4293,134.0
1887.1838,105.0
1887.9387,142.0
1888.6938,98.0
1889.4493,72.0
1890.2051,79.0
1890.9612,86.0
1891.7175,67.0
1892.4742,90.0
1893.2312,80.0
1893.9885,61.0
1894.7461,104.0
1895.504,95.0
1896.2622,86.0
1897.0208,112.0
1897.7795,94.0
1898.5387,83.0
1899.2981,83.0
1900.0579,86.0
1900.8179,82.0
1901.5782,99.0
1902.3389,72.0
1903.0999,78.0
1903.8611,92.0
1904.6227,67.0
1905.3845,80.0
1906.1467,72.0
1906.9092,87.0
1907.672,105.0
1908.435,74.0
1909.1985,62.0
1909.9622,59.0
1910.7262,77.0
1911.4905,102.0
1912.2551,71.0
1913.02,93.0
1913.7853,347.0
1914.5508,253.0
1915.3167,160.0
1916.0828,195.0
1916.8492,128.0
1917.616,91.0
1918.383,75.0
1919.1504,78.0
1919.9181,70.0
1920.686,78.0
1921.4543,79.0
1922.2229,71.0
1922.9918,79.0
1923.761,90.0
1924.5305,87.0
1925.3003,65.0
1926.0704,80.0
1926.8408,84.0
1927.6116,76.0
1928.3826,56.0
1929.1539,55.0
1929.9255,65.0
1930.6975,67.0
1931.4698,68.0
1932.2424,61.0
1933.0154,68.0
1933.7886,63.0
1934.5621,81.0
1935.3359,69.0
1936.1101,86.0
1936.8845,68.0
1937.6593,106.0
1938.4343,88.0
1939.2097,81.0
1939.9854,87.0
1940.7614,76.0
1941.5376,82.0
1942.3142,72.0
1943.0912,72.0
1943.8684,68.0
1944.646,70.0
1945.4238,82.0
1946.202,71.0
1946.9805,77.0
1947.7593,82.0
1948.5383,70.0
1949.3177,56.0
1950.0975,69.0
1950.8776,82.0
1951.658,97.0
1952.4386,97.0
1953.2196,86.0
1954.0009,88.0
1954.7825,93.0
1955.5643,73.0
1956.3466,77.0
1957.1292,57.0
1957.912,71.0
1958.6952,84.0
1959.4786,76.0
1960.2625,72.0
1961.0465,74.0
1961.8309,77.0
1962.6157,92.0
1963.4008,69.0
1964.1862,76.0
1964.9718,74.0
1965.7578,75.0
1966.5441,74.0
1967.3307,77.0
1968.1177,95.0
1968.9049,82.0
1969.6925,80.0
1970.4803,97.0
1971.2686,64.0
1972.057,69.0
1972.8458,78.0
1973.635,67.0
1974.4244,64.0
1975.2142,76.0
1976.0043,75.0
1976.7947,72.0
1977.5854,76.0
1978.3765,63.0
1979.1678,55.0
1979.9595,68.0
1980.7515,81.0
1981.5438,71.0
1982.3364,75.0
1983.1294,80.0
1983.9226,80.0
1984.7162,89.0
1985.5101,92.0
1986.3043,58.0
1987.0989,85.0
1987.8937,81.0
1988.6888,76.0
1989.4844,75.0
1990.2802,74.0
1991.0763,69.0
1991.8727,67.0
1992.6694,81.0
1993.4666,102.0
1994.2639,97.0
1995.0616,79.0
1995.8596,80.0
1996.658,100.0
1997.4567,102.0
1998.2556,78.0
1999.0549,66.0
1999.8546,84.0
2000.6545,95.0
2001.4548,76.0
2002.2554,59.0
2003.0563,70.0
2003.8575,84.0
2004.659,68.0
2005.4609,92.0
2006.2631,61.0
2007.0656,69.0
2007.8684,64.0
2008.6715,78.0
2009.475,106.0
2010.2788,97.0
2011.0829,92.0
2011.8873,120.0
2012.6921,147.0
2013.4972,104.0
2014.3026,98.0
2015.1083,79.0
2015.9143,76.0
2016.7207,76.0
2017.5273,79.0
2018.3344,71.0
2019.1417,66.0
2019.9493,72.0
2020.7573,70.0
2021.5657,80.0
2022.3743,81.0
2023.1832,81.0
2023.9926,66.0
2024.8021,67.0
2025.612,84.0
2026.4224,72.0
2027.2329,78.0
2028.0438,78.0
2028.855,104.0
2029.6665,114.0
2030.4784,88.0
2031.2905,92.0
2032.103,81.0
2032.9159,95.0
2033.729,79.0
2034.5425,113.0
2035.3563,84.0
2036.1704,79.0
2036.9849,89.0
2037.7997,85.0
2038.6147,70.0
2039.4302,61.0
2040.246,81.0
2041.062,84.0
2041.8784,73.0
2042.6952,79.0
2043.5123,68.0
2044.3297,66.0
2045.1475,62.0
2045.9656,66.0
2046.7839,101.0
2047.6027,79.0
2048.4216,63.0
2049.241,65.0
2050.0605,77.0
2050.8806,81.0
2051.701,98.0
2052.5217,111.0
2053.3428,78.0
2054.164,73.0
2054.9858,89.0
2055.8079,76.0
2056.6301,91.0
2057.453,85.0
2058.276,61.0
2059.099,69.0
2059.9229,78.0
2060.7468,78.0
2061.571,77.0
2062.3958,74.0
2063.2207,58.0
2064.046,85.0
2064.8716,97.0
2065.6975,97.0
2066.5237,91.0
2067.3503,69.0
2068.1772,76.0
2069.0046,83.0
2069.8323,62.0
2070.6602,89.0
2071.4885,80.0
2072.3171,80.0
2073.146,66.0
2073.9753,72.0
2074.805,86.0
2075.6348,88.0
2076.465,63.0
2077.2957,74.0
2078.1265,48.0
2078.9578,80.0
2079.7893,76.0
2080.6213,63.0
2081.4536,83.0
2082.2861,92.0
2083.1191,88.0
2083.9524,97.0
2084.786,109.0
2085.6199,80.0
2086.454,65.0
2087.2886,66.0
2088.1235,60.0
2088.9587,76.0
2089.7944,75.0
2090.6304,69.0
2091.4666,85.0
2092.3032,69.0
2093.1401,67.0
2093.9773,69.0
2094.815,83.0
2095.6528,65.0
2096.4912,68.0
2097.3298,73.0
2098.1687,67.0
2099.008,94.0
2099.8477,79.0
2100.6875,70.0
2101.5278,71.0
2102.3684,72.0
2103.2095,75.0
2104.0508,79.0
2104.8923,68.0
2105.7344,92.0
2106.5767,79.0
2107.4192,83.0
2108.2622,57.0
2109.1055,65.0
2109.9492,75.0
2110.7932,69.0
2111.6375,73.0
2112.4822,75.0
2113.3271,86.0
2114.1724,83.0
2115.018,81.0
2115.864,79.0
2116.7104,75.0
2117.5571,77.0
2118.404,86.0
2119.2515,55.0
2120.099,75.0
2120.9473,74.0
2121.7957,75.0
2122.6443,71.0
2123.4934,70.0
2124.3428,64.0
2125.1926,91.0
2126.0427,71.0
2126.893,89.0
2127.744,78.0
2128.595,78.0
2129.4463,60.0
2130.298,80.0
2131.1501,68.0
2132.0027,59.0
2132.8555,79.0
2133.7085,90.0
2134.562,72.0
2135.4158,77.0
2136.27,75.0
2137.1245,79.0
2137.9792,87.0
2138.8345,87.0
2139.69,89.0
2140.546,74.0
2141.402,83.0
2142.2585,94.0
2143.1155,118.0
2143.9727,108.0
2144.8303,111.0
2145.6882,90.0
2146.5464,73.0
2147.405,77.0
2148.264,76.0
2149.1233,75.0
2149.983,77.0
2150.843,76.0
2151.7034,77.0
2152.564,84.0
2153.425,87.0
2154.2864,81.0
2155.1482,77.0
2156.0103,71.0
2156.8726,83.0
2157.7354,72.0
2158.5984,64.0
2159.462,81.0
2160.3257,70.0
2161.1897,93.0
2162.0542,92.0
2162.919,77.0
2163.7842,71.0
2164.6497,77.0
2165.5156,88.0
2166.3818,73.0
2167.2483,88.0
2168.1152,98.0
2168.9824,78.0
2169.85,105.0
2170.718,85.0
2171.5864,82.0
2172.455,100.0
2173.324,70.0
2174.1934,72.0
2175.063,78.0
2175.933,88.0
2176.8035,82.0
2177.674,78.0
2178.5452,99.0
2179.4165,89.0
2180.2883,91.0
2181.1604,90.0
2182.033,72.0
2182.9058,81.0
2183.7788,78.0
2184.6523,69.0
2185.5261,72.0
2186.4004,79.0
2187.275,76.0
2188.15,78.0
2189.0251,93.0
2189.9006,84.0
2190.7766,89.0
2191.6528,78.0
2192.5295,89.0
2193.4065,82.0
2194.284,83.0
2195.1616,82.0
2196.0398,95.0
2196.9182,95.0
2197.7969,84.0
2198.676,80.0
2199.5554,65.0
2200.4353,70.0
2201.3154,68.0
2202.196,66.0
2203.077,86.0
2203.9583,78.0
2204.8398,95.0
2205.7217,90.0
2206.604,74.0
2207.4866,91.0
2208.3696,72.0
2209.253,62.0
2210.1367,84.0
2211.0208,107.0
2211.9053,88.0
2212.79,99.0
2213.675,73.0
2214.5605,93.0
2215.4463,84.0
2216.3325,75.0
2217.219,85.0
2218.106,95.0
2218.9932,87.0
2219.8809,82.0
2220.7688,88.0
2221.6572,75.0
2222.546,74.0
2223.4348,71.0
2224.3242,61.0
2225.2139,70.0
2226.104,72.0
2226.9944,100.0
2227.8853,80.0
2228.7764,73.0
2229.668,88.0
2230.5598,98.0
2231.4521,82.0
2232.3447,90.0
2233.2375,85.0
2234.1309,98.0
2235.0244,124.0
2235.9185,97.0
2236.8127,83.0
2237.7075,114.0
2238.6025,89.0
2239.498,89.0
2240.3938,88.0
2241.29,80.0
2242.1865,81.0
2243.0835,85.0
2243.9807,100.0
2244.8784,101.0
2245.7764,91.0
2246.6746,90.0
2247.5732,83.0
2248.4722,104.0
2249.3716,80.0
2250.2712,102.0
2251.1714,80.0
2252.0718,94.0
2252.9727,85.0
2253.8738,96.0
2254.7754,80.0
2255.6772,80.0
2256.5796,99.0
2257.4822,97.0
2258.3853,81.0
2259.2886,78.0
2260.1924,119.0
2261.0964,107.0
2262.001,92.0
2262.9058,84.0
2263.811,80.0
2264.7166,105.0
2265.6226,84.0
2266.5288,89.0
2267.4353,99.0
2268.3423,96.0
2269.2495,102.0
2270.1572,83.0
2271.0652,82.0
2271.9736,90.0
2272.8823,83.0
2273.7915,101.0
2274.701,107.0
2275.6108,111.0
2276.521,150.0
2277.4316,139.0
2278.3425,104.0
2279.254,102.0
2280.1655,107.0
2281.0776,107.0
2281.99,99.0
2282.9028,98.0
2283.816,101.0
2284.7295,95.0
2285.6433,95.0
2286.5576,88.0
2287.4722,88.0
2288.3872,98.0
2289.3025,106.0
2290.2183,95.0
2291.1343,90.0
2292.0508,109.0
2292.9675,83.0
2293.8848,112.0
2294.8022,101.0
2295.7202,109.0
2296.6384,101.0
2297.5571,102.0
2298.476,85.0
2299.3955,98.0
2300.3152,100.0
2301.2354,111.0
2302.1558,95.0
2303.0767,116.0
2303.9978,97.0
2304.9194,100.0
2305.8413,106.0
2306.7637,95.0
2307.6863,105.0
2308.6094,98.0
2309.5327,95.0
2310.4565,86.0
2311.3806,101.0
2312.3052,122.0
2313.23,104.0
2314.1553,116.0
2315.081,97.0
2316.007,106.0
2316.9336,119.0
2317.8604,98.0
2318.7876,132.0
2319.715,139.0
2320.643,113.0
2321.5713,116.0
2322.5,92.0
2323.429,90.0
2324.3584,95.0
2325.288,104.0
2326.2183,103.0
2327.1487,107.0
2328.0796,121.0
2329.0107,99.0
2329.9424,101.0
2330.8743,91.0
2331.8066,103.0
2332.7393,106.0
2333.6724,93.0
2334.6057,115.0
2335.5396,78.0
2336.4739,106.0
2337.4084,84.0
2338.3435,99.0
2339.2788,98.0
2340.2146,88.0
2341.1506,96.0
2342.0872,111.0
2343.024,101.0
2343.9612,105.0
2344.8987,99.0
2345.8367,124.0
2346.775,122.0
2347.7136,87.0
2348.6526,96.0
2349.592,104.0
2350.532,107.0
2351.4722,79.0
2352.4128,94.0
2353.3538,91.0
2354.2952,95.0
2355.2368,99.0
2356.179,84.0
2357.1213,98.0
2358.0642,85.0
2359.0073,91.0
2359.951,88.0
2360.895,91.0
2361.8394,114.0
2362.7842,103.0
2363.7292,83.0
2364.6748,103.0
2365.6206,112.0
2366.567,100.0
2367.5134,75.0
2368.4604,90.0
2369.4077,85.0
2370.3555,91.0
2371.3037,78.0
2372.2522,99.0
2373.2012,89.0
2374.1504,98.0
2375.1,96.0
2376.05,78.0
2377.0005,78.0
2377.9512,100.0
2378.9023,92.0
2379.854,98.0
2380.806,100.0
2381.7583,86.0
2382.711,87.0
2383.664,85.0
2384.6174,103.0
2385.5713,95.0
2386.5256,88.0
2387.4802,100.0
2388.4353,111.0
2389.3906,97.0
2390.3464,70.0
2391.3025,67.0
2392.259,93.0
2393.2158,96.0
2394.173,90.0
2395.1309,89.0
2396.0889,93.0
2397.0474,93.0
2398.006,94.0
2398.9653,82.0
2399.9248,77.0
2400.8848,86.0
2401.8452,96.0
2402.806,83.0
2403.767,93.0
2404.7285,74.0
2405.6904,86.0
2406.6526,89.0
2407.6152,76.0
2408.5784,90.0
2409.5417,86.0
2410.5056,78.0
2411.4697,100.0
2412.4343,74.0
2413.3994,84.0
2414.3647,83.0
2415.3306,98.0
2416.2966,99.0
2417.2632,82.0
2418.23,86.0
2419.1973,77.0
2420.165,78.0
2421.133,68.0
2422.1016,88.0
2423.0703,98.0
2424.0396,84.0
2425.0093,75.0
2425.9792,81.0
2426.9497,104.0
2427.9204,80.0
2428.8916,80.0
2429.863,86.0
2430.835,81.0
2431.8074,108.0
2432.78,93.0
2433.7532,87.0
2434.7266,73.0
2435.7004,74.0
2436.6748,88.0
2437.6494,62.0
2438.6245,81.0
2439.5999,89.0
2440.5757,79.0
2441.552,73.0
2442.5286,85.0
2443.5056,73.0
2444.483,82.0
2445.4607,83.0
2446.439,66.0
2447.4175,99.0
2448.3965,93.0
2449.3757,89.0
2450.3555,89.0
2451.3357,85.0
2452.3162,81.0
2453.297,82.0
2454.2783,81.0
2455.26,80.0
2456.2422,89.0
2457.2246,75.0
2458.2075,85.0
2459.191,69.0
2460.1746,75.0
2461.1587,73.0
2462.143,79.0
2463.128,91.0
2464.1133,88.0
2465.0989,89.0
2466.085,95.0
2467.0713,89.0
2468.058,87.0
2469.0454,78.0
2470.033,75.0
2471.021,83.0
2472.0095,87.0
2472.9983,78.0
2473.9875,89.0
2474.977,79.0
2475.967,71.0
2476.9575,75.0
2477.9482,87.0
2478.9395,77.0
2479.931,60.0
2480.9229,97.0
2481.9153,86.0
2482.908,77.0
2483.9011,92.0
2484.8948,98.0
2485.8887,71.0
2486.883,91.0
2487.878,79.0
2488.873,78.0
2489.8687,85.0
2490.8645,75.0
2491.8608,85.0
2492.8577,93.0
2493.8547,85.0
2494.8523,94.0
2495.8503,81.0
2496.8486,96.0
2497.8474,85.0
2498.8464,107.0
2499.846,74.0
2500.846,98.0
2501.8462,76.0
2502.847,76.0
2503.8481,69.0
2504.8496,80.0
2505.8516,71.0
2506.854,84.0
2507.8567,64.0
2508.8599,85.0
2509.8635,83.0
2510.8674,71.0
2511.8718,73.0
2512.8765,80.0
2513.8816,83.0
2514.8872,100.0
2515.893,80.0
2516.8994,70.0
2517.9062,85.0
2518.9133,64.0
2519.921,79.0
2520.929,91.0
2521.9373,91.0
2522.946,89.0
2523.9553,75.0
2524.9648,82.0
2525.9749,73.0
2526.9854,77.0
2527.996,82.0
2529.0073,75.0
2530.019,89.0
2531.031,68.0
2532.0435,85.0
2533.0562,88.0
2534.0693,91.0
2535.083,83.0
2536.097,88.0
2537.1113,74.0
2538.1262,79.0
2539.1414,73.0
2540.157,88.0
2541.173,85.0
2542.1895,79.0
2543.2063,75.0
2544.2236,70.0
2545.2412,85.0
2546.2593,81.0
2547.2778,86.0
2548.2966,102.0
2549.316,73.0
2550.3357,90.0
2551.3557,84.0
2552.3762,87.0
2553.3972,84.0
2554.4185,77.0
2555.4402,79.0
2556.4624,79.0
2557.485,83.0
2558.508,79.0
2559.5315,66.0
2560.5554,76.0
2561.5796,98.0
2562.6042,94.0
2563.6294,101.0
2564.6548,101.0
2565.6807,93.0
2566.707,90.0
2567.7336,69.0
2568.7607,79.0
2569.7883,90.0
2570.8162,63.0
2571.8445,82.0
2572.8733,92.0
2573.9023,99.0
2574.932,75.0
2575.962,94.0
2576.9922,93.0
2578.023,85.0
2579.0542,89.0
2580.086,88.0
2581.118,84.0
2582.1504,82.0
2583.1833,82.0
2584.2166,89.0
2585.2502,93.0
2586.2844,82.0
2587.3188,76.0
2588.3538,85.0
2589.3892,83.0
2590.4248,80.0
2591.461,81.0
2592.4976,82.0
2593.5347,116.0
2594.572,113.0
2595.6099,104.0
2596.6482,80.0
2597.6868,88.0
2598.7258,67.0
2599.7654,77.0
2600.8052,79.0
2601.8455,85.0
2602.8862,83.0
2603.9275,73.0
2604.969,86.0
2606.011,82.0
2607.0535,82.0
2608.0962,92.0
2609.1394,105.0
2610.183,95.0
2611.2273,90.0
2612.2717,79.0
2613.3167,96.0
2614.362,89.0
2615.4077,82.0
2616.4539,83.0
2617.5005,91.0
2618.5476,95.0
2619.595,100.0
2620.6428,82.0
2621.6912,112.0
2622.7397,88.0
2623.7888,90.0
2624.8384,96.0
2625.8884,86.0
2626.9387,89.0
2627.9895,86.0
2629.0408,90.0
2630.0923,86.0
2631.1443,81.0
2632.1968,99.0
2633.2498,80.0
2634.303,92.0
2635.3567,85.0
2636.411,92.0
2637.4653,82.0
2638.5203,91.0
2639.5757,82.0
2640.6316,71.0
2641.6877,72.0
2642.7444,90.0
2643.8015,83.0
2644.8591,85.0
2645.917,85.0
2646.9753,87.0
2648.0342,98.0
2649.0935,93.0
2650.153,79.0
2651.2131,105.0
2652.2737,86.0
2653.3345,89.0
2654.3958,93.0
2655.4575,66.0
2656.5198,67.0
2657.5823,76.0
2658.6453,99.0
2659.7087,79.0
2660.7727,93.0
2661.837,89.0
2662.9016,103.0
2663.9668,110.0
2665.0325,144.0
2666.0984,128.0
2667.1648,94.0
2668.2317,106.0
2669.299,87.0
2670.3667,80.0
2671.4348,72.0
2672.5034,71.0
2673.5725,74.0
2674.6418,101.0
2675.7117,107.0
2676.782,80.0
2677.8528,71.0
2678.9238,108.0
2679.9954,107.0
2681.0674,86.0
2682.14,87.0
2683.2126,86.0
2684.286,87.0
2685.3596,91.0
2686.4338,88.0
2687.5083,79.0
2688.5833,97.0
2689.6587,74.0
2690.7346,65.0
2691.8108,74.0
2692.8875,81.0
2693.9646,107.0
2695.0422,82.0
2696.1204,93.0
2697.1987,88.0
2698.2776,85.0
2699.357,101.0
2700.4368,82.0
2701.5168,91.0
2702.5974,90.0
2703.6785,83.0
2704.76,99.0
2705.8418,96.0
2706.924,101.0
2708.0068,107.0
2709.09,84.0
2710.1738,94.0
2711.2578,106.0
2712.3423,113.0
2713.4272,82.0
2714.5127,79.0
2715.5984,77.0
2716.6846,98.0
2717.7712,75.0
2718.8584,64.0
2719.946,86.0
2721.034,93.0
2722.1223,101.0
2723.2112,110.0
2724.3005,108.0
2725.3901,92.0
2726.4802,94.0
2727.5708,86.0
2728.6619,92.0
2729.7534,120.0
2730.8452,118.0
2731.9375,92.0
2733.0303,93.0
2734.1235,98.0
2735.2173,179.0
2736.3113,204.0
2737.4058,134.0
2738.5007,102.0
2739.5962,96.0
2740.6921,90.0
2741.7883,71.0
2742.885,82.0
2743.9822,86.0
2745.0798,75.0
2746.178,86.0
2747.2764,81.0
2748.3752,80.0
2749.4746,85.0
2750.5745,90.0
2751.6748,103.0
2752.7754,81.0
2753.8765,99.0
2754.978,73.0
2756.08,93.0
2757.1826,65.0
2758.2854,104.0
2759.3887,88.0
2760.4924,90.0
2761.5967,81.0
2762.7014,88.0
2763.8064,96.0
2764.9119,83.0
2766.0178,97.0
2767.1243,89.0
2768.2312,93.0
2769.3384,95.0
2770.446,107.0
2771.5542,93.0
2772.6628,86.0
2773.772,92.0
2774.8816,90.0
2775.9915,89.0
2777.1018,94.0
2778.2126,93.0
2779.324,84.0
2780.4358,91.0
2781.5479,103.0
2782.6604,93.0
2783.7734,79.0
2784.887,86.0
2786.001,77.0
2787.1155,82.0
2788.2302,78.0
2789.3455,86.0
2790.4612,96.0
2791.5774,86.0
2792.694,129.0
2793.8113,176.0
2794.9287,190.0
2796.0466,168.0
2797.165,162.0
2798.284,148.0
2799.4033,141.0
2800.5232,127.0
2801.6433,120.0
2802.764,122.0
2803.885,121.0
2805.0066,112.0
2806.1287,112.0
2807.2512,165.0
2808.374,236.0
2809.4973,156.0
2810.621,157.0
2811.7454,136.0
2812.87,127.0
2813.9954,111.0
2815.1208,116.0
2816.2468,111.0
2817.3733,120.0
2818.5002,130.0
2819.6277,123.0
2820.7556,119.0
2821.884,113.0
2823.0127,130.0
2824.1418,112.0
2825.2715,121.0
2826.4016,101.0
2827.5322,110.0
2828.6633,115.0
2829.7947,126.0
2830.9265,144.0
2832.0588,131.0
2833.1917,115.0
2834.325,132.0
2835.4587,122.0
2836.593,128.0
2837.7275,126.0
2838.8625,144.0
2839.998,114.0
2841.134,127.0
2842.2705,114.0
2843.4075,131.0
2844.545,114.0
2845.6829,129.0
2846.821,126.0
2847.9597,134.0
2849.0989,127.0
2850.2385,136.0
2851.3787,151.0
2852.5193,161.0
2853.6604,137.0
2854.8018,132.0
2855.9436,126.0
2857.086,138.0
2858.2288,173.0
2859.372,122.0
2860.5159,131.0
2861.6602,124.0
2862.805,107.0
2863.95,148.0
2865.0955,179.0
2866.2415,167.0
2867.388,181.0
2868.535,154.0
2869.6824,143.0
2870.8303,133.0
2871.9788,131.0
2873.1274,135.0
2874.2766,142.0
2875.4263,123.0
2876.5764,136.0
2877.727,126.0
2878.8782,113.0
2880.0298,113.0
2881.182,127.0
2882.3345,129.0
2883.4873,131.0
2884.6406,123.0
2885.7944,99.0
2886.9487,122.0
2888.1035,138.0
2889.2588,143.0
2890.4146,158.0
2891.5708,176.0
2892.7275,152.0
2893.8845,145.0
2895.042,133.0
2896.2,121.0
2897.3584,108.0
2898.5173,124.0
2899.6768,118.0
2900.8367,125.0
2901.997,125.0
2903.158,118.0
2904.3193,134.0
2905.481,141.0
2906.643,152.0
2907.8057,238.0
2908.9688,237.0
2910.1323,237.0
2911.2964,181.0
2912.461,145.0
2913.626,116.0
2914.7915,131.0
2915.9575,125.0
2917.124,112.0
2918.2908,111.0
2919.458,103.0
2920.6257,133.0
2921.794,195.0
2922.9626,199.0
2924.1318,216.0
2925.3015,168.0
2926.4717,172.0
2927.6423,136.0
2928.8135,130.0
2929.985,105.0
2931.157,128.0
2932.3293,122.0
2933.5022,140.0
2934.6755,123.0
2935.8494,126.0
2937.0237,106.0
2938.1985,110.0
2939.3738,148.0
2940.5496,141.0
2941.7258,146.0
2942.9026,137.0
2944.0798,98.0
2945.2576,137.0
2946.4358,132.0
2947.6143,131.0
2948.7932,119.0
2949.9727,150.0
2951.1526,138.0
2952.333,134.0
2953.514,147.0
2954.6953,117.0
2955.8772,134.0
2957.0596,109.0
2958.2424,124.0
2959.4258,144.0
2960.6096,138.0
2961.794,147.0
2962.9788,127.0
2964.164,117.0
2965.3496,117.0
2966.5356,123.0
2967.7222,111.0
2968.9092,114.0
2970.0967,112.0
2971.2847,126.0
2972.4731,116.0
2973.662,119.0
2974.8516,113.0
2976.0415,115.0
2977.232,153.0
2978.4229,132.0
2979.6143,131.0
2980.8062,151.0
2981.9985,138.0
2983.1914,137.0
2984.3848,129.0
2985.5786,138.0
2986.773,126.0
2987.9678,129.0
2989.1628,132.0
2990.3584,109.0
2991.5544,123.0
2992.751,127.0
2993.948,131.0
2995.1455,131.0
2996.3435,120.0
2997.542,121.0
2998.741,134.0
2999.9404,121.0
3001.1404,123.0
3002.3408,108.0
3003.5417,131.0
3004.7432,140.0
3005.945,129.0
3007.1475,118.0
3008.3503,107.0
3009.5537,155.0
3010.7576,127.0
3011.962,144.0
3013.1667,137.0
3014.372,149.0
3015.578,143.0
3016.7842,141.0
3017.991,134.0
3019.1982,119.0
3020.406,152.0
3021.6143,183.0
3022.823,145.0
3024.0322,131.0
3025.242,135.0
3026.4521,149.0
3027.6628,135.0
3028.874,102.0
3030.0857,111.0
3031.2976,137.0
3032.51,139.0
3033.723,139.0
3034.9363,119.0
3036.1501,119.0
3037.3645,120.0
3038.5793,110.0
3039.7947,136.0
3041.0105,126.0
3042.2268,139.0
3043.4436,133.0
3044.661,147.0
3045.8787,124.0
3047.097,116.0
3048.3157,124.0
3049.535,119.0
3050.7546,128.0
3051.9749,121.0
3053.1956,136.0
3054.4167,153.0
3055.6384,137.0
3056.8606,118.0
3058.0833,125.0
3059.3064,104.0
3060.53,120.0
3061.7542,125.0
3062.9788,119.0
3064.2039,132.0
3065.4294,136.0
3066.6555,137.0
3067.882,128.0
3069.1091,133.0
3070.3367,115.0
3071.5647,142.0
3072.7932,119.0
3074.0222,124.0
3075.2517,91.0
3076.4817,132.0
3077.7124,115.0
3078.9436,119.0
3080.1753,143.0
3081.4075,113.0
3082.6401,143.0
3083.8733,137.0
3085.107,122.0
3086.341,131.0
3087.5757,141.0
3088.8108,129.0
3090.0464,132.0
3091.2825,112.0
3092.519,128.0
3093.756,114.0
3094.9937,117.0
3096.2317,137.0
3097.4702,134.0
3098.7092,137.0
3099.9487,139.0
3101.1887,116.0
3102.4292,116.0
3103.6702,121.0
3104.9116,90.0
3106.1536,112.0
3107.396,114.0
3108.639,132.0
3109.8823,120.0
3111.1262,146.0
3112.3706,152.0
3113.6155,132.0
3114.8608,112.0
3116.1067,123.0
3117.353,117.0
3118.5999,127.0
3119.8474,120.0
3121.0955,125.0
3122.344,117.0
3123.593,133.0
3124.8425,112.0
3126.0925,133.0
3127.343,146.0
3128.594,139.0
3129.8455,115.0
3131.0974,123.0
3132.3499,113.0
3133.6028,111.0
3134.8562,125.0
3136.11,106.0
3137.3645,130.0
3138.6194,142.0
3139.8748,139.0
3141.1306,120.0
3142.387,119.0
3143.6438,113.0
3144.9014,136.0
3146.1594,143.0
3147.418,122.0
3148.677,119.0
3149.9365,115.0
3151.1965,113.0
3152.457,121.0
3153.718,154.0
3154.9795,118.0
3156.2415,116.0
3157.504,117.0
3158.7668,127.0
3160.0303,111.0
3161.2942,135.0
3162.5586,117.0
3163.8237,121.0
3165.0894,129.0
3166.3555,116.0
3167.622,155.0
3168.8892,132.0
3170.1567,128.0
3171.4248,138.0
3172.6934,138.0
3173.9624,119.0
3175.232,114.0
3176.502,132.0
3177.7725,115.0
3179.0435,122.0
3180.3152,133.0
3181.5874,126.0
3182.86,131.0
3184.1333,110.0
3185.407,129.0
3186.6812,143.0
3187.9558,156.0
3189.231,130.0
3190.5066,130.0
3191.7827,110.0
3193.0593,124.0
3194.3367,136.0
3195.6145,142.0
3196.8928,124.0
3198.1716,126.0
3199.451,129.0
3200.7307,159.0
3202.011,111.0
3203.2917,109.0
3204.573,121.0
3205.8547,128.0
3207.137,110.0
3208.42,114.0
3209.7034,127.0
3210.9873,129.0
3212.2717,135.0
3213.5566,127.0
3214.842,124.0
3216.128,123.0
3217.4143,140.0
3218.7012,134.0
3219.9888,143.0
3221.2769,118.0
3222.5654,143.0
3223.8545,137.0
3225.144,132.0
3226.434,142.0
3227.7246,146.0
3229.0156,127.0
3230.3071,122.0
3231.5994,131.0
3232.892,143.0
3234.1853,136.0
3235.479,139.0
3236.7732,163.0
3238.0679,135.0
3239.363,125.0
3240.6587,117.0
3241.9548,139.0
3243.2517,130.0
3244.549,143.0
3245.847,107.0
3247.1453,113.0
3248.444,124.0
3249.7434,139.0
3251.0432,112.0
3252.3438,119.0
3253.6448,134.0
3254.9463,113.0
3256.2483,144.0
3257.5508,141.0
3258.8538,141.0
3260.1572,140.0
3261.4612,135.0
3262.7659,122.0
3264.071,127.0
3265.3767,138.0
3266.6829,116.0
3267.9895,109.0
3269.2966,137.0
3270.6042,155.0
3271.9126,130.0
3273.2214,111.0
3274.5308,140.0
3275.8406,134.0
3277.151,108.0
3278.4617,112.0
3279.773,150.0
3281.085,115.0
3282.3975,109.0
3283.7104,134.0
3285.024,112.0
3286.338,126.0
3287.6523,150.0
3288.9673,132.0
3290.283,135.0
3291.599,138.0
3292.9158,131.0
3294.233,111.0
3295.5505,132.0
3296.8687,139.0
3298.1875,132.0
3299.5068,146.0
3300.8267,126.0
3302.147,128.0
3303.4678,139.0
3304.789,122.0
3306.111,129.0
3307.4336,123.0
3308.7566,129.0
3310.08,146.0
3311.404,137.0
3312.7285,124.0
3314.0537,122.0
3315.3794,133.0
3316.7056,147.0
3318.0322,115.0
3319.3594,112.0
3320.687,136.0
3322.0154,114.0
3323.3442,163.0
3324.6736,153.0
3326.0034,141.0
3327.3337,116.0
3328.6648,144.0
3329.9963,127.0
3331.3284,132.0
3332.661,131.0
3333.994,125.0
3335.3274,139.0
3336.6616,135.0
3337.9963,123.0
3339.3315,136.0
3340.6672,134.0
3342.0034,116.0
3343.3403,139.0
3344.6777,132.0
3346.0156,102.0
3347.354,126.0
3348.6929,148.0
3350.0322,118.0
3351.3723,145.0
3352.713,144.0
3354.054,144.0
3355.3955,120.0
3356.7375,136.0
3358.0803,128.0
3359.4236,151.0
3360.7673,155.0
3362.1116,131.0
3363.4563,114.0
3364.8018,129.0
3366.1477,123.0
3367.4941,126.0
3368.841,142.0
3370.1887,135.0
3371.5369,150.0
3372.8855,147.0
3374.2346,127.0
3375.5842,148.0
3376.9346,128.0
3378.2854,141.0
3379.6367,141.0
3380.9885,130.0
3382.3408,147.0
3383.6938,147.0
3385.0474,146.0
3386.4014,174.0
3387.7559,141.0
3389.1108,154.0
3390.4666,133.0
3391.8228,162.0
3393.1794,117.0
3394.5366,158.0
3395.8945,152.0
3397.253,141.0
3398.6118,157.0
3399.9712,126.0
3401.3313,147.0
3402.692,139.0
3404.053,156.0
3405.4146,164.0
3406.7766,159.0
3408.1394,127.0
3409.5027,142.0
3410.8665,151.0
3412.2307,166.0
3413.5957,187.0
3414.9612,164.0
3416.3271,138.0
3417.6936,153.0
3419.0608,135.0
3420.4285,147.0
3421.7966,149.0
3423.1653,151.0
3424.5347,167.0
3425.9045,116.0
3427.275,156.0
3428.6458,165.0
3430.017,136.0
3431.3892,125.0
3432.7617,143.0
3434.1348,138.0
3435.5083,147.0
3436.8826,136.0
3438.2573,135.0
3439.6326,142.0
3441.0083,125.0
3442.3848,125.0
3443.7617,146.0
3445.1392,133.0
3446.5173,133.0
3447.896,131.0
3449.2751,141.0
3450.6548,148.0
3452.0352,152.0
3453.416,138.0
3454.7974,157.0
3456.1792,123.0
3457.5618,180.0
3458.9448,142.0
3460.3284,143.0
3461.7124,141.0
3463.0972,116.0
3464.4824,135.0
3465.8682,152.0
3467.2544,126.0
3468.6414,146.0
3470.0288,153.0
3471.4167,141.0
3472.8054,145.0
3474.1946,135.0
3475.5842,149.0
3476.9744,135.0
3478.3652,149.0
3479.7566,130.0
3481.1484,168.0
3482.541,138.0
3483.934,130.0
3485.3276,157.0
3486.7217,159.0
3488.1165,125.0
3489.5117,146.0
3490.9075,165.0
3492.304,141.0
3493.701,142.0
3495.0984,164.0
3496.4963,154.0
3497.895,162.0
3499.2942,149.0
3500.6938,175.0
3502.0942,134.0
3503.495,169.0
3504.8965,153.0
3506.2983,154.0
3507.701,159.0
3509.104,170.0
3510.5076,168.0
3511.9119,165.0
3513.3167,181.0
3514.722,168.0
3516.128,140.0
3517.5344,142.0
3518.9414,149.0
3520.3489,160.0
3521.757,216.0
3523.1658,192.0
3524.575,149.0
3525.9849,144.0
3527.3953,145.0
3528.8062,180.0
3530.2178,192.0
3531.63,224.0
3533.0425,165.0
3534.4558,140.0
3535.8696,158.0
3537.284,131.0
3538.6987,135.0
3540.1143,171.0
3541.5303,172.0
3542.9468,162.0
3544.364,139.0
3545.7817,164.0
3547.2,142.0
3548.619,138.0
3550.0383,145.0
3551.4583,133.0
3552.879,145.0
3554.3,136.0
3555.7217,151.0
3557.144,144.0
3558.567,154.0
3559.9902,125.0
3561.4143,131.0
3562.8389,168.0
3564.264,159.0
3565.6897,160.0
3567.116,164.0
3568.5427,152.0
3569.9702,148.0
3571.3982,150.0
3572.8267,177.0
3574.2559,145.0
3575.6855,155.0
3577.1157,169.0
3578.5466,151.0
3579.978,187.0
3581.41,193.0
3582.8425,181.0
3584.2756,182.0
3585.7092,199.0
3587.1436,171.0
3588.5784,179.0
3590.014,145.0
3591.45,161.0
3592.8865,178.0
3594.3237,213.0
3595.7615,199.0
3597.1997,189.0
3598.6387,189.0
3600.0781,211.0
3601.518,211.0
3602.9587,167.0
3604.4,160.0
3605.8416,159.0
3607.284,245.0
3608.7268,284.0
3610.1704,215.0
3611.6145,178.0
3613.059,148.0
3614.5044,161.0
3615.9502,269.0
3617.3965,336.0
3618.8435,250.0
3620.291,181.0
3621.739,157.0
3623.1877,158.0
3624.637,167.0
3626.087,150.0
3627.5374,207.0
3628.9883,171.0
3630.44,147.0
3631.892,158.0
3633.3447,166.0
3634.798,176.0
3636.252,152.0
3637.7065,184.0
3639.1616,154.0
3640.6172,179.0
3642.0735,135.0
3643.5303,176.0
3644.9878,188.0
3646.4458,171.0
3647.9043,159.0
3649.3635,153.0
3650.8232,164.0
3652.2837,140.0
3653.7446,148.0
3655.206,161.0
3656.6682,168.0
3658.1309,164.0
3659.594,173.0
3661.0579,162.0
3662.5222,184.0
3663.9873,159.0
3665.453,169.0
3666.919,196.0
3668.3857,166.0
3669.853,163.0
3671.321,156.0
3672.7896,178.0
3674.2585,168.0
3675.7283,195.0
3677.1985,192.0
3678.6694,210.0
3680.1409,195.0
3681.613,155.0
3683.0857,181.0
3684.5588,153.0
3686.0327,157.0
3687.507,155.0
3688.9822,150.0
3690.4578,160.0
3691.9338,182.0
3693.4106,207.0
3694.888,180.0
3696.366,152.0
3697.8445,174.0
3699.3237,143.0
3700.8035,189.0
3702.2837,168.0
3703.7646,199.0
3705.246,174.0
3706.7283,166.0
3708.211,211.0
3709.6943,268.0
3711.1782,231.0
3712.6626,205.0
3714.1477,193.0
3715.6333,186.0
3717.1196,205.0
3718.6064,195.0
3720.094,214.0
3721.582,175.0
3723.0706,192.0
3724.5598,182.0
3726.0496,199.0
3727.54,165.0
3729.031,176.0
3730.5227,180.0
3732.015,180.0
3733.5078,263.0
3735.0012,317.0
3736.495,233.0
3737.9897,249.0
3739.4849,178.0
3740.9807,185.0
3742.477,192.0
3743.974,258.0
3745.4717,203.0
3746.97,169.0
3748.4688,190.0
3749.968,370.0
3751.468,739.0
3752.9685,772.0
3754.4697,447.0
3755.9714,370.0
3757.4739,258.0
3758.9768,245.0
3760.4805,189.0
3761.9846,190.0
3763.4895,170.0
3764.9949,185.0
3766.501,221.0
3768.0076,237.0
3769.515,202.0
3771.0227,226.0
3772.531,209.0
3774.04,197.0
3775.5496,175.0
3777.0598,207.0
3778.5706,210.0
3780.082,207.0
3781.594,210.0
3783.1067,254.0
3784.6199,330.0
3786.1338,213.0
3787.6482,190.0
3789.1633,187.0
3790.679,195.0
3792.1953,181.0
3793.7122,189.0
3795.2297,169.0
3796.7478,194.0
3798.2666,222.0
3799.786,210.0
3801.306,205.0
3802.8264,183.0
3804.3477,201.0
3805.8694,204.0
3807.3918,186.0
3808.9148,207.0
3810.4385,214.0
3811.9626,214.0
3813.4875,211.0
3815.013,276.0
3816.539,237.0
3818.0657,194.0
3819.593,174.0
3821.1208,179.0
3822.6494,170.0
3824.1785,163.0
3825.7083,187.0
3827.2385,178.0
3828.7695,175.0
3830.301,202.0
3831.8333,231.0
3833.366,201.0
3834.8994,191.0
3836.4333,145.0
3837.968,176.0
3839.5032,184.0
3841.039,213.0
3842.5754,180.0
3844.1125,178.0
3845.6501,189.0
3847.1885,264.0
3848.7273,299.0
3850.2668,301.0
3851.807,232.0
3853.3477,197.0
3854.889,220.0
3856.431,182.0
3857.9734,202.0
3859.5166,206.0
3861.0603,195.0
3862.6047,190.0
3864.1497,206.0
3865.6953,231.0
3867.2417,191.0
3868.7886,221.0
3870.3362,182.0
3871.8843,203.0
3873.433,236.0
3874.9824,198.0
3876.5325,227.0
3878.083,177.0
3879.6343,202.0
3881.186,263.0
3882.7385,251.0
3884.2915,251.0
3885.8452,257.0
3887.3997,216.0
3888.9546,220.0
3890.5103,164.0
3892.0664,171.0
3893.6233,222.0
3895.1807,212.0
3896.7388,207.0
3898.2974,241.0
3899.8567,269.0
3901.4167,257.0
3902.9773,268.0
3904.5386,210.0
3906.1003,217.0
3907.6628,197.0
3909.2258,193.0
3910.7896,166.0
3912.3538,173.0
3913.9187,203.0
3915.4844,221.0
3917.0505,218.0
3918.6174,221.0
3920.1848,195.0
3921.753,200.0
3923.3215,181.0
3924.8909,210.0
3926.461,186.0
3928.0315,194.0
3929.6028,167.0
3931.1746,186.0
3932.747,205.0
3934.32,188.0
3935.8938,183.0
3937.4683,170.0
3939.0432,182.0
3940.619,199.0
3942.195,206.0
3943.772,188.0
3945.3494,196.0
3946.9275,170.0
3948.5063,207.0
3950.0857,237.0
3951.6658,227.0
3953.2463,172.0
3954.8276,169.0
3956.4097,183.0
3957.9922,187.0
3959.5754,231.0
3961.1592,211.0
3962.7437,197.0
3964.3289,160.0
3965.9146,179.0
3967.501,178.0
3969.088,183.0
3970.6755,186.0
3972.264,172.0
3973.8528,197.0
3975.4424,168.0
3977.0325,185.0
3978.6233,178.0
3980.2148,203.0
3981.807,195.0
3983.3997,202.0
3984.993,167.0
3986.587,172.0
3988.1816,176.0
3989.7769,183.0
3991.3728,220.0
3992.9692,240.0
3994.5664,208.0
3996.1643,182.0
3997.7627,183.0
3999.3618,188.0
4000.9617,190.0
4002.562,241.0
4004.163,238.0
4005.7646,204.0
4007.367,202.0
4008.97,230.0
4010.5735,239.0
4012.1777,222.0
4013.7827,236.0
4015.3882,203.0
4016.9944,224.0
4018.601,216.0
4020.2085,245.0
4021.8167,272.0
4023.4253,224.0
4025.0347,226.0
4026.6448,255.0
4028.2554,287.0
4029.8667,315.0
4031.4788,265.0
4033.0913,259.0
4034.7046,273.0
4036.3184,328.0
4037.9329,348.0
4039.548,331.0
4041.1638,348.0
4042.7803,369.0
4044.3975,333.0
4046.0151,299.0
4047.6335,263.0
4049.2527,320.0
4050.8723,511.0
4052.4927,455.0
4054.1138,416.0
4055.7354,350.0
4057.3577,321.0
4058.9807,529.0
4060.6042,732.0
4062.2285,484.0
4063.8535,465.0
4065.479,368.0
4067.1052,414.0
4068.7322,453.0
4070.3596,438.0
4071.9878,552.0
4073.6167,562.0
4075.246,469.0
4076.8762,478.0
4078.507,487.0
4080.1384,562.0
4081.7705,657.0
4083.4033,593.0
4085.0366,733.0
4086.6707,873.0
4088.3054,616.0
4089.9407,397.0
4091.5767,397.0
4093.2134,1148.0
4094.8506,1926.0
4096.489,1047.0
4098.1274,502.0
4099.7666,367.0
4101.4067,1185.0
4103.0474,3670.0
4104.6885,2874.0
4106.3306,1008.0
4107.973,494.0
4109.616,334.0
4111.2603,324.0
4112.905,314.0
4114.55,332.0
4116.196,350.0
4117.8423,263.0
4119.4893,230.0
4121.137,272.0
4122.7856,281.0
4124.4346,267.0
4126.0845,209.0
4127.735,228.0
4129.3857,199.0
4131.0376,219.0
4132.69,222.0
4134.343,233.0
4135.9966,208.0
4137.651,232.0
4139.306,213.0
4140.962,218.0
4142.618,196.0
4144.2754,235.0
4145.933,229.0
4147.5913,195.0
4149.2505,198.0
4150.91,207.0
4152.5703,268.0
4154.2314,248.0
4155.893,226.0
4157.5557,219.0
4159.2188,217.0
4160.8823,250.0
4162.547,236.0
4164.212,218.0
4165.8774,268.0
4167.544,251.0
4169.211,233.0
4170.8784,230.0
4172.547,229.0
4174.216,284.0
4175.8857,360.0
4177.556,275.0
4179.227,274.0
4180.899,262.0
4182.5713,218.0
4184.244,209.0
4185.918,225.0
4187.5923,285.0
4189.267,307.0
4190.943,252.0
4192.619,220.0
4194.2964,224.0
4195.974,255.0
4197.6523,272.0
4199.3315,264.0
4201.011,243.0
4202.6914,213.0
4204.3726,234.0
4206.054,251.0
4207.737,200.0
4209.42,213.0
4211.1035,214.0
4212.788,205.0
4214.473,220.0
4216.1587,208.0
4217.845,206.0
4219.532,227.0
4221.22,216.0
4222.9087,231.0
4224.5977,222.0
4226.2876,215.0
4227.978,214.0
4229.6694,205.0
4231.3613,202.0
4233.0537,239.0
4234.747,231.0
4236.441,206.0
4238.1353,237.0
4239.8306,255.0
4241.5264,222.0
4243.223,233.0
4244.9204,267.0
4246.618,246.0
4248.317,245.0
4250.016,218.0
4251.7163,232.0
4253.417,222.0
4255.118,231.0
4256.8203,248.0
4258.523,218.0
4260.2266,279.0
4261.9307,306.0
4263.6353,289.0
4265.341,286.0
4267.047,330.0
4268.754,386.0
4270.4614,278.0
4272.1694,273.0
4273.8784,245.0
4275.588,372.0
4277.2983,531.0
4279.0093,426.0
4280.7207,315.0
4282.433,277.0
4284.146,437.0
4285.86,896.0
4287.574,626.0
4289.289,392.0
4291.005,317.0
4292.721,277.0
4294.4385,245.0
4296.1562,227.0
4297.8745,308.0
4299.5938,348.0
4301.3135,262.0
4303.034,230.0
4304.7554,246.0
4306.477,203.0
4308.1997,193.0
4309.923,225.0
4311.647,203.0
4313.3716,219.0
4315.097,194.0
4316.823,216.0
4318.55,198.0
4320.2773,194.0
4322.0054,240.0
4323.7344,204.0
4325.464,195.0
4327.194,213.0
4328.925,209.0
4330.6562,205.0
4332.3887,210.0
4334.1216,210.0
4335.8555,221.0
4337.59,199.0
4339.3247,221.0
4341.0605,224.0
4342.797,200.0
4344.534,214.0
4346.272,189.0
4348.0103,216.0
4349.7495,219.0
4351.4893,233.0
4353.23,193.0
4354.971,228.0
4356.7134,247.0
4358.456,268.0
4360.199,253.0
4361.9434,243.0
4363.688,210.0
4365.4336,212.0
4367.1797,222.0
4368.927,237.0
4370.6743,218.0
4372.4224,229.0
4374.1714,216.0
4375.921,245.0
4377.6714,240.0
4379.4224,263.0
4381.1743,268.0
4382.927,226.0
4384.6797,218.0
4386.4336,247.0
4388.188,253.0
4389.9434,267.0
4391.699,305.0
4393.456,264.0
4395.2134,234.0
4396.9717,233.0
4398.7305,270.0
4400.4897,289.0
4402.25,283.0
4404.0107,231.0
4405.7725,238.0
4407.5347,294.0
4409.298,368.0
4411.0615,319.0
4412.826,281.0
4414.5913,257.0
4416.357,388.0
4418.1235,487.0
4419.8906,361.0
4421.6587,330.0
4423.4272,291.0
4425.197,287.0
4426.967,224.0
4428.738,327.0
4430.5093,346.0
4432.2812,303.0
4434.054,286.0
4435.8276,289.0
4437.602,329.0
4439.377,402.0
4441.153,391.0
4442.929,291.0
4444.7065,279.0
4446.4844,316.0
4448.263,292.0
4450.0425,318.0
4451.8223,310.0
4453.603,329.0
4455.3843,312.0
4457.1665,303.0
4458.949,331.0
4460.733,369.0
4462.517,339.0
4464.3022,307.0
4466.088,341.0
4467.8745,423.0
4469.6616,436.0
4471.4497,404.0
4473.2383,333.0
4475.0273,311.0
4476.8174,272.0
4478.608,304.0
4480.3994,333.0
4482.1914,363.0
4483.9844,356.0
4485.778,279.0
4487.5723,334.0
4489.367,358.0
4491.163,327.0
4492.9595,313.0
4494.757,286.0
4496.5547,340.0
4498.3535,384.0
4500.153,384.0
4501.953,309.0
4503.754,335.0
4505.555,347.0
4507.3574,352.0
4509.16,303.0
4510.964,323.0
4512.768,367.0
4514.573,428.0
4516.379,337.0
4518.1855,299.0
4519.9927,296.0
4521.801,353.0
4523.6094,370.0
4525.419,329.0
4527.229,280.0
4529.04,339.0
4530.8516,506.0
4532.664,431.0
4534.477,317.0
4536.291,262.0
4538.1055,317.0
4539.921,364.0
4541.737,303.0
4543.5537,261.0
4545.371,250.0
4547.1895,270.0
4549.0083,272.0
4550.828,253.0
4552.6484,268.0
4554.4697,242.0
4556.2915,219.0
4558.1143,230.0
4559.9375,249.0
4561.7617,235.0
4563.5864,239.0
4565.4116,226.0
4567.238,247.0
4569.0645,227.0
4570.892,255.0
4572.72,233.0
4574.5493,230.0
4576.379,244.0
4578.2095,230.0
4580.0405,242.0
4581.8726,252.0
4583.705,246.0
4585.5386,255.0
4587.3726,234.0
4589.2075,229.0
4591.043,310.0
4592.8794,282.0
4594.7163,256.0
4596.554,235.0
4598.3926,246.0
4600.232,297.0
4602.0723,273.0
4603.913,277.0
4605.755,245.0
4607.597,230.0
4609.4404,242.0
4611.284,228.0
4613.129,284.0
4614.974,264.0
4616.8203,239.0
4618.667,200.0
4620.5146,261.0
4622.363,268.0
4624.212,246.0
4626.0615,266.0
4627.912,229.0
4629.763,260.0
4631.615,242.0
4633.468,263.0
4635.3213,267.0
4637.1753,242.0
4639.0303,236.0
4640.8857,246.0
4642.742,241.0
4644.599,273.0
4646.457,227.0
4648.3154,237.0
4650.175,237.0
4652.0347,240.0
4653.8955,216.0
4655.757,232.0
4657.619,226.0
4659.4824,184.0
4661.346,240.0
4663.211,266.0
4665.076,248.0
4666.9424,226.0
4668.809,251.0
4670.677,206.0
4672.545,245.0
4674.414,216.0
4676.2837,223.0
4678.1543,287.0
4680.0254,247.0
4681.8975,260.0
4683.77,221.0
4685.6436,229.0
4687.5176,232.0
4689.3926,231.0
4691.2686,219.0
4693.145,243.0
4695.0225,260.0
4696.9004,227.0
4698.7793,213.0
4700.6587,207.0
4702.539,220.0
4704.42,245.0
4706.302,272.0
4708.184,256.0
4710.0674,246.0
4711.951,250.0
4713.836,293.0
4715.7217,274.0
4717.608,241.0
4719.495,209.0
4721.383,227.0
4723.2715,213.0
4725.1606,225.0
4727.051,226.0
4728.9414,268.0
4730.833,258.0
4732.725,229.0
4734.618,248.0
4736.512,220.0
4738.4067,212.0
4740.3022,208.0
4742.198,219.0
4744.095,258.0
4745.9927,253.0
4747.891,238.0
4749.79,228.0
4751.69,219.0
4753.591,234.0
4755.492,214.0
4757.3945,212.0
4759.2974,211.0
4761.201,222.0
4763.1055,242.0
4765.0107,214.0
4766.9165,209.0
4768.823,221.0
4770.731,232.0
4772.639,208.0
4774.5483,196.0
4776.458,238.0
4778.3687,200.0
4780.28,212.0
4782.192,198.0
4784.105,177.0
4786.0186,199.0
4787.933,185.0
4789.848,199.0
4791.764,182.0
4793.6807,199.0
4795.598,214.0
4797.5166,239.0
4799.4355,154.0
4801.3555,170.0
4803.276,179.0
4805.1973,162.0
4807.119,160.0
4809.042,205.0
4810.966,217.0
4812.89,211.0
4814.8154,179.0
4816.741,230.0
4818.668,188.0
4820.595,189.0
4822.5234,183.0
4824.4526,196.0
4826.3823,194.0
4828.313,194.0
4830.244,201.0
4832.1763,215.0
4834.1094,155.0
4836.043,191.0
4837.9775,179.0
4839.9126,223.0
4841.8486,163.0
4843.785,174.0
4845.7227,155.0
4847.661,203.0
4849.6,168.0
4851.54,173.0
4853.4805,166.0
4855.422,148.0
4857.3643,186.0
4859.307,189.0
4861.251,175.0
4863.1953,193.0
4865.1406,195.0
4867.087,199.0
4869.0337,192.0
4870.9814,192.0
4872.9297,156.0
4874.879,216.0
4876.829,181.0
4878.78,172.0
4880.7314,187.0
4882.6836,176.0
4884.6367,174.0
4886.5903,203.0
4888.545,183.0
4890.5005,175.0
4892.4565,191.0
4894.4136,197.0
4896.3716,158.0
4898.33,181.0
4900.2896,212.0
4902.2495,206.0
4904.2104,178.0
4906.1724,183.0
4908.135,203.0
4910.098,187.0
4912.062,189.0
4914.027,192.0
4915.9927,184.0
4917.959,202.0
4919.9263,222.0
4921.894,204.0
4923.863,237.0
4925.8325,190.0
4927.8027,188.0
4929.774,183.0
4931.7456,175.0
4933.7183,191.0
4935.692,180.0
4937.666,176.0
4939.641,170.0
4941.617,167.0
4943.5938,171.0
4945.5713,181.0
4947.5493,195.0
4949.5283,200.0
4951.5083,173.0
4953.489,185.0
4955.47,220.0
4957.4526,192.0
4959.4355,191.0
4961.4194,157.0
4963.404,177.0
4965.389,211.0
4967.3755,187.0
4969.3623,196.0
4971.35,202.0
4973.339,193.0
4975.328,186.0
4977.3184,181.0
4979.309,212.0
4981.301,200.0
4983.2935,193.0
4985.2866,176.0
4987.281,205.0
4989.276,223.0
4991.2715,187.0
4993.268,206.0
4995.265,202.0
4997.263,227.0
4999.262,210.0
5001.2617,183.0
5003.262,215.0
5005.2637,194.0
5007.2656,228.0
5009.2686,199.0
5011.2725,196.0
5013.277,185.0
5015.282,213.0
5017.2886,188.0
5019.2954,193.0
5021.303,197.0
5023.3115,228.0
5025.321,219.0
5027.331,194.0
5029.342,229.0
5031.3535,194.0
5033.366,190.0
5035.3794,190.0
5037.3936,196.0
5039.4087,205.0
5041.4243,204.0
5043.441,201.0
5045.4585,234.0
5047.4766,227.0
5049.4956,229.0
5051.5156,215.0
5053.536,196.0
5055.5576,198.0
5057.58,191.0
5059.603,213.0
5061.627,206.0
5063.6514,211.0
5065.677,198.0
5067.703,220.0
5069.73,210.0
5071.758,195.0
5073.7866,206.0
5075.816,217.0
5077.846,183.0
5079.8774,177.0
5081.909,197.0
5083.942,198.0
5085.9756,205.0
5088.01,174.0
5090.045,205.0
5092.081,198.0
5094.1177,171.0
5096.1553,173.0
5098.194,187.0
5100.233,174.0
5102.273,196.0
5104.314,210.0
5106.3555,198.0
5108.398,191.0
5110.4414,205.0
5112.4854,200.0
5114.5303,210.0
5116.576,174.0
5118.6226,203.0
5120.67,192.0
5122.7183,194.0
5124.7676,203.0
5126.8174,231.0
5128.868,215.0
5130.92,245.0
5132.972,206.0
5135.0254,195.0
5137.0796,202.0
5139.1343,173.0
5141.19,205.0
5143.2466,184.0
5145.3037,223.0
5147.362,291.0
5149.421,238.0
5151.4805,191.0
5153.541,207.0
5155.6025,228.0
5157.6646,214.0
5159.7275,205.0
5161.7915,237.0
5163.8564,206.0
5165.922,187.0
5167.9883,250.0
5170.0557,193.0
5172.1235,199.0
5174.1924,239.0
5176.262,249.0
5178.3325,218.0
5180.404,207.0
5182.476,205.0
5184.549,216.0
5186.6226,224.0
5188.6973,197.0
5190.773,228.0
5192.849,212.0
5194.9263,211.0
5197.0044,220.0
5199.083,198.0
5201.1626,250.0
5203.243,240.0
5205.324,246.0
5207.4062,217.0
5209.4893,224.0
5211.573,252.0
5213.6577,230.0
5215.743,207.0
5217.8296,216.0
5219.9165,253.0
5222.0044,267.0
5224.0933,223.0
5226.183,238.0
5228.2734,189.0
5230.3647,211.0
5232.457,225.0
5234.55,226.0
5236.6436,248.0
5238.7383,218.0
5240.834,237.0
5242.93,258.0
5245.0273,233.0
5247.1255,239.0
5249.224,206.0
5251.3237,210.0
5253.4243,232.0
5255.526,213.0
5257.628,229.0
5259.731,203.0
5261.835,190.0
5263.9395,235.0
5266.045,189.0
5268.1514,227.0
5270.259,210.0
5272.3667,212.0
5274.4756,219.0
5276.5854,203.0
5278.6963,202.0
5280.8076,231.0
5282.92,259.0
5285.033,228.0
5287.147,222.0
5289.2617,236.0
5291.3774,203.0
5293.494,193.0
5295.6113,216.0
5297.7295,231.0
5299.8486,243.0
5301.9688,263.0
5304.0894,247.0
5306.211,228.0
5308.3335,234.0
5310.457,224.0
5312.581,224.0
5314.706,223.0
5316.832,269.0
5318.959,268.0
5321.0864,271.0
5323.215,243.0
5325.344,246.0
5327.4746,231.0
5329.6055,206.0
5331.7373,223.0
5333.87,212.0
5336.004,217.0
5338.138,244.0
5340.2734,229.0
5342.4097,234.0
5344.547,246.0
5346.6846,196.0
5348.823,236.0
5350.963,192.0
5353.1035,248.0
5355.2446,254.0
5357.3867,278.0
5359.53,247.0
5361.674,227.0
5363.8184,246.0
5365.964,267.0
5368.1104,247.0
5370.258,246.0
5372.406,262.0
5374.5547,257.0
5376.7046,285.0
5378.8555,236.0
5381.007,242.0
5383.159,237.0
5385.3125,238.0
5387.467,261.0
5389.6216,236.0
5391.7773,257.0
5393.934,279.0
5396.092,247.0
5398.25,249.0
5400.409,258.0
5402.5693,216.0
5404.7305,218.0
5406.8926,258.0
5409.055,295.0
5411.2188,277.0
5413.3833,286.0
5415.549,272.0
5417.715,288.0
5419.882,262.0
5422.05,249.0
5424.2188,233.0
5426.3887,270.0
5428.559,271.0
5430.7305,242.0
5432.903,246.0
5435.076,267.0
5437.25,210.0
5439.425,249.0
5441.6006,271.0
5443.7773,255.0
5445.955,236.0
5448.1333,257.0
5450.3125,248.0
5452.4927,273.0
5454.674,249.0
5456.8555,251.0
5459.038,262.0
5461.2217,256.0
5463.4062,261.0
5465.592,243.0
5467.778,285.0
5469.965,244.0
5472.153,278.0
5474.342,305.0
5476.5317,266.0
5478.722,294.0
5480.9136,251.0
5483.106,238.0
5485.2993,284.0
5487.4937,294.0
5489.6885,265.0
5491.8843,286.0
5494.081,237.0
5496.279,267.0
5498.4775,238.0
5500.677,260.0
5502.877,261.0
5505.078,285.0
5507.2803,328.0
5509.4834,289.0
5511.687,266.0
5513.8916,305.0
5516.097,271.0
5518.3037,269.0
5520.511,254.0
5522.719,279.0
5524.928,295.0
5527.138,268.0
5529.349,263.0
5531.561,268.0
5533.7734,276.0
5535.987,302.0
5538.201,281.0
5540.4165,273.0
5542.633,265.0
5544.85,269.0
5547.068,279.0
5549.2866,260.0
5551.5063,289.0
5553.727,272.0
5555.9487,289.0
5558.171,262.0
5560.394,269.0
5562.618,268.0
5564.8433,326.0
5567.0693,273.0
5569.2964,315.0
5571.524,295.0
5573.7524,232.0
5575.982,247.0
5578.2124,253.0
5580.444,257.0
5582.676,311.0
5584.9087,305.0
5587.1426,258.0
5589.3774,254.0
5591.6133,281.0
5593.85,262.0
5596.0874,235.0
5598.3257,270.0
5600.565,291.0
5602.805,319.0
5605.0464,275.0
5607.2886,275.0
5609.5312,245.0
5611.775,275.0
5614.0195,247.0
5616.265,248.0
5618.5117,259.0
5620.7593,253.0
5623.008,222.0
5625.257,254.0
5627.507,273.0
5629.758,267.0
5632.01,249.0
5634.2627,247.0
5636.5166,232.0
5638.771,246.0
5641.0264,242.0
5643.2827,262.0
5645.54,265.0
5647.7983,268.0
5650.0576,284.0
5652.318,242.0
5654.5786,234.0
5656.8403,246.0
5659.103,248.0
5661.3667,281.0
5663.6313,263.0
5665.897,272.0
5668.1636,254.0
5670.4307,267.0
5672.6987,256.0
5674.968,248.0
5677.238,251.0
5679.509,292.0
5681.781,284.0
5684.0537,287.0
5686.327,251.0
5688.6016,261.0
5690.877,288.0
5693.1533,255.0
5695.4307,289.0
5697.709,267.0
5699.9883,280.0
5702.268,290.0
5704.549,300.0
5706.8306,285.0
5709.1133,266.0
5711.397,287.0
5713.6816,282.0
5715.9673,287.0
5718.254,285.0
5720.541,318.0
5722.829,281.0
5725.118,276.0
5727.408,291.0
5729.699,278.0
5731.991,277.0
5734.284,284.0
5736.578,281.0
5738.8726,301.0
5741.168,310.0
5743.4644,293.0
5745.7617,309.0
5748.06,281.0
5750.3594,306.0
5752.6597,344.0
5754.961,325.0
5757.2627,297.0
5759.5654,304.0
5761.869,310.0
5764.174,312.0
5766.4795,337.0
5768.786,340.0
5771.0938,334.0
5773.4023,342.0
5775.712,330.0
5778.022,373.0
5780.333,312.0
5782.645,362.0
5784.958,359.0
5787.272,356.0
5789.587,345.0
5791.903,341.0
5794.2197,323.0
5796.5376,372.0
5798.8564,354.0
5801.176,356.0
5803.496,343.0
5805.8174,382.0
5808.1396,345.0
5810.463,329.0
5812.787,382.0
5815.1123,423.0
5817.4385,371.0
5819.7656,361.0
5822.0938,398.0
5824.4224,380.0
5826.752,347.0
5829.0825,385.0
5831.414,433.0
5833.7466,365.0
5836.08,389.0
5838.4146,477.0
5840.75,483.0
5843.0864,379.0
5845.424,386.0
5847.762,449.0
5850.101,377.0
5852.441,331.0
5854.7817,356.0
5857.1235,341.0
5859.4663,322.0
5861.81,350.0
5864.155,370.0
5866.5005,350.0
5868.847,344.0
5871.195,361.0
5873.5435,343.0
5875.893,361.0
5878.2437,338.0
5880.5947,321.0
5882.947,397.0
5885.3,347.0
5887.654,346.0
5890.009,362.0
5892.3647,354.0
5894.7217,377.0
5897.0796,352.0
5899.4385,337.0
5901.7983,381.0
5904.159,379.0
5906.521,328.0
5908.884,356.0
5911.2476,397.0
5913.612,396.0
5915.977,409.0
5918.3433,362.0
5920.7104,374.0
5923.0786,415.0
5925.4478,366.0
5927.818,444.0
5930.189,443.0
5932.561,351.0
5934.934,433.0
5937.308,383.0
5939.683,401.0
5942.059,404.0
5944.436,430.0
5946.814,389.0
5949.193,382.0
5951.5728,396.0
5953.9536,337.0
5956.335,390.0
5958.7173,422.0
5961.1006,436.0
5963.485,377.0
5965.87,364.0
5968.2563,407.0
5970.6436,425.0
5973.0317,406.0
5975.421,438.0
5977.811,457.0
5980.202,414.0
5982.594,390.0
5984.9873,439.0
5987.3813,442.0
5989.7764,441.0
5992.1724,474.0
5994.5693,449.0
5996.9673,423.0
5999.366,412.0
6001.766,488.0
6004.167,458.0
6006.569,414.0
6008.9717,423.0
6011.3755,467.0
6013.7803,467.0
6016.1855,433.0
6018.592,455.0
6020.999,474.0
6023.407,391.0
6025.8164,342.0
6028.2266,373.0
6030.6377,405.0
6033.05,382.0
6035.463,446.0
6037.877,458.0
6040.292,405.0
6042.708,370.0
6045.125,434.0
6047.543,449.0
6049.962,415.0
6052.382,356.0
6054.8027,398.0
6057.2246,390.0
6059.6475,384.0
6062.0713,461.0
6064.496,496.0
6066.922,422.0
6069.3486,416.0
6071.7764,368.0
6074.205,392.0
6076.635,340.0
6079.0654,374.0
6081.497,402.0
6083.9297,438.0
6086.3633,418.0
6088.798,471.0
6091.2334,398.0
6093.67,388.0
6096.1074,380.0
6098.546,383.0
6100.9854,445.0
6103.426,450.0
6105.867,393.0
6108.3096,396.0
6110.753,458.0
6113.1973,436.0
6115.6426,445.0
6118.089,482.0
6120.536,477.0
6122.9844,436.0
6125.4336,438.0
6127.884,458.0
6130.335,522.0
6132.787,575.0
6135.24,553.0
6137.6943,518.0
6140.1494,518.0
6142.6055,533.0
6145.0625,489.0
6147.5205,532.0
6149.9795,633.0
6152.4395,558.0
6154.9004,512.0
6157.3623,573.0
6159.825,601.0
6162.289,535.0
6164.754,502.0
6167.2197,483.0
6169.6865,523.0
6172.1543,613.0
6174.623,798.0
6177.093,811.0
6179.5635,612.0
6182.035,565.0
6184.508,555.0
6186.9814,587.0
6189.456,589.0
6191.9316,788.0
6194.408,922.0
6196.8857,759.0
6199.3643,637.0
6201.844,663.0
6204.325,560.0
6206.807,551.0
6209.29,473.0
6211.774,517.0
6214.259,570.0
6216.7446,720.0
6219.2314,662.0
6221.719,555.0
6224.208,498.0
6226.6978,531.0
6229.1885,590.0
6231.68,728.0
6234.173,891.0
6236.6665,755.0
6239.161,570.0
6241.6567,516.0
6244.1533,554.0
6246.651,596.0
6249.1494,727.0
6251.649,655.0
6254.1494,619.0
6256.651,710.0
6259.1533,669.0
6261.6567,570.0
6264.1616,538.0
6266.6675,414.0
6269.1743,480.0
6271.682,717.0
6274.191,1066.0
6276.7007,819.0
6279.2114,583.0
6281.723,467.0
6284.236,468.0
6286.7495,491.0
6289.264,900.0
6291.78,1394.0
6294.2964,1061.0
6296.814,620.0
6299.3325,551.0
6301.852,471.0
6304.3726,451.0
6306.8945,414.0
6309.4175,462.0
6311.9414,451.0
6314.4663,437.0
6316.992,451.0
6319.519,462.0
6322.047,387.0
6324.5757,408.0
6327.1055,398.0
6329.636,420.0
6332.168,400.0
6334.7007,444.0
6337.2344,413.0
6339.769,433.0
6342.305,407.0
6344.8423,466.0
6347.3804,465.0
6349.9194,447.0
6352.4595,444.0
6355.0005,460.0
6357.5425,407.0
6360.0854,480.0
6362.6294,480.0
6365.1743,456.0
6367.72,451.0
6370.267,436.0
6372.8154,453.0
6375.3647,418.0
6377.915,437.0
6380.4663,460.0
6383.0186,478.0
6385.572,506.0
6388.126,456.0
6390.681,462.0
6393.2373,455.0
6395.7944,401.0
6398.3525,416.0
6400.912,425.0
6403.4727,532.0
6406.034,545.0
6408.5967,462.0
6411.16,486.0
6413.7246,440.0
6416.29,449.0
6418.8564,469.0
6421.424,426.0
6423.992,468.0
6426.562,457.0
6429.133,448.0
6431.7046,449.0
6434.2773,482.0
6436.851,464.0
6439.426,452.0
6442.0015,436.0
6444.578,457.0
6447.156,501.0
6449.735,479.0
6452.315,437.0
6454.896,466.0
6457.478,477.0
6460.061,415.0
6462.645,473.0
6465.23,451.0
6467.816,456.0
6470.403,429.0
6472.991,445.0
6475.5806,431.0
6478.171,455.0
6480.762,439.0
6483.3545,440.0
6485.9478,459.0
6488.542,428.0
6491.137,464.0
6493.734,480.0
6496.3315,474.0
6498.93,484.0
6501.53,455.0
6504.1304,450.0
6506.732,473.0
6509.3345,480.0
6511.938,483.0
6514.543,513.0
6517.149,489.0
6519.756,464.0
6522.364,495.0
6524.9727,561.0
6527.5825,507.0
6530.1934,517.0
6532.8057,513.0
6535.419,469.0
6538.033,513.0
6540.6484,555.0
6543.2646,535.0
6545.882,541.0
6548.5,550.0
6551.1196,570.0
6553.74,540.0
6556.362,579.0
6558.9844,630.0
6561.608,589.0
6564.2324,500.0
6566.858,484.0
6569.485,541.0
6572.113,532.0
6574.7417,582.0
6577.3716,593.0
6580.0024,509.0
6582.6343,556.0
6585.267,561.0
6587.9014,537.0
6590.5366,582.0
6593.173,610.0
6595.81,602.0
6598.448,538.0
6601.0874,528.0
6603.728,539.0
6606.3696,515.0
6609.012,526.0
6611.656,595.0
6614.3003,545.0
6616.946,560.0
6619.593,549.0
6622.2407,639.0
6624.8896,574.0
6627.5396,528.0
6630.1904,514.0
6632.8423,489.0
6635.4956,512.0
6638.15,620.0
6640.805,584.0
6643.4614,586.0
6646.1187,530.0
6648.7773,540.0
6651.437,507.0
6654.0977,572.0
6656.7593,649.0
6659.422,613.0
6662.0854,495.0
6664.7505,545.0
6667.4165,517.0
6670.0835,466.0
6672.7515,500.0
6675.4204,474.0
6678.091,475.0
6680.762,520.0
6683.4346,490.0
6686.108,428.0
6688.782,477.0
6691.4575,477.0
6694.1343,550.0
6696.812,610.0
6699.4907,588.0
6702.1704,471.0
6704.851,469.0
6707.533,502.0
6710.2163,496.0
6712.9004,509.0
6715.5854,568.0
6718.2715,516.0
6720.959,512.0
6723.6475,605.0
6726.337,535.0
6729.0273,504.0
6731.7188,465.0
6734.4116,476.0
6737.1055,515.0
6739.8003,596.0
6742.496,633.0
6745.193,555.0
6747.891,520.0
6750.5903,514.0
6753.2905,535.0
6755.9917,588.0
6758.6943,656.0
6761.398,680.0
6764.1025,639.0
6766.808,605.0
6769.5146,567.0
6772.2227,548.0
6774.9316,530.0
6777.6416,662.0
6780.3525,648.0
6783.0645,633.0
6785.778,694.0
6788.492,578.0
6791.2075,656.0
6793.924,623.0
6796.6416,566.0
6799.3604,601.0
6802.08,554.0
6804.801,597.0
6807.5225,771.0
6810.2456,818.0
6812.9697,726.0
6815.695,556.0
6818.421,496.0
6821.1484,734.0
6823.877,1020.0
6826.6064,971.0
6829.337,730.0
6832.069,517.0
6834.802,526.0
6837.5356,595.0
6840.2705,698.0
6843.007,831.0
6845.744,732.0
6848.4824,515.0
6851.2217,533.0
6853.9624,758.0
6856.704,902.0
6859.447,729.0
6862.1904,628.0
6864.9355,506.0
6867.6816,500.0
6870.4287,520.0
6873.177,484.0
6875.9263,467.0
6878.677,510.0
6881.428,497.0
6884.1807,522.0
6886.9346,478.0
6889.6895,446.0
6892.4453,494.0
6895.202,491.0
6897.9604,492.0
6900.7197,489.0
6903.48,538.0
6906.241,473.0
6909.004,523.0
6911.7676,563.0
6914.532,544.0
6917.298,523.0
6920.065,560.0
6922.833,540.0
6925.602,460.0
6928.372,492.0
6931.1436,574.0
6933.916,510.0
6936.6895,518.0
6939.4644,494.0
6942.24,499.0
6945.017,507.0
6947.795,550.0
6950.574,564.0
6953.3545,494.0
6956.1357,525.0
6958.918,515.0
6961.7017,530.0
6964.4863,567.0
6967.272,496.0
6970.059,533.0
6972.847,565.0
6975.636,601.0
6978.4263,561.0
6981.218,599.0
6984.0103,617.0
6986.8037,565.0
6989.5986,604.0
6992.3945,674.0
6995.1914,687.0
6997.9893,683.0
7000.7886,676.0
7003.589,630.0
7006.39,661.0
7009.193,672.0
7011.9966,634.0
7014.8013,632.0
7017.6074,743.0
7020.4146,681.0
7023.2227,802.0
7026.0317,898.0
7028.8423,721.0
7031.654,634.0
7034.4663,500.0
7037.2803,513.0
7040.095,650.0
7042.911,935.0
7045.7285,819.0
7048.547,586.0
7051.366,510.0
7054.1865,534.0
7057.0083,709.0
7059.831,1180.0
7062.655,1141.0
7065.48,692.0
7068.306,550.0
7071.1333,590.0
7073.962,551.0
7076.7915,489.0
7079.622,514.0
7082.454,572.0
7085.287,559.0
7088.121,577.0
7090.9565,502.0
7093.793,529.0
7096.6304,596.0
7099.469,587.0
7102.309,572.0
7105.15,583.0
7107.992,642.0
7110.8354,609.0
7113.6797,668.0
7116.5254,636.0
7119.372,607.0
7122.2197,665.0
7125.069,743.0
7127.919,744.0
7130.77,686.0
7133.6226,599.0
7136.476,617.0
7139.3306,845.0
7142.1865,837.0
7145.0435,788.0
7147.9014,697.0
7150.7607,704.0
7153.621,732.0
7156.4824,1024.0
7159.345,1102.0
7162.209,860.0
7165.0737,741.0
7167.94,752.0
7170.807,893.0
7173.6753,888.0
7176.545,772.0
7179.4155,808.0
7182.287,808.0
7185.16,782.0
7188.034,826.0
7190.909,901.0
7193.7856,730.0
7196.663,991.0
7199.542,1113.0
7202.422,867.0
7205.3027,624.0
7208.185,499.0
7211.0684,635.0
7213.9526,1239.0
7216.8384,1293.0
7219.725,843.0
7222.613,641.0
7225.502,566.0
7228.392,751.0
7231.283,1780.0
7234.176,2034.0
7237.0693,1099.0
7239.9644,706.0
7242.8604,556.0
7245.7573,525.0
7248.656,528.0
7251.555,542.0
7254.4556,539.0
7257.3574,507.0
7260.2603,467.0
7263.1646,489.0
7266.07,516.0
7268.976,573.0
7271.884,535.0
7274.7925,475.0
7277.7026,507.0
7280.614,493.0
7283.526,521.0
7286.4395,538.0
7289.354,532.0
7292.2695,496.0
7295.1865,648.0
7298.1045,566.0
7301.024,543.0
7303.9443,527.0
7306.8657,471.0
7309.7886,541.0
7312.7124,773.0
7315.6377,667.0
7318.564,539.0
7321.491,481.0
7324.42,464.0
7327.3496,588.0
7330.281,875.0
7333.213,781.0
7336.146,574.0
7339.0806,518.0
7342.016,481.0
7344.953,557.0
7347.891,622.0
7350.83,554.0
7353.7705,518.0
7356.712,586.0
7359.655,491.0
7362.5986,506.0
7365.5435,486.0
7368.4897,510.0
7371.437,496.0
7374.3857,574.0
7377.3354,510.0
7380.2866,567.0
7383.239,541.0
7386.192,553.0
7389.1465,541.0
7392.102,452.0
7395.059,489.0
7398.017,570.0
7400.976,662.0
7403.9365,544.0
7406.898,562.0
7409.861,473.0
7412.8247,441.0
7415.79,550.0
7418.7563,610.0
7421.7236,562.0
7424.6924,532.0
7427.662,435.0
7430.6333,426.0
7433.6055,567.0
7436.579,571.0
7439.5537,506.0
7442.5293,545.0
7445.5063,494.0
7448.4844,444.0
7451.464,473.0
7454.4443,424.0
7457.4263,430.0
7460.409,437.0
7463.3936,426.0
7466.379,440.0
7469.365,527.0
7472.353,444.0
7475.342,403.0
7478.332,375.0
7481.323,410.0
7484.316,634.0
7487.3096,641.0
7490.3047,533.0
7493.301,433.0
7496.2983,402.0
7499.297,425.0
7502.2964,416.0
7505.2974,395.0
7508.2993,391.0
7511.3027,389.0
7514.307,402.0
7517.313,375.0
7520.32,426.0
7523.328,419.0
7526.3374,439.0
7529.348,392.0
7532.36,406.0
7535.373,397.0
7538.387,368.0
7541.4023,385.0
7544.419,435.0
7547.4365,454.0
7550.4556,423.0
7553.4756,360.0
7556.497,413.0
7559.5195,392.0
7562.5435,468.0
7565.5684,501.0
7568.5947,410.0
7571.622,402.0
7574.651,409.0
7577.6807,394.0
7580.712,460.0
7583.744,449.0
7586.778,436.0
7589.8125,345.0
7592.8486,384.0
7595.8857,394.0
7598.9243,473.0
7601.964,443.0
7605.005,412.0
7608.047,332.0
7611.0903,353.0
7614.135,417.0
7617.18,571.0
7620.227,508.0
7623.275,387.0
7626.324,344.0
7629.3745,392.0
7632.4263,407.0
7635.479,380.0
7638.533,374.0
7641.5884,387.0
7644.645,366.0
7647.7026,363.0
7650.7617,359.0
7653.8223,385.0
7656.884,362.0
7659.947,362.0
7663.0107,380.0
7666.076,402.0
7669.1426,395.0
7672.2104,406.0
7675.2793,416.0
7678.3496,385.0
7681.421,370.0
7684.4937,355.0
7687.5674,393.0
7690.6426,406.0
7693.7188,436.0
7696.7964,389.0
7699.875,401.0
7702.955,403.0
7706.036,427.0
7709.1187,426.0
7712.202,420.0
7715.287,432.0
7718.373,456.0
7721.4604,413.0
7724.549,468.0
7727.6387,456.0
7730.7295,437.0
7733.822,428.0
7736.9155,455.0
7740.0103,486.0
7743.1064,475.0
7746.2036,556.0
7749.3022,508.0
7752.402,512.0
7755.503,499.0
7758.605,497.0
7761.7085,481.0
7764.813,458.0
7767.919,491.0
7771.026,589.0
7774.1343,576.0
7777.244,481.0
7780.355,468.0
7783.4673,470.0
7786.5806,621.0
7789.6953,732.0
7792.811,579.0
7795.928,458.0
7799.0464,528.0
7802.166,514.0
7805.287,555.0
7808.409,565.0
7811.5327,640.0
7814.657,564.0
7817.783,485.0
7820.91,496.0
7824.0386,537.0
7827.168,591.0
7830.299,590.0
7833.431,616.0
7836.5645,541.0
7839.699,483.0
7842.835,580.0
7845.972,665.0
7849.1104,654.0
7852.25,553.0
7855.391,516.0
7858.533,536.0
7861.677,521.0
7864.8213,540.0
7867.9673,516.0
7871.1143,559.0
7874.2627,604.0
7877.4126,624.0
7880.5635,586.0
7883.716,626.0
7886.869,635.0
7890.024,501.0
7893.18,561.0
7896.3374,562.0
7899.496,718.0
7902.656,714.0
7905.817,669.0
7908.979,631.0
7912.1426,629.0
7915.3076,660.0
7918.4736,888.0
7921.641,818.0
7924.8096,683.0
7927.9795,629.0
7931.151,658.0
7934.323,666.0
7937.497,741.0
7940.672,778.0
7943.848,784.0
7947.026,776.0
7950.2046,806.0
7953.385,793.0
7956.566,887.0
7959.7485,846.0
7962.9326,910.0
7966.1177,952.0
7969.304,935.0
7972.4917,1002.0
7975.6807,939.0
7978.871,1030.0
7982.0625,1094.0
7985.2554,1108.0
7988.4497,1146.0
7991.645,1158.0
7994.842,1123.0
7998.0396,1157.0
8001.239,1165.0
8004.4395,1311.0
8007.641,1369.0
8010.844,1416.0
8014.0483,1411.0
8017.254,1357.0
8020.461,1442.0
8023.669,1543.0
8026.8784,1524.0
8030.0894,1540.0
8033.3013,1636.0
8036.5146,1834.0
8039.7295,1995.0
8042.9453,1905.0
8046.1626,1622.0
8049.381,1762.0
8052.6006,2108.0
8055.822,2570.0
8059.044,2466.0
8062.2676,2150.0
8065.4927,2291.0
8068.7188,2606.0
8071.9463,2685.0
8075.1753,3021.0
8078.4053,2846.0
8081.6367,3155.0
8084.869,3767.0
8088.103,3286.0
8091.3384,2725.0
8094.5747,2434.0
8097.8125,3312.0
8101.052,5234.0
8104.292,4693.0
8107.5337,3704.0
8110.777,3127.0
8114.021,3210.0
8117.2666,6059.0
8120.5137,7383.0
8123.7617,5855.0
8127.011,5156.0
8130.262,4144.0
8133.514,4270.0
8136.7676,4816.0
8140.0225,5357.0
8143.2783,6656.0
8146.5356,6514.0
8149.7944,4986.0
8153.054,6029.0
8156.3154,5579.0
8159.578,5869.0
8162.842,7117.0
8166.107,6629.0
8169.3735,10564.0
8172.641,10434.0
8175.91,5935.0
8179.1807,3223.0
8182.452,3673.0
8185.725,15002.0
8188.9995,20434.0
8192.275,9599.0
8195.553,3827.0
8198.831,2928.0
8202.11,13799.0
8205.392,36301.0
8208.674,22178.0
8211.957,7325.0
8215.242,3072.0
8218.528,2310.0
8221.815,1954.0
8225.1045,2214.0
8228.395,2467.0
8231.686,1933.0
8234.979,1368.0
8238.272,1143.0
8241.567,1166.0
8244.864,1409.0
8248.162,1364.0
8251.461,1153.0
8254.762,1045.0
8258.063,1056.0
8261.367,1193.0
8264.672,1255.0
8267.978,1104.0
8271.285,1106.0
8274.594,1060.0
8277.903,1007.0
8281.215,986.0
8284.527,963.0
8287.841,1175.0
8291.156,1185.0
8294.473,1072.0
8297.79,1015.0
8301.109,1024.0
8304.43,1151.0
8307.751,1275.0
8311.074,1156.0
8314.398,1246.0
8317.725,1187.0
8321.052,1169.0
8324.38,956.0
8327.71,1123.0
8331.041,1431.0
8334.373,1386.0
8337.707,1113.0
8341.042,979.0
8344.378,1106.0
8347.716,1519.0
8351.055,1753.0
8354.3955,1281.0
8357.737,1256.0
8361.08,1211.0
8364.425,952.0
8367.7705,826.0
8371.117,833.0
8374.466,1306.0
8377.815,1391.0
8381.167,989.0
8384.52,727.0
8387.873,838.0
8391.229,1101.0
8394.585,1390.0
8397.942,1058.0
8401.302,781.0
8404.662,767.0
8408.024,893.0
8411.388,786.0
8414.752,745.0
8418.118,712.0
8421.485,749.0
8424.854,649.0
8428.224,653.0
8431.595,760.0
8434.968,730.0
8438.342,722.0
8441.717,691.0
8445.094,717.0
8448.472,832.0
8451.851,789.0
8455.231,817.0
8458.613,810.0
8461.997,838.0
8465.382,854.0
8468.768,888.0
8472.155,943.0
8475.544,936.0
8478.935,923.0
8482.326,817.0
8485.719,1039.0
8489.113,1198.0
8492.509,1245.0
8495.906,1073.0
8499.305,1118.0
8502.704,1210.0
8506.105,1241.0
8509.508,1560.0
8512.911,1313.0
8516.316,1439.0
8519.723,1564.0
8523.131,1412.0
8526.54,1510.0
8529.95,1498.0
8533.362,2145.0
8536.775,2591.0
8540.19,1829.0
8543.606,1129.0
8547.023,987.0
8550.442,2667.0
8553.862,3948.0
8557.284,2313.0
8560.707,1276.0
8564.131,1102.0
8567.557,3114.0
8570.983,5959.0
8574.412,3708.0
8577.842,1908.0
8581.272,1257.0
8584.705,924.0
8588.139,785.0
8591.574,890.0
8595.011,1358.0
8598.449,1215.0
8601.889,824.0
8605.329,655.0
8608.771,696.0
8612.215,622.0
8615.66,608.0
8619.106,655.0
8622.554,657.0
8626.003,623.0
8629.453,612.0
8632.905,594.0
8636.358,655.0
8639.8125,679.0
8643.269,713.0
8646.726,669.0
8650.185,612.0
8653.645,669.0
8657.106,649.0
8660.569,684.0
8664.033,649.0
8667.499,682.0
8670.966,708.0
8674.435,715.0
8677.904,711.0
8681.375,743.0
8684.848,762.0
8688.321,760.0
8691.797,703.0
8695.273,843.0
8698.752,911.0
8702.231,820.0
8705.712,786.0
8709.194,906.0
8712.678,947.0
8716.163,1061.0
8719.649,983.0
8723.138,1022.0
8726.627,928.0
8730.117,1004.0
8733.609,1070.0
8737.103,1045.0
8740.598,1034.0
8744.094,1057.0
8747.592,1093.0
8751.091,1168.0
8754.591,1190.0
8758.093,1267.0
8761.596,1132.0
8765.101,1215.0
8768.606,1310.0
8772.114,1439.0
8775.623,1406.0
8779.133,1384.0
8782.645,1404.0
8786.157,1334.0
8789.672,1517.0
8793.1875,1469.0
8796.705,1889.0
8800.224,2099.0
8803.744,1643.0
8807.266,1341.0
8810.788,1366.0
8814.3125,2552.0
8817.838,2847.0
8821.365,1883.0
8824.894,1500.0
8828.424,1604.0
8831.955,2875.0
8835.488,3234.0
8839.022,2239.0
8842.558,1905.0
8846.095,1614.0
8849.633,1450.0
8853.173,1452.0
8856.714,2141.0
8860.257,2486.0
8863.801,1928.0
8867.347,1572.0
8870.894,1592.0
8874.442,2197.0
8877.992,3070.0
8881.543,2389.0
8885.096,1866.0
8888.649,1640.0
8892.205,1615.0
8895.762,1712.0
8899.32,2003.0
8902.88,2125.0
8906.441,1704.0
8910.004,1575.0
8913.568,1720.0
8917.134,2390.0
8920.7,2277.0
8924.269,1873.0
8927.838,1640.0
8931.409,1863.0
8934.981,2623.0
8938.556,2418.0
8942.131,1959.0
8945.708,1837.0
8949.286,1700.0
8952.866,1350.0
8956.447,1468.0
8960.03,1862.0
8963.614,1878.0
8967.199,1485.0
8970.786,1359.0
8974.374,1479.0
8977.964,1778.0
8981.555,1737.0
8985.147,1376.0
8988.741,1290.0
8992.337,1577.0
8995.934,1802.0
8999.532,1523.0
9003.132,1354.0
9006.733,1403.0
9010.336,1728.0
9013.94,1520.0
9017.546,1303.0
9021.153,1351.0
9024.762,1667.0
9028.372,1771.0
9031.983,1314.0
9035.597,1096.0
9039.211,1218.0
9042.826,1838.0
9046.443,1564.0
9050.062,1110.0
9053.682,994.0
9057.303,1364.0
9060.926,2253.0
9064.55,1786.0
9068.176,1090.0
9071.803,873.0
9075.432,1256.0
9079.062,1369.0
9082.693,1085.0
9086.326,937.0
9089.961,897.0
9093.597,1074.0
9097.234,998.0
9100.873,819.0
9104.514,888.0
9108.155,846.0
9111.799,755.0
9115.443,713.0
9119.09,821.0
9122.737,920.0
9126.387,850.0
9130.037,817.0
9133.689,710.0
9137.343,891.0
9140.998,954.0
9144.654,846.0
9148.3125,847.0
9151.972,742.0
9155.633,669.0
9159.295,742.0
9162.959,984.0
9166.624,961.0
9170.291,816.0
9173.959,661.0
9177.629,722.0
9181.3,1115.0
9184.973,1151.0
9188.646,801.0
9192.322,698.0
9195.999,853.0
9199.678,1076.0
9203.357,914.0
9207.039,863.0
9210.722,667.0
9214.406,592.0
9218.092,497.0
9221.779,647.0
9225.468,787.0
9229.158,720.0
9232.85,610.0
9236.543,482.0
9240.237,737.0
9243.934,824.0
9247.631,650.0
9251.33,614.0
9255.03,480.0
9258.732,396.0
9262.436,404.0
9266.141,490.0
9269.847,519.0
9273.555,392.0
9277.264,337.0
9280.975,418.0
9284.687,462.0
9288.4,451.0
9292.116,340.0
9295.833,386.0
9299.552,376.0
9303.271,341.0
9306.993,358.0
9310.716,377.0
9314.44,380.0
9318.166,374.0
9321.894,335.0
9325.622,353.0
9329.353,378.0
9333.084,337.0
9336.817,346.0
9340.552,332.0
9344.288,334.0
9348.025,330.0
9351.765,326.0
9355.505,349.0
9359.247,283.0
9362.991,337.0
9366.736,303.0
9370.483,360.0
9374.231,333.0
9377.981,320.0
9381.732,303.0
9385.485,303.0
9389.239,327.0
9392.995,330.0
9396.752,288.0
9400.511,286.0
9404.2705,303.0
9408.032,279.0
9411.796,337.0
9415.561,283.0
9419.327,269.0
9423.095,306.0
9426.864,325.0
9430.635,327.0
9434.407,270.0
9438.181,284.0
9441.956,317.0
9445.732,324.0
9449.511,271.0
9453.291,280.0
9457.072,288.0
9460.855,308.0
9464.64,318.0
9468.426,280.0
9472.213,285.0
9476.002,228.0
9479.792,242.0
9483.584,255.0
9487.377,322.0
9491.172,314.0
9494.969,271.0
9498.767,262.0
9502.566,259.0
9506.367,334.0
9510.17,296.0
9513.974,273.0
9517.779,240.0
9521.586,232.0
9525.395,261.0
9529.205,250.0
9533.017,272.0
9536.83,229.0
9540.645,252.0
9544.461,236.0
9548.278,290.0
9552.098,312.0
9555.919,222.0
9559.741,205.0
9563.565,242.0
9567.391,221.0
9571.218,227.0
9575.046,256.0
9578.876,246.0
9582.708,244.0
9586.541,220.0
9590.376,203.0
9594.212,246.0
9598.05,228.0
9601.889,220.0
9605.7295,229.0
9609.572,179.0
9613.416,237.0
9617.262,189.0
9621.108,206.0
9624.957,222.0
9628.807,209.0
9632.658,195.0
9636.512,225.0
9640.366,174.0
9644.223,210.0
9648.08,200.0
9651.939,211.0
9655.8,171.0
9659.662,187.0
9663.526,212.0
9667.392,185.0
9671.259,184.0
9675.127,209.0
9678.997,211.0
9682.869,215.0
9686.742,169.0
9690.617,179.0
9694.493,181.0
9698.371,171.0
9702.25,187.0
9706.131,196.0
9710.014,158.0
9713.897,158.0
9717.783,189.0
9721.67,212.0
9725.559,185.0
9729.449,161.0
9733.341,183.0
9737.234,192.0
9741.129,189.0
9745.025,187.0
9748.924,204.0
9752.823,199.0
9756.725,172.0
9760.627,195.0
9764.531,176.0
9768.4375,168.0
9772.345,189.0
9776.254,203.0
9780.164,182.0
9784.076,185.0
9787.99,172.0
9791.905,174.0
9795.822,180.0
9799.74,186.0
9803.66,200.0
9807.582,177.0
9811.505,176.0
9815.43,172.0
9819.355,187.0
9823.283,181.0
9827.213,203.0
9831.144,215.0
9835.076,203.0
9839.01,189.0
9842.945,189.0
9846.883,245.0
9850.821,229.0
9854.762,185.0
9858.704,171.0
9862.647,176.0
9866.593,174.0
9870.539,194.0
9874.487,188.0
9878.4375,190.0
9882.389,199.0
9886.342,164.0
9890.296,179.0
9894.252,173.0
9898.21,217.0
9902.169,185.0
9906.13,162.0
9910.093,187.0
9914.057,184.0
9918.022,184.0
9921.989,185.0
9925.958,194.0
9929.929,195.0
9933.9,198.0
9937.874,210.0
9941.85,178.0
9945.826,192.0
9949.805,218.0
9953.784,177.0
9957.766,194.0
9961.749,191.0
9965.733,178.0
9969.72,196.0
9973.708,184.0
9977.697,170.0
9981.688,205.0
9985.681,207.0
9989.675,170.0
9993.671,196.0
9997.668,166.0
10001.667,201.0
10005.668,184.0
10009.67,203.0
10013.674,167.0
10017.68,187.0
10021.687,187.0
10025.695,174.0
10029.706,191.0
10033.718,197.0
10037.731,189.0
10041.746,187.0
10045.763,168.0
10049.781,212.0
10053.801,200.0
10057.822,168.0
10061.846,198.0
10065.87,183.0
10069.896,210.0
10073.925,191.0
10077.954,176.0
10081.985,166.0
10086.019,172.0
10090.053,166.0
10094.089,181.0
10098.127,185.0
10102.166,157.0
10106.207,200.0
10110.25,197.0
10114.294,201.0
10118.34,202.0
10122.387,192.0
10126.436,181.0
10130.486,192.0
10134.538,195.0
10138.592,200.0
10142.647,188.0
10146.704,189.0
10150.763,196.0
10154.823,201.0
10158.885,181.0
10162.948,189.0
10167.014,193.0
10171.08,199.0
10175.148,222.0
10179.219,220.0
10183.29,209.0
10187.363,191.0
10191.438,213.0
10195.515,173.0
10199.593,185.0
10203.673,231.0
10207.754,213.0
10211.837,173.0
10215.922,208.0
10220.008,200.0
10224.096,196.0
10228.186,201.0
10232.276,214.0
10236.369,192.0
10240.464,186.0
10244.56,194.0
10248.657,206.0
10252.757,209.0
10256.858,185.0
10260.961,201.0
10265.065,195.0
10269.172,208.0
10273.279,187.0
10277.389,199.0
10281.5,207.0
10285.612,187.0
10289.727,177.0
10293.843,201.0
10297.96,171.0
10302.079,185.0
10306.2,215.0
10310.322,190.0
10314.446,180.0
10318.572,219.0
10322.699,220.0
10326.828,197.0
10330.959,218.0
10335.092,190.0
10339.226,207.0
10343.361,215.0
10347.499,208.0
10351.638,209.0
10355.778,239.0
10359.921,212.0
10364.064,232.0
10368.21,210.0
10372.357,214.0
10376.507,236.0
10380.657,195.0
10384.81,181.0
10388.964,204.0
10393.119,210.0
10397.276,181.0
10401.436,236.0
10405.596,205.0
10409.758,214.0
10413.922,229.0
10418.088,218.0
10422.255,192.0
10426.424,222.0
10430.595,185.0
10434.767,200.0
10438.94,204.0
10443.116,203.0
10447.294,204.0
10451.473,209.0
10455.653,189.0
10459.836,216.0
10464.02,224.0
10468.205,196.0
10472.393,223.0
10476.581,211.0
10480.771,217.0
10484.964,212.0
10489.158,207.0
10493.354,216.0
10497.551,174.0
10501.75,230.0
10505.951,173.0
10510.153,209.0
10514.357,182.0
10518.563,185.0
10522.7705,194.0
10526.9795,208.0
10531.19,213.0
10535.403,211.0
10539.617,199.0
10543.833,178.0
10548.051,207.0
10552.27,191.0
10556.49,222.0
10560.713,192.0
10564.9375,221.0
10569.163,198.0
10573.391,206.0
10577.62,220.0
10581.852,188.0
10586.084,187.0
10590.318,187.0
10594.555,188.0
10598.793,214.0
10603.032,208.0
10607.273,204.0
10611.517,171.0
10615.761,181.0
10620.007,223.0
10624.255,221.0
10628.505,217.0
10632.756,226.0
10637.009,192.0
10641.264,198.0
10645.5205,221.0
10649.778,207.0
10654.038,218.0
10658.3,220.0
10662.563,190.0
10666.828,217.0
10671.095,200.0
10675.363,191.0
10679.634,235.0
10683.905,245.0
10688.179,204.0
10692.454,219.0
10696.731,217.0
10701.01,242.0
10705.29,218.0
10709.572,247.0
10713.856,227.0
10718.142,222.0
10722.429,253.0
10726.718,224.0
10731.009,232.0
10735.301,206.0
10739.595,262.0
10743.891,258.0
10748.188,215.0
10752.487,241.0
10756.788,236.0
10761.091,242.0
10765.3955,225.0
10769.702,252.0
10774.01,241.0
10778.319,223.0
10782.631,241.0
10786.944,224.0
10791.259,202.0
10795.575,206.0
10799.894,220.0
10804.214,199.0
10808.535,203.0
10812.858,252.0
10817.184,205.0
10821.511,207.0
10825.839,218.0
10830.169,217.0
10834.501,220.0
10838.835,216.0
10843.171,216.0
10847.508,220.0
10851.847,221.0
10856.1875,236.0
10860.53,227.0
10864.874,238.0
10869.22,222.0
10873.567,213.0
10877.917,228.0
10882.269,222.0
10886.621,207.0
10890.976,215.0
10895.332,217.0
10899.69,234.0
10904.051,238.0
10908.412,236.0
10912.775,219.0
10917.141,232.0
10921.508,230.0
10925.876,226.0
10930.246,206.0
10934.618,210.0
10938.992,210.0
10943.368,253.0
10947.745,228.0
10952.124,230.0
10956.505,205.0
10960.888,240.0
10965.272,220.0
10969.658,255.0
10974.046,212.0
10978.436,225.0
10982.827,246.0
10987.221,225.0
10991.615,222.0
10996.012,262.0
11000.41,228.0
11004.811,221.0
11009.213,237.0
11013.616,244.0
11018.021,231.0
11022.429,221.0
11026.838,258.0
11031.249,230.0
11035.661,201.0
11040.075,226.0
11044.491,274.0
11048.909,252.0
11053.329,250.0
11057.75,231.0
11062.173,261.0
11066.598,233.0
11071.024,243.0
11075.453,274.0
11079.884,244.0
11084.315,239.0
11088.749,229.0
11093.185,264.0
11097.622,231.0
11102.062,264.0
11106.502,248.0
11110.944,263.0
11115.389,278.0
11119.835,253.0
11124.283,238.0
11128.733,271.0
11133.185,226.0
11137.638,276.0
11142.093,252.0
11146.55,210.0
11151.009,257.0
11155.469,256.0
11159.931,260.0
11164.395,218.0
11168.86,255.0
11173.328,250.0
11177.798,243.0
11182.269,232.0
11186.741,274.0
11191.216,252.0
11195.692,268.0
11200.171,249.0
11204.651,250.0
11209.133,253.0
11213.616,286.0
11218.102,263.0
11222.589,252.0
11227.078,292.0
11231.569,252.0
11236.062,291.0
11240.556,288.0
11245.052,278.0
11249.55,269.0
11254.05,296.0
11258.552,287.0
11263.056,296.0
11267.561,294.0
11272.067,296.0
11276.576,281.0
11281.087,277.0
11285.6,308.0
11290.114,340.0
11294.63,313.0
11299.147,313.0
11303.667,346.0
11308.188,309.0
11312.712,315.0
11317.237,339.0
11321.765,367.0
11326.293,353.0
11330.823,341.0
11335.355,308.0
11339.89,342.0
11344.426,357.0
11348.964,346.0
11353.504,387.0
11358.045,371.0
11362.588,338.0
11367.133,408.0
11371.68,403.0
11376.229,382.0
11380.779,425.0
11385.332,402.0
11389.886,436.0
11394.441,440.0
11398.999,487.0
11403.559,432.0
11408.12,479.0
11412.684,502.0
11417.249,520.0
11421.816,486.0
11426.385,528.0
11430.955,547.0
11435.527,509.0
11440.102,541.0
11444.678,519.0
11449.256,586.0
11453.836,550.0
11458.417,565.0
11463.0,587.0
11467.585,591.0
11472.172,609.0
11476.761,629.0
11481.352,656.0
11485.944,686.0
11490.539,627.0
11495.136,687.0
11499.733,697.0
11504.333,675.0
11508.935,728.0
11513.538,750.0
11518.144,783.0
11522.751,676.0
11527.36,812.0
11531.972,785.0
11536.584,713.0
11541.198,737.0
11545.814,902.0
11550.433,811.0
11555.053,676.0
11559.675,864.0
11564.299,812.0
11568.925,832.0
11573.553,793.0
11578.183,863.0
11582.813,857.0
11587.446,790.0
11592.081,844.0
11596.718,932.0
11601.356,866.0
11605.997,752.0
11610.64,956.0
11615.284,946.0
11619.931,745.0
11624.579,922.0
11629.229,913.0
11633.88,831.0
11638.533,799.0
11643.188,981.0
11647.846,866.0
11652.505,703.0
11657.166,903.0
11661.829,1020.0
11666.494,795.0
11671.161,688.0
11675.83,1229.0
11680.5,1156.0
11685.172,722.0
11689.846,638.0
11694.521,827.0
11699.199,643.0
11703.879,551.0
11708.561,559.0
11713.244,489.0
11717.93,462.0
11722.617,481.0
11727.307,475.0
11731.998,442.0
11736.69,410.0
11741.385,418.0
11746.081,369.0
11750.779,342.0
11755.4795,388.0
11760.182,392.0
11764.886,382.0
11769.592,365.0
11774.3,408.0
11779.01,348.0
11783.722,356.0
11788.436,371.0
11793.151,350.0
11797.868,361.0
11802.587,359.0
11807.308,369.0
11812.03,337.0
11816.755,336.0
11821.481,368.0
11826.21,367.0
11830.94,326.0
11835.673,360.0
11840.407,313.0
11845.144,347.0
11849.882,311.0
11854.622,312.0
11859.364,280.0
11864.108,252.0
11868.8545,272.0
11873.602,268.0
11878.351,249.0
11883.102,294.0
11887.8545,247.0
11892.609,255.0
11897.366,283.0
11902.125,266.0
11906.886,273.0
11911.648,240.0
11916.413,259.0
11921.18,217.0
11925.948,251.0
11930.719,242.0
11935.491,255.0
11940.266,230.0
11945.042,238.0
11949.82,230.0
11954.601,244.0
11959.383,248.0
11964.167,252.0
11968.953,220.0
11973.74,240.0
11978.529,229.0
11983.32,222.0
11988.113,263.0
11992.908,242.0
