M/Z,Intensity
800.0,178.0
800.32,186.0
800.64014,61.0
800.9604,209.0
801.28076,234.0
801.60126,82.0
801.9219,122.0
802.2426,195.0
802.56354,79.0
802.8846,266.0
803.20575,184.0
803.52704,94.0
803.84845,137.0
804.17,224.0
804.49164,96.0
804.8134,68.0
805.1353,191.0
805.4574,129.0
805.7796,83.0
806.1019,181.0
806.4244,188.0
806.74695,71.0
807.06964,190.0
807.39246,171.0
807.7154,55.0
808.03845,142.0
808.3617,219.0
808.68506,72.0
809.00854,146.0
809.33215,195.0
809.6559,63.0
809.97974,125.0
810.3037,249.0
810.6278,104.0
810.9521,133.0
811.2765,179.0
811.601,78.0
811.92566,114.0
812.2504,173.0
812.5753,101.0
812.9003,103.0
813.22546,185.0
813.5508,84.0
813.8762,74.0
814.2018,172.0
814.52747,87.0
814.8533,98.0
815.1792,181.0
815.50525,110.0
815.8314,71.0
816.1578,172.0
816.48425,111.0
816.81085,142.0
817.1376,259.0
817.4644,126.0
817.7914,81.0
818.11847,219.0
818.44574,120.0
818.77313,74.0
819.10065,199.0
819.4283,122.0
819.75604,57.0
820.0839,141.0
820.412,127.0
820.7402,66.0
821.0685,186.0
821.3969,123.0
821.72546,60.0
822.05414,198.0
822.38293,128.0
822.7119,49.0
823.041,229.0
823.37024,139.0
823.6996,53.0
824.02905,199.0
824.35864,156.0
824.6884,203.0
825.0183,2591.0
825.3483,209.0
825.67847,104.0
826.0087,1229.0
826.3391,170.0
826.6696,80.0
827.0003,450.0
827.3311,164.0
827.66205,76.0
827.9931,190.0
828.3243,177.0
828.65564,79.0
828.9871,128.0
829.3187,146.0
829.65045,73.0
829.9823,101.0
830.3143,157.0
830.6464,54.0
830.9787,118.0
831.3111,156.0
831.6436,56.0
831.97626,123.0
832.309,179.0
832.64197,80.0
832.97504,153.0
833.3082,179.0
833.64154,70.0
833.975,142.0
834.3086,189.0
834.64233,100.0
834.9762,141.0
835.3102,170.0
835.6443,80.0
835.9785,137.0
836.3129,176.0
836.64746,76.0
836.9821,178.0
837.3169,175.0
837.6518,51.0
837.9869,165.0
838.3221,145.0
838.6574,86.0
838.99286,726.0
839.3284,176.0
839.6642,77.0
840.00006,419.0
840.33606,191.0
840.6722,78.0
841.0084,589.0
841.34485,162.0
841.6814,64.0
842.01807,310.0
842.35486,139.0
842.6918,69.0
843.0289,263.0
843.3661,135.0
843.7034,67.0
844.0409,169.0
844.37854,151.0
844.7163,99.0
845.0542,389.0
845.3922,204.0
845.73035,85.0
846.06866,276.0
846.4071,180.0
846.74567,72.0
847.08435,220.0
847.42316,145.0
847.76215,81.0
848.10126,162.0
848.4405,89.0
848.77985,64.0
849.1194,186.0
849.45905,121.0
849.7988,74.0
850.13873,160.0
850.47876,102.0
850.819,86.0
851.1593,164.0
851.49976,101.0
851.84033,82.0
852.1811,195.0
852.522,85.0
852.863,82.0
853.2041,163.0
853.5454,84.0
853.88684,80.0
854.2284,176.0
854.57007,90.0
854.9119,575.0
855.2539,193.0
855.596,65.0
855.93823,268.0
856.2806,177.0
856.6231,80.0
856.96576,232.0
857.30853,175.0
857.6514,84.0
857.9945,147.0
858.3377,166.0
858.681,67.0
859.0245,172.0
859.3681,167.0
859.71185,69.0
860.0557,165.0
860.3997,128.0
860.7439,725.0
861.0882,1371.0
861.4326,177.0
861.77716,517.0
862.1219,566.0
862.46674,149.0
862.8117,268.0
863.15686,212.0
863.50214,128.0
863.84753,170.0
864.19305,170.0
864.53876,91.0
864.8846,154.0
865.2305,158.0
865.5766,82.0
865.92285,114.0
866.2692,145.0
866.6157,70.0
866.96234,237.0
867.30914,161.0
867.65607,63.0
868.0031,163.0
868.35034,133.0
868.6977,63.0
869.04517,148.0
869.39276,131.0
869.74054,54.0
870.08844,126.0
870.43646,111.0
870.7846,79.0
871.13293,147.0
871.4814,96.0
871.82996,90.0
872.1787,125.0
872.5276,84.0
872.8766,173.0
873.2257,167.0
873.575,86.0
873.92444,134.0
874.274,177.0
874.6237,63.0
874.9736,113.0
875.32355,148.0
875.6737,45.0
876.024,127.0
876.3744,178.0
876.7249,291.0
877.0756,324.0
877.42645,157.0
877.7774,216.0
878.12854,181.0
878.4798,138.0
878.8312,154.0
879.18274,150.0
879.5344,66.0
879.8862,124.0
880.23816,213.0
880.5903,71.0
880.9425,129.0
881.29486,162.0
881.6474,75.0
882.00006,117.0
882.35284,135.0
882.7058,71.0
883.0589,197.0
883.4121,159.0
883.7655,74.0
884.119,134.0
884.47266,110.0
884.8264,52.0
885.18036,146.0
885.5344,91.0
885.8886,75.0
886.243,159.0
886.5975,74.0
886.9521,112.0
887.3069,178.0
887.6618,52.0
888.01685,115.0
888.3721,127.0
888.7274,67.0
889.0829,131.0
889.43854,157.0
889.7943,67.0
890.1502,151.0
890.5063,156.0
890.8625,75.0
891.2188,145.0
891.5753,87.0
891.93195,79.0
892.2887,151.0
892.6456,71.0
893.0027,145.0
893.35986,158.0
893.7172,89.0
894.0747,109.0
894.4323,121.0
894.7901,113.0
895.148,148.0
895.50604,86.0
895.86426,87.0
896.2226,150.0
896.58105,75.0
896.9397,94.0
897.29846,148.0
897.6574,57.0
898.0165,115.0
898.3757,123.0
898.73505,85.0
899.09454,112.0
899.45416,99.0
899.81396,76.0
900.1739,182.0
900.53394,87.0
900.89417,90.0
901.2545,164.0
901.615,54.0
901.97565,97.0
902.3364,149.0
902.6974,68.0
903.0585,112.0
903.4197,141.0
903.78107,75.0
904.1426,157.0
904.5042,135.0
904.866,94.0
905.22797,169.0
905.5901,91.0
905.95233,104.0
906.3147,191.0
906.67725,56.0
907.0399,94.0
907.4027,133.0
907.7657,55.0
908.1288,124.0
908.49207,81.0
908.85547,68.0
909.219,139.0
909.5827,50.0
909.94653,72.0
910.3105,143.0
910.6746,52.0
911.0389,132.0
911.4033,113.0
911.7679,60.0
912.13257,135.0
912.49744,91.0
912.8624,94.0
913.2276,141.0
913.5929,65.0
913.9583,83.0
914.3239,135.0
914.68964,49.0
915.05554,116.0
915.4216,112.0
915.7877,61.0
916.15405,145.0
916.5205,87.0
916.88715,82.0
917.2539,154.0
917.6208,71.0
917.98785,97.0
918.35504,156.0
918.7224,55.0
919.0899,99.0
919.4575,113.0
919.8253,70.0
920.19324,152.0
920.56134,71.0
920.92957,93.0
921.2979,140.0
921.66644,67.0
922.0351,97.0
922.40393,111.0
922.7729,54.0
923.14197,125.0
923.5112,92.0
923.8806,89.0
924.2502,129.0
924.6199,58.0
924.98975,88.0
925.35974,119.0
925.72986,75.0
926.10016,126.0
926.4706,98.0
926.8412,78.0
927.2119,143.0
927.5828,54.0
927.95386,98.0
928.325,130.0
928.69635,62.0
929.0678,105.0
929.43945,106.0
929.8112,57.0
930.18317,112.0
930.55524,74.0
930.9274,79.0
931.2998,128.0
931.6723,59.0
932.045,110.0
932.4178,125.0
932.7908,72.0
933.1639,122.0
933.5372,105.0
933.9106,75.0
934.2841,136.0
934.65784,77.0
935.0317,91.0
935.4057,119.0
935.77985,62.0
936.1542,118.0
936.5286,79.0
936.90326,76.0
937.278,119.0
937.65295,59.0
938.028,114.0
938.4032,113.0
938.77856,56.0
939.15405,119.0
939.5297,82.0
939.9055,88.0
940.2815,153.0
940.6576,61.0
941.0339,114.0
941.4103,104.0
941.78687,49.0
942.1636,112.0
942.54047,78.0
942.9175,67.0
943.2947,105.0
943.672,56.0
944.04944,92.0
944.42706,92.0
944.8048,67.0
945.18274,118.0
945.5608,89.0
945.939,82.0
946.3174,110.0
946.6959,49.0
947.0746,110.0
947.4534,101.0
947.8324,65.0
948.21155,150.0
948.5908,59.0
948.9703,93.0
949.34985,147.0
949.7296,40.0
950.1095,108.0
950.48956,91.0
950.86975,66.0
951.2501,123.0
951.6306,65.0
952.0113,89.0
952.3921,131.0
952.7731,63.0
953.1542,126.0
953.53546,83.0
953.9169,91.0
954.29846,134.0
954.6802,69.0
955.0621,87.0
955.4441,129.0
955.8263,52.0
956.2086,117.0
956.5911,73.0
956.97375,90.0
957.35657,121.0
957.7395,61.0
958.1226,103.0
958.50586,100.0
958.8893,65.0
959.2728,143.0
959.65656,50.0
960.0404,87.0
960.42444,111.0
960.8086,68.0
961.19293,142.0
961.5774,82.0
961.96204,95.0
962.3468,124.0
962.73175,50.0
963.1168,113.0
963.5021,81.0
963.88745,84.0
964.273,122.0
964.6587,56.0
965.04456,117.0
965.4306,100.0
965.8168,51.0
966.2031,131.0
966.5896,71.0
966.97626,77.0
967.36304,124.0
967.75,63.0
968.1371,120.0
968.52435,106.0
968.91174,79.0
969.2993,119.0
969.687,69.0
970.0749,145.0
970.4629,118.0
970.8511,84.0
971.23944,142.0
971.6279,76.0
972.0166,96.0
972.4054,113.0
972.7944,64.0
973.1835,146.0
973.57275,96.0
973.96216,82.0
974.35175,131.0
974.7415,63.0
975.1314,97.0
975.5215,102.0
975.9117,75.0
976.30206,115.0
976.69257,55.0
977.08325,104.0
977.47406,134.0
977.86505,58.0
978.2562,111.0
978.6475,63.0
979.039,110.0
979.4306,121.0
979.8224,59.0
980.2143,141.0
980.6064,68.0
980.99866,78.0
981.39105,111.0
981.7836,68.0
982.17633,140.0
982.5692,75.0
982.9622,82.0
983.3554,117.0
983.7488,58.0
984.1423,112.0
984.53595,88.0
984.92975,71.0
985.3237,128.0
985.71783,59.0
986.1121,138.0
986.5066,96.0
986.9012,101.0
987.29596,128.0
987.69086,39.0
988.08594,110.0
988.4812,110.0
988.8766,65.0
989.27216,119.0
989.66785,50.0
990.0637,108.0
990.4597,101.0
990.8559,67.0
991.25226,133.0
991.64874,63.0
992.0454,124.0
992.4422,88.0
992.8392,66.0
993.2363,147.0
993.6336,70.0
994.03107,105.0
994.42865,113.0
994.8264,67.0
995.22437,115.0
995.62244,79.0
996.0207,86.0
996.4191,106.0
996.8177,69.0
997.21643,149.0
997.6153,86.0
998.01434,90.0
998.4136,120.0
998.8129,62.0
999.21246,142.0
999.6121,73.0
1000.01196,104.0
1000.412,147.0
1000.81213,75.0
1001.21246,134.0
1001.613,70.0
1002.0136,105.0
1002.4144,118.0
1002.81537,63.0
1003.2165,113.0
1003.6178,76.0
1004.0192,91.0
1004.42084,105.0
1004.82263,61.0
1005.22455,135.0
1005.62665,82.0
1006.0289,175.0
1006.4313,112.0
1006.83386,85.0
1007.2366,130.0
1007.63947,61.0
1008.04254,165.0
1008.44574,105.0
1008.8491,99.0
1009.2527,135.0
1009.6564,63.0
1010.06024,132.0
1010.4643,106.0
1010.86847,61.0
1011.2728,141.0
1011.6773,72.0
1012.082,113.0
1012.4868,90.0
1012.8918,71.0
1013.29694,100.0
1013.7023,87.0
1014.1077,207.0
1014.51337,82.0
1014.9192,125.0
1015.32513,121.0
1015.73126,62.0
1016.1376,113.0
1016.544,107.0
1016.9506,80.0
1017.3574,133.0
1017.76434,49.0
1018.17145,106.0
1018.57874,97.0
1018.98615,91.0
1019.39374,145.0
1019.8015,64.0
1020.2094,134.0
1020.6175,83.0
1021.02576,91.0
1021.43414,143.0
1021.8427,74.0
1022.25146,139.0
1022.66034,73.0
1023.0694,113.0
1023.47864,116.0
1023.888,72.0
1024.2976,104.0
1024.7073,61.0
1025.1172,94.0
1025.5272,88.0
1025.9374,85.0
1026.3478,109.0
1026.7583,62.0
1027.169,126.0
1027.5798,89.0
1027.9908,169.0
1028.4021,114.0
1028.8135,87.0
1029.225,121.0
1029.6367,103.0
1030.0486,230.0
1030.4606,117.0
1030.8728,163.0
1031.2852,135.0
1031.6976,68.0
1032.1104,123.0
1032.5232,85.0
1032.9362,69.0
1033.3494,121.0
1033.7627,76.0
1034.1761,138.0
1034.5898,101.0
1035.0037,107.0
1035.4177,81.0
1035.8319,98.0
1036.2462,155.0
1036.6608,80.0
1037.0754,116.0
1037.4902,119.0
1037.9053,97.0
1038.3204,107.0
1038.7357,69.0
1039.1512,115.0
1039.5669,95.0
1039.9827,79.0
1040.3987,157.0
1040.8148,54.0
1041.2312,115.0
1041.6477,67.0
1042.0643,81.0
1042.4812,114.0
1042.8982,75.0
1043.3153,138.0
1043.7327,130.0
1044.1501,137.0
1044.5677,92.0
1044.9856,132.0
1045.4036,138.0
1045.8218,92.0
1046.2401,131.0
1046.6586,66.0
1047.0773,104.0
1047.4961,98.0
1047.915,75.0
1048.3342,107.0
1048.7535,73.0
1049.1731,87.0
1049.5928,100.0
1050.0126,334.0
1050.4326,115.0
1050.8528,215.0
1051.2731,112.0
1051.6936,103.0
1052.1143,160.0
1052.5352,99.0
1052.9562,119.0
1053.3773,132.0
1053.7987,123.0
1054.2202,123.0
1054.6418,85.0
1055.0637,110.0
1055.4857,90.0
1055.908,113.0
1056.3303,113.0
1056.7528,66.0
1057.1755,101.0
1057.5984,93.0
1058.0215,98.0
1058.4447,106.0
1058.868,71.0
1059.2916,131.0
1059.7153,96.0
1060.1392,138.0
1060.5632,169.0
1060.9874,110.0
1061.4119,161.0
1061.8364,78.0
1062.2611,152.0
1062.686,62.0
1063.1111,77.0
1063.5364,118.0
1063.9618,85.0
1064.3873,119.0
1064.8131,80.0
1065.239,117.0
1065.6652,206.0
1066.0914,388.0
1066.5178,130.0
1066.9445,310.0
1067.3712,111.0
1067.7982,171.0
1068.2253,118.0
1068.6526,70.0
1069.0801,107.0
1069.5077,93.0
1069.9355,107.0
1070.3635,101.0
1070.7916,74.0
1071.22,119.0
1071.6484,117.0
1072.0771,197.0
1072.506,99.0
1072.9349,130.0
1073.3641,108.0
1073.7935,97.0
1074.223,114.0
1074.6527,78.0
1075.0825,94.0
1075.5126,111.0
1075.9427,101.0
1076.3732,98.0
1076.8037,79.0
1077.2344,90.0
1077.6653,81.0
1078.0963,131.0
1078.5276,96.0
1078.959,107.0
1079.3906,100.0
1079.8224,71.0
1080.2543,99.0
1080.6864,69.0
1081.1187,97.0
1081.5511,93.0
1081.9838,130.0
1082.4165,100.0
1082.8495,117.0
1083.2826,97.0
1083.716,78.0
1084.1494,112.0
1084.5831,93.0
1085.017,84.0
1085.4509,102.0
1085.8851,75.0
1086.3195,107.0
1086.754,49.0
1087.1887,106.0
1087.6235,91.0
1088.0586,127.0
1088.4938,93.0
1088.9292,100.0
1089.3647,115.0
1089.8005,74.0
1090.2365,133.0
1090.6725,78.0
1091.1088,89.0
1091.5452,103.0
1091.9818,104.0
1092.4186,121.0
1092.8556,65.0
1093.2927,130.0
1093.7301,76.0
1094.1676,106.0
1094.6052,71.0
1095.0431,82.0
1095.4811,129.0
1095.9193,83.0
1096.3577,129.0
1096.7963,65.0
1097.235,98.0
1097.6738,62.0
1098.1129,92.0
1098.5521,91.0
1098.9916,67.0
1099.4312,120.0
1099.871,84.0
1100.3109,102.0
1100.751,60.0
1101.1913,109.0
1101.6317,72.0
1102.0724,106.0
1102.5132,111.0
1102.9542,68.0
1103.3954,121.0
1103.8368,90.0
1104.2783,122.0
1104.72,76.0
1105.1619,112.0
1105.6039,78.0
1106.0461,73.0
1106.4885,96.0
1106.9312,77.0
1107.3739,109.0
1107.8169,61.0
1108.26,113.0
1108.7034,68.0
1109.1469,104.0
1109.5905,89.0
1110.0343,91.0
1110.4783,101.0
1110.9225,72.0
1111.3668,108.0
1111.8114,71.0
1112.2561,108.0
1112.701,57.0
1113.1461,79.0
1113.5914,97.0
1114.0369,85.0
1114.4824,89.0
1114.9282,76.0
1115.3741,105.0
1115.8203,85.0
1116.2666,116.0
1116.7131,74.0
1117.1598,95.0
1117.6067,93.0
1118.0537,66.0
1118.501,110.0
1118.9484,66.0
1119.396,105.0
1119.8438,54.0
1120.2917,113.0
1120.7399,53.0
1121.1881,75.0
1121.6366,83.0
1122.0852,84.0
1122.534,105.0
1122.983,77.0
1123.4323,104.0
1123.8816,67.0
1124.3312,86.0
1124.7809,54.0
1125.2308,105.0
1125.6809,77.0
1126.1312,88.0
1126.5817,87.0
1127.0323,66.0
1127.4832,89.0
1127.9342,72.0
1128.3854,107.0
1128.8367,62.0
1129.2882,103.0
1129.7399,56.0
1130.1918,94.0
1130.6438,74.0
1131.0961,89.0
1131.5485,118.0
1132.0011,91.0
1132.4539,101.0
1132.9069,58.0
1133.36,106.0
1133.8134,62.0
1134.2668,129.0
1134.7206,59.0
1135.1744,87.0
1135.6285,68.0
1136.0828,83.0
1136.5372,76.0
1136.9918,64.0
1137.4467,108.0
1137.9016,73.0
1138.3568,121.0
1138.8121,60.0
1139.2677,93.0
1139.7234,61.0
1140.1793,79.0
1140.6354,68.0
1141.0917,81.0
1141.5481,98.0
1142.0048,69.0
1142.4615,104.0
1142.9186,62.0
1143.3757,111.0
1143.8331,58.0
1144.2906,118.0
1144.7484,53.0
1145.2063,102.0
1145.6644,75.0
1146.1227,71.0
1146.5812,92.0
1147.0398,72.0
1147.4987,88.0
1147.9576,63.0
1148.4169,159.0
1148.8762,63.0
1149.3358,127.0
1149.7955,67.0
1150.2555,126.0
1150.7156,58.0
1151.1759,82.0
1151.6364,84.0
1152.097,89.0
1152.5579,88.0
1153.0189,66.0
1153.4801,106.0
1153.9415,61.0
1154.4031,98.0
1154.8649,64.0
1155.3268,98.0
1155.789,60.0
1156.2512,110.0
1156.7137,79.0
1157.1764,96.0
1157.6393,99.0
1158.1023,70.0
1158.5656,113.0
1159.0289,64.0
1159.4926,99.0
1159.9563,63.0
1160.4203,95.0
1160.8844,60.0
1161.3488,112.0
1161.8134,50.0
1162.2781,124.0
1162.743,46.0
1163.2081,86.0
1163.6735,73.0
1164.1389,64.0
1164.6046,98.0
1165.0704,80.0
1165.5365,84.0
1166.0027,69.0
1166.4691,93.0
1166.9357,61.0
1167.4025,113.0
1167.8694,48.0
1168.3365,112.0
1168.8038,82.0
1169.2714,103.0
1169.739,65.0
1170.2069,92.0
1170.675,78.0
1171.1433,101.0
1171.6118,99.0
1172.0804,93.0
1172.5493,97.0
1173.0183,73.0
1173.4875,125.0
1173.9569,84.0
1174.4265,130.0
1174.8962,71.0
1175.3662,110.0
1175.8363,59.0
1176.3066,107.0
1176.7772,59.0
1177.2479,101.0
1177.7189,66.0
1178.19,98.0
1178.6613,65.0
1179.1327,79.0
1179.6044,84.0
1180.0762,84.0
1180.5482,98.0
1181.0204,80.0
1181.4928,104.0
1181.9655,72.0
1182.4382,101.0
1182.9113,53.0
1183.3844,118.0
1183.8578,50.0
1184.3313,90.0
1184.805,51.0
1185.2789,98.0
1185.753,74.0
1186.2273,101.0
1186.7018,80.0
1187.1765,95.0
1187.6514,88.0
1188.1265,87.0
1188.6017,91.0
1189.0771,72.0
1189.5527,101.0
1190.0286,81.0
1190.5045,89.0
1190.9807,77.0
1191.4572,87.0
1191.9337,69.0
1192.4105,100.0
1192.8875,59.0
1193.3646,122.0
1193.8419,62.0
1194.3195,124.0
1194.7972,78.0
1195.2751,93.0
1195.7533,68.0
1196.2316,92.0
1196.7101,83.0
1197.1887,112.0
1197.6676,84.0
1198.1467,95.0
1198.626,84.0
1199.1055,83.0
1199.5851,111.0
1200.065,63.0
1200.5449,101.0
1201.0251,67.0
1201.5056,90.0
1201.9862,52.0
1202.467,86.0
1202.948,76.0
1203.4292,94.0
1203.9105,61.0
1204.3921,91.0
1204.8739,66.0
1205.3558,113.0
1205.838,72.0
1206.3203,125.0
1206.8029,58.0
1207.2855,112.0
1207.7684,66.0
1208.2516,102.0
1208.7349,69.0
1209.2184,87.0
1209.702,82.0
1210.1859,93.0
1210.67,71.0
1211.1543,87.0
1211.6388,83.0
1212.1234,87.0
1212.6083,73.0
1213.0933,79.0
1213.5785,82.0
1214.064,73.0
1214.5496,88.0
1215.0354,73.0
1215.5214,105.0
1216.0076,57.0
1216.494,111.0
1216.9806,86.0
1217.4674,101.0
1217.9543,82.0
1218.4415,100.0
1218.929,78.0
1219.4165,129.0
1219.9043,66.0
1220.3922,109.0
1220.8804,70.0
1221.3688,101.0
1221.8573,63.0
1222.3461,104.0
1222.835,70.0
1223.3241,86.0
1223.8135,58.0
1224.303,111.0
1224.7927,78.0
1225.2826,97.0
1225.7727,70.0
1226.2631,88.0
1226.7535,78.0
1227.2443,86.0
1227.7351,71.0
1228.2262,88.0
1228.7175,73.0
1229.209,111.0
1229.7007,94.0
1230.1925,95.0
1230.6846,86.0
1231.1769,76.0
1231.6693,90.0
1232.162,74.0
1232.6549,78.0
1233.148,90.0
1233.6412,89.0
1234.1346,67.0
1234.6283,97.0
1235.1222,86.0
1235.6162,97.0
1236.1105,85.0
1236.6049,95.0
1237.0995,66.0
1237.5944,80.0
1238.0894,69.0
1238.5846,92.0
1239.0801,90.0
1239.5757,70.0
1240.0715,95.0
1240.5675,95.0
1241.0637,112.0
1241.5602,86.0
1242.0568,79.0
1242.5536,86.0
1243.0507,87.0
1243.5479,86.0
1244.0453,61.0
1244.5428,100.0
1245.0406,76.0
1245.5387,87.0
1246.0369,76.0
1246.5353,162.0
1247.0339,89.0
1247.5327,145.0
1248.0317,78.0
1248.531,117.0
1249.0304,83.0
1249.53,99.0
1250.0298,65.0
1250.5298,108.0
1251.03,71.0
1251.5304,90.0
1252.031,76.0
1252.5319,88.0
1253.0328,82.0
1253.534,74.0
1254.0355,64.0
1254.5371,90.0
1255.039,127.0
1255.541,90.0
1256.0432,101.0
1256.5457,79.0
1257.0482,93.0
1257.551,82.0
1258.0541,87.0
1258.5573,88.0
1259.0607,84.0
1259.5643,80.0
1260.0681,75.0
1260.5721,108.0
1261.0764,124.0
1261.5808,98.0
1262.0854,87.0
1262.5903,86.0
1263.0953,107.0
1263.6006,115.0
1264.1061,101.0
1264.6117,110.0
1265.1176,84.0
1265.6237,98.0
1266.1299,73.0
1266.6364,85.0
1267.1431,79.0
1267.6499,85.0
1268.157,87.0
1268.6642,87.0
1269.1716,98.0
1269.6793,112.0
1270.1871,65.0
1270.6952,111.0
1271.2035,86.0
1271.7119,91.0
1272.2206,92.0
1272.7295,93.0
1273.2385,91.0
1273.7478,79.0
1274.2573,99.0
1274.767,81.0
1275.2769,90.0
1275.787,91.0
1276.2972,96.0
1276.8077,170.0
1277.3185,95.0
1277.8295,156.0
1278.3406,108.0
1278.8519,130.0
1279.3635,88.0
1279.8752,95.0
1280.3872,112.0
1280.8994,75.0
1281.4117,85.0
1281.9243,82.0
1282.4371,121.0
1282.9501,123.0
1283.4633,99.0
1283.9767,99.0
1284.4902,121.0
1285.004,84.0
1285.5181,106.0
1286.0322,97.0
1286.5466,120.0
1287.0613,81.0
1287.576,106.0
1288.0911,81.0
1288.6063,121.0
1289.1218,112.0
1289.6375,100.0
1290.1533,82.0
1290.6694,79.0
1291.1857,99.0
1291.7021,81.0
1292.2189,104.0
1292.7357,110.0
1293.2528,103.0
1293.7701,98.0
1294.2876,98.0
1294.8053,89.0
1295.3232,91.0
1295.8414,77.0
1296.3597,84.0
1296.8783,72.0
1297.3971,103.0
1297.916,83.0
1298.4352,115.0
1298.9546,86.0
1299.4741,88.0
1299.9939,91.0
1300.5139,97.0
1301.0342,72.0
1301.5546,130.0
1302.0752,89.0
1302.5961,130.0
1303.1171,77.0
1303.6383,89.0
1304.1598,82.0
1304.6814,105.0
1305.2032,97.0
1305.7253,96.0
1306.2477,110.0
1306.7701,66.0
1307.2928,100.0
1307.8158,61.0
1308.3389,88.0
1308.8622,60.0
1309.3857,90.0
1309.9095,75.0
1310.4335,90.0
1310.9576,85.0
1311.482,98.0
1312.0066,64.0
1312.5314,100.0
1313.0564,77.0
1313.5817,80.0
1314.107,62.0
1314.6327,95.0
1315.1586,95.0
1315.6847,91.0
1316.2109,101.0
1316.7374,90.0
1317.2642,84.0
1317.791,73.0
1318.3181,92.0
1318.8455,72.0
1319.373,80.0
1319.9008,54.0
1320.4287,87.0
1320.9569,77.0
1321.4854,105.0
1322.0139,66.0
1322.5427,109.0
1323.0718,78.0
1323.601,91.0
1324.1304,88.0
1324.66,104.0
1325.19,83.0
1325.72,92.0
1326.2502,104.0
1326.7808,87.0
1327.3115,102.0
1327.8424,73.0
1328.3735,98.0
1328.9049,75.0
1329.4365,104.0
1329.9683,77.0
1330.5002,96.0
1331.0325,62.0
1331.565,114.0
1332.0975,73.0
1332.6304,121.0
1333.1635,109.0
1333.6968,116.0
1334.2302,82.0
1334.7639,84.0
1335.2979,100.0
1335.832,67.0
1336.3663,81.0
1336.9009,67.0
1337.4357,98.0
1337.9707,66.0
1338.5059,96.0
1339.0413,78.0
1339.5769,116.0
1340.1128,68.0
1340.6488,78.0
1341.185,83.0
1341.7216,120.0
1342.2583,99.0
1342.7952,103.0
1343.3323,82.0
1343.8696,73.0
1344.4072,93.0
1344.945,83.0
1345.4829,80.0
1346.0211,61.0
1346.5596,109.0
1347.0981,75.0
1347.637,93.0
1348.176,56.0
1348.7153,99.0
1349.2548,85.0
1349.7944,93.0
1350.3344,95.0
1350.8745,61.0
1351.4149,86.0
1351.9554,51.0
1352.4962,90.0
1353.0372,55.0
1353.5785,88.0
1354.1199,58.0
1354.6615,88.0
1355.2034,80.0
1355.7455,70.0
1356.2878,93.0
1356.8303,71.0
1357.373,110.0
1357.916,58.0
1358.4592,82.0
1359.0026,73.0
1359.5461,90.0
1360.09,60.0
1360.634,89.0
1361.1783,87.0
1361.7228,82.0
1362.2675,91.0
1362.8124,76.0
1363.3575,100.0
1363.9028,67.0
1364.4484,97.0
1364.9941,65.0
1365.5402,96.0
1366.0864,64.0
1366.6328,151.0
1367.1794,90.0
1367.7263,115.0
1368.2734,93.0
1368.8208,89.0
1369.3683,85.0
1369.916,68.0
1370.464,99.0
1371.0122,64.0
1371.5607,103.0
1372.1093,54.0
1372.6581,94.0
1373.2072,67.0
1373.7565,81.0
1374.306,93.0
1374.8557,47.0
1375.4056,132.0
1375.9558,77.0
1376.5062,123.0
1377.0569,67.0
1377.6077,95.0
1378.1587,79.0
1378.71,108.0
1379.2615,83.0
1379.8132,76.0
1380.3651,91.0
1380.9172,62.0
1381.4696,100.0
1382.0222,60.0
1382.5751,82.0
1383.128,80.0
1383.6813,343.0
1384.2347,112.0
1384.7885,215.0
1385.3424,140.0
1385.8965,92.0
1386.4508,98.0
1387.0054,75.0
1387.5602,106.0
1388.1152,75.0
1388.6705,103.0
1389.226,85.0
1389.7816,93.0
1390.3375,94.0
1390.8937,68.0
1391.4501,103.0
1392.0067,85.0
1392.5635,103.0
1393.1205,64.0
1393.6777,74.0
1394.2352,104.0
1394.793,77.0
1395.3508,80.0
1395.9089,71.0
1396.4673,112.0
1397.0259,93.0
1397.5847,102.0
1398.1438,93.0
1398.703,103.0
1399.2625,101.0
1399.8221,75.0
1400.3821,90.0
1400.9423,80.0
1401.5027,96.0
1402.0632,50.0
1402.624,83.0
1403.185,74.0
1403.7463,80.0
1404.3079,83.0
1404.8696,71.0
1405.4315,107.0
1405.9937,81.0
1406.556,101.0
1407.1187,66.0
1407.6815,96.0
1408.2446,87.0
1408.808,85.0
1409.3715,101.0
1409.9352,78.0
1410.4991,79.0
1411.0634,61.0
1411.6278,82.0
1412.1925,72.0
1412.7573,82.0
1413.3224,94.0
1413.8877,69.0
1414.4532,115.0
1415.019,74.0
1415.5851,109.0
1416.1514,78.0
1416.7178,90.0
1417.2844,89.0
1417.8513,87.0
1418.4185,90.0
1418.9858,55.0
1419.5535,93.0
1420.1213,77.0
1420.6893,81.0
1421.2576,90.0
1421.826,76.0
1422.3948,94.0
1422.9637,72.0
1423.533,85.0
1424.1024,63.0
1424.672,75.0
1425.2418,69.0
1425.8119,85.0
1426.3822,85.0
1426.9528,60.0
1427.5236,90.0
1428.0946,61.0
1428.6659,96.0
1429.2373,84.0
1429.809,63.0
1430.3809,121.0
1430.953,83.0
1431.5254,123.0
1432.098,94.0
1432.6709,88.0
1433.244,80.0
1433.8173,75.0
1434.3907,104.0
1434.9645,73.0
1435.5385,122.0
1436.1127,74.0
1436.6871,74.0
1437.2618,99.0
1437.8368,89.0
1438.412,87.0
1438.9873,62.0
1439.5629,103.0
1440.1387,87.0
1440.7147,89.0
1441.291,68.0
1441.8676,71.0
1442.4443,81.0
1443.0214,56.0
1443.5985,72.0
1444.1759,89.0
1444.7535,84.0
1445.3314,94.0
1445.9095,83.0
1446.4879,94.0
1447.0665,81.0
1447.6454,91.0
1448.2245,84.0
1448.8038,90.0
1449.3833,94.0
1449.963,73.0
1450.543,106.0
1451.1232,59.0
1451.7036,111.0
1452.2843,90.0
1452.8652,65.0
1453.4464,95.0
1454.0278,76.0
1454.6095,79.0
1455.1913,96.0
1455.7733,112.0
1456.3556,117.0
1456.9381,73.0
1457.5209,92.0
1458.1039,69.0
1458.6871,83.0
1459.2706,90.0
1459.8544,80.0
1460.4384,77.0
1461.0226,61.0
1461.6069,123.0
1462.1915,77.0
1462.7764,101.0
1463.3615,92.0
1463.9468,83.0
1464.5323,111.0
1465.1182,68.0
1465.7042,101.0
1466.2905,74.0
1466.8771,71.0
1467.4639,106.0
1468.0509,72.0
1468.6382,118.0
1469.2256,67.0
1469.8132,73.0
1470.4011,116.0
1470.9893,71.0
1471.5776,91.0
1472.1663,74.0
1472.7551,84.0
1473.3442,82.0
1473.9336,73.0
1474.5232,119.0
1475.113,76.0
1475.7031,111.0
1476.2935,101.0
1476.884,106.0
1477.4747,90.0
1478.0657,80.0
1478.6569,102.0
1479.2483,78.0
1479.84,67.0
1480.4319,81.0
1481.024,69.0
1481.6165,107.0
1482.2091,83.0
1482.802,88.0
1483.3951,74.0
1483.9885,91.0
1484.5822,87.0
1485.176,78.0
1485.7701,79.0
1486.3645,97.0
1486.9591,79.0
1487.5538,97.0
1488.1488,68.0
1488.744,111.0
1489.3395,95.0
1489.9352,65.0
1490.5311,94.0
1491.1273,73.0
1491.7238,110.0
1492.3204,104.0
1492.9174,75.0
1493.5145,92.0
1494.1119,79.0
1494.7096,68.0
1495.3075,87.0
1495.9056,77.0
1496.504,107.0
1497.1027,80.0
1497.7015,90.0
1498.3007,94.0
1498.9,75.0
1499.4996,89.0
1500.0995,76.0
1500.6996,92.0
1501.2998,62.0
1501.9003,77.0
1502.501,105.0
1503.1019,67.0
1503.7031,109.0
1504.3046,76.0
1504.9062,74.0
1505.5082,98.0
1506.1104,72.0
1506.7128,83.0
1507.3154,101.0
1507.9183,86.0
1508.5215,101.0
1509.1249,81.0
1509.7285,109.0
1510.3324,98.0
1510.9365,82.0
1511.5409,96.0
1512.1455,96.0
1512.7504,133.0
1513.3555,111.0
1513.9608,84.0
1514.5664,120.0
1515.1722,79.0
1515.7783,95.0
1516.3846,75.0
1516.9912,58.0
1517.598,87.0
1518.2051,74.0
1518.8124,83.0
1519.4199,104.0
1520.0277,67.0
1520.6357,87.0
1521.244,75.0
1521.8525,89.0
1522.4613,70.0
1523.0703,57.0
1523.6796,92.0
1524.2891,72.0
1524.8988,74.0
1525.5088,109.0
1526.119,75.0
1526.7295,73.0
1527.3402,83.0
1527.9512,72.0
1528.5624,104.0
1529.1738,74.0
1529.7855,92.0
1530.3975,90.0
1531.0096,79.0
1531.6221,96.0
1532.2347,77.0
1532.8477,82.0
1533.4608,99.0
1534.0742,57.0
1534.6879,92.0
1535.3018,72.0
1535.9159,79.0
1536.5303,88.0
1537.1449,59.0
1537.7598,87.0
1538.3749,107.0
1538.9902,77.0
1539.6058,102.0
1540.2217,85.0
1540.8378,86.0
1541.4541,81.0
1542.0707,66.0
1542.6875,82.0
1543.3046,67.0
1543.9219,89.0
1544.5394,83.0
1545.1572,70.0
1545.7753,89.0
1546.3936,98.0
1547.0121,75.0
1547.6309,87.0
1548.2499,94.0
1548.8691,71.0
1549.4886,76.0
1550.1084,65.0
1550.7284,77.0
1551.3486,113.0
1551.9691,79.0
1552.5898,106.0
1553.2109,67.0
1553.8323,100.0
1554.4539,113.0
1555.0757,69.0
1555.6978,105.0
1556.3201,82.0
1556.9426,61.0
1557.5654,96.0
1558.1885,67.0
1558.8118,76.0
1559.4353,92.0
1560.0591,68.0
1560.6831,99.0
1561.3074,87.0
1561.9319,64.0
1562.5566,102.0
1563.1816,85.0
1563.8069,77.0
1564.4324,107.0
1565.0581,63.0
1565.6841,66.0
1566.3103,88.0
1566.9368,73.0
1567.5636,103.0
1568.1907,56.0
1568.818,81.0
1569.4456,123.0
1570.0734,59.0
1570.7014,104.0
1571.3297,87.0
1571.9583,62.0
1572.587,121.0
1573.2161,87.0
1573.8453,80.0
1574.4749,106.0
1575.1046,53.0
1575.7346,89.0
1576.3649,90.0
1576.9954,73.0
1577.6261,69.0
1578.2572,83.0
1578.8885,69.0
1579.5201,78.0
1580.152,61.0
1580.784,80.0
1581.4164,87.0
1582.049,45.0
1582.6818,92.0
1583.3148,81.0
1583.9481,57.0
1584.5817,81.0
1585.2155,63.0
1585.8495,78.0
1586.4839,109.0
1587.1185,67.0
1587.7534,88.0
1588.3885,96.0
1589.0239,69.0
1589.6595,76.0
1590.2954,89.0
1590.9315,71.0
1591.5679,84.0
1592.2045,56.0
1592.8413,81.0
1593.4784,80.0
1594.1158,66.0
1594.7535,101.0
1595.3915,122.0
1596.0297,84.0
1596.6681,120.0
1597.3068,74.0
1597.9457,67.0
1598.5848,106.0
1599.2242,65.0
1599.8639,82.0
1600.5038,76.0
1601.144,81.0
1601.7845,78.0
1602.4253,75.0
1603.0663,73.0
1603.7075,92.0
1604.349,77.0
1604.9907,65.0
1605.6327,95.0
1606.2749,87.0
1606.9174,71.0
1607.5602,98.0
1608.2032,75.0
1608.8466,87.0
1609.4901,99.0
1610.1339,65.0
1610.778,73.0
1611.4222,73.0
1612.0668,71.0
1612.7115,88.0
1613.3567,86.0
1614.0021,87.0
1614.6477,98.0
1615.2936,83.0
1615.9397,90.0
1616.586,68.0
1617.2327,86.0
1617.8795,77.0
1618.5266,65.0
1619.1741,80.0
1619.8218,90.0
1620.4697,86.0
1621.1179,66.0
1621.7664,89.0
1622.415,114.0
1623.064,73.0
1623.7131,99.0
1624.3627,105.0
1625.0125,76.0
1625.6625,86.0
1626.3127,72.0
1626.9633,79.0
1627.614,95.0
1628.265,75.0
1628.9163,80.0
1629.5679,104.0
1630.2197,52.0
1630.8718,79.0
1631.5242,102.0
1632.1768,75.0
1632.8296,72.0
1633.4827,58.0
1634.1361,61.0
1634.7898,90.0
1635.4437,76.0
1636.0979,57.0
1636.7523,89.0
1637.407,94.0
1638.0619,67.0
1638.7172,80.0
1639.3727,99.0
1640.0284,77.0
1640.6844,112.0
1641.3407,84.0
1641.9972,86.0
1642.6539,71.0
1643.311,75.0
1643.9684,74.0
1644.626,109.0
1645.2838,100.0
1645.9419,77.0
1646.6002,82.0
1647.2589,87.0
1647.9178,86.0
1648.577,85.0
1649.2365,88.0
1649.8961,89.0
1650.556,102.0
1651.2163,70.0
1651.8768,68.0
1652.5376,86.0
1653.1986,54.0
1653.8599,79.0
1654.5214,80.0
1655.1832,64.0
1655.8453,69.0
1656.5077,76.0
1657.1703,69.0
1657.8331,76.0
1658.4962,71.0
1659.1597,77.0
1659.8234,68.0
1660.4873,75.0
1661.1515,77.0
1661.8159,77.0
1662.4806,81.0
1663.1456,77.0
1663.8109,103.0
1664.4764,100.0
1665.1422,66.0
1665.8082,91.0
1666.4746,84.0
1667.1412,80.0
1667.8081,77.0
1668.4752,81.0
1669.1426,82.0
1669.8102,65.0
1670.4781,89.0
1671.1464,77.0
1671.8148,81.0
1672.4835,78.0
1673.1525,81.0
1673.8218,74.0
1674.4913,74.0
1675.1611,64.0
1675.8312,77.0
1676.5015,66.0
1677.1721,70.0
1677.843,84.0
1678.5142,104.0
1679.1855,58.0
1679.8572,71.0
1680.5292,67.0
1681.2014,70.0
1681.8739,83.0
1682.5466,66.0
1683.2196,72.0
1683.893,108.0
1684.5665,94.0
1685.2404,91.0
1685.9144,90.0
1686.5887,105.0
1687.2634,78.0
1687.9384,61.0
1688.6135,89.0
1689.289,74.0
1689.9646,62.0
1690.6406,102.0
1691.3169,84.0
1691.9934,66.0
1692.6702,91.0
1693.3473,77.0
1694.0247,67.0
1694.7023,95.0
1695.3801,89.0
1696.0582,61.0
1696.7367,69.0
1697.4154,82.0
1698.0944,67.0
1698.7736,87.0
1699.4531,85.0
1700.1329,77.0
1700.813,93.0
1701.4933,79.0
1702.1738,63.0
1702.8547,85.0
1703.5359,100.0
1704.2173,54.0
1704.8989,95.0
1705.5809,80.0
1706.2632,80.0
1706.9457,90.0
1707.6284,91.0
1708.3115,80.0
1708.9949,55.0
1709.6785,94.0
1710.3623,86.0
1711.0465,74.0
1711.731,84.0
1712.4156,94.0
1713.1006,58.0
1713.7858,77.0
1714.4713,79.0
1715.1571,57.0
1715.8431,69.0
1716.5294,99.0
1717.2161,76.0
1717.903,65.0
1718.5901,67.0
1719.2775,81.0
1719.9652,61.0
1720.6532,102.0
1721.3414,78.0
1722.0299,75.0
1722.7188,80.0
1723.4078,80.0
1724.0972,66.0
1724.7869,95.0
1725.4768,88.0
1726.167,61.0
1726.8574,91.0
1727.5482,89.0
1728.2393,74.0
1728.9305,91.0
1729.6221,89.0
1730.314,91.0
1731.0061,72.0
1731.6985,82.0
1732.3911,80.0
1733.0841,81.0
1733.7773,67.0
1734.4708,81.0
1735.1647,55.0
1735.8588,79.0
1736.5531,95.0
1737.2477,64.0
1737.9426,69.0
1738.6378,83.0
1739.3333,70.0
1740.0289,71.0
1740.725,88.0
1741.4213,82.0
1742.1178,58.0
1742.8147,89.0
1743.5118,83.0
1744.2092,67.0
1744.9069,94.0
1745.6049,75.0
1746.3031,66.0
1747.0016,78.0
1747.7004,73.0
1748.3995,85.0
1749.0989,68.0
1749.7985,86.0
1750.4984,95.0
1751.1986,59.0
1751.899,82.0
1752.5999,89.0
1753.3009,73.0
1754.0022,69.0
1754.7039,82.0
1755.4058,81.0
1756.1079,72.0
1756.8103,68.0
1757.5131,102.0
1758.2161,72.0
1758.9193,64.0
1759.6229,82.0
1760.3268,77.0
1761.0309,57.0
1761.7354,86.0
1762.4401,96.0
1763.145,85.0
1763.8502,85.0
1764.5558,92.0
1765.2616,70.0
1765.9677,83.0
1766.6741,99.0
1767.3807,92.0
1768.0876,77.0
1768.7949,97.0
1769.5024,95.0
1770.2102,52.0
1770.9183,86.0
1771.6267,107.0
1772.3353,68.0
1773.0443,91.0
1773.7535,82.0
1774.463,84.0
1775.1729,65.0
1775.8829,66.0
1776.5933,76.0
1777.304,71.0
1778.0149,82.0
1778.7261,70.0
1779.4376,83.0
1780.1494,64.0
1780.8615,93.0
1781.5739,105.0
1782.2865,78.0
1782.9994,65.0
1783.7126,84.0
1784.4261,83.0
1785.1399,73.0
1785.854,96.0
1786.5684,99.0
1787.283,60.0
1787.9979,71.0
1788.7131,98.0
1789.4286,89.0
1790.1444,59.0
1790.8605,84.0
1791.5768,87.0
1792.2935,64.0
1793.0104,71.0
1793.7275,75.0
1794.4451,104.0
1795.1628,62.0
1795.8809,78.0
1796.5992,102.0
1797.3179,72.0
1798.0367,84.0
1798.756,99.0
1799.4755,79.0
1800.1953,83.0
1800.9154,65.0
1801.6357,78.0
1802.3564,59.0
1803.0774,57.0
1803.7986,88.0
1804.5201,81.0
1805.242,80.0
1805.964,123.0
1806.6864,114.0
1807.409,92.0
1808.1321,88.0
1808.8553,79.0
1809.5789,76.0
1810.3027,72.0
1811.0269,84.0
1811.7512,119.0
1812.476,84.0
1813.2009,62.0
1813.9261,89.0
1814.6517,88.0
1815.3776,88.0
1816.1038,71.0
1816.8302,85.0
1817.5569,93.0
1818.2839,72.0
1819.0112,62.0
1819.7389,72.0
1820.4668,95.0
1821.195,71.0
1821.9235,83.0
1822.6522,102.0
1823.3812,84.0
1824.1106,77.0
1824.8402,89.0
1825.5702,71.0
1826.3004,80.0
1827.0309,73.0
1827.7617,117.0
1828.4928,87.0
1829.2242,84.0
1829.9559,79.0
1830.6879,75.0
1831.4202,79.0
1832.1527,76.0
1832.8856,87.0
1833.6188,94.0
1834.3522,66.0
1835.0859,81.0
1835.82,83.0
1836.5543,84.0
1837.289,77.0
1838.0238,86.0
1838.759,92.0
1839.4945,85.0
1840.2303,92.0
1840.9664,74.0
1841.7028,69.0
1842.4395,89.0
1843.1764,53.0
1843.9137,71.0
1844.6512,87.0
1845.3892,70.0
1846.1273,74.0
1846.8657,100.0
1847.6045,85.0
1848.3435,74.0
1849.0829,62.0
1849.8225,83.0
1850.5624,84.0
1851.3026,77.0
1852.0431,73.0
1852.7839,93.0
1853.525,73.0
1854.2665,91.0
1855.0082,71.0
1855.7501,96.0
1856.4924,89.0
1857.235,72.0
1857.9779,87.0
1858.7211,90.0
1859.4646,82.0
1860.2084,67.0
1860.9525,96.0
1861.6969,82.0
1862.4415,96.0
1863.1865,76.0
1863.9318,89.0
1864.6774,86.0
1865.4232,88.0
1866.1694,85.0
1866.9159,74.0
1867.6627,76.0
1868.4098,71.0
1869.1571,77.0
1869.9048,98.0
1870.6527,90.0
1871.401,95.0
1872.1495,77.0
1872.8984,81.0
1873.6476,105.0
1874.3971,80.0
1875.1469,74.0
1875.8969,101.0
1876.6472,94.0
1877.3978,84.0
1878.1488,72.0
1878.9,80.0
1879.6516,90.0
1880.4034,85.0
1881.1556,68.0
1881.9081,87.0
1882.6609,70.0
1883.414,63.0
1884.1674,84.0
1884.921,110.0
1885.675,129.0
1886.4293,111.0
1887.1838,76.0
1887.9387,77.0
1888.6938,83.0
1889.4493,86.0
1890.2051,102.0
1890.9612,82.0
1891.7175,86.0
1892.4742,89.0
1893.2312,89.0
1893.9885,89.0
1894.7461,88.0
1895.504,91.0
1896.2622,72.0
1897.0208,122.0
1897.7795,104.0
1898.5387,95.0
1899.2981,71.0
1900.0579,81.0
1900.8179,81.0
1901.5782,86.0
1902.3389,72.0
1903.0999,76.0
1903.8611,77.0
1904.6227,91.0
1905.3845,94.0
1906.1467,72.0
1906.9092,87.0
1907.672,100.0
1908.435,72.0
1909.1985,74.0
1909.9622,98.0
1910.7262,86.0
1911.4905,125.0
1912.2551,89.0
1913.02,94.0
1913.7853,204.0
1914.5508,173.0
1915.3167,132.0
1916.0828,150.0
1916.8492,100.0
1917.616,78.0
1918.383,74.0
1919.1504,78.0
1919.9181,82.0
1920.686,91.0
1921.4543,93.0
1922.2229,85.0
1922.9918,70.0
1923.761,78.0
1924.5305,68.0
1925.3003,92.0
1926.0704,73.0
1926.8408,81.0
1927.6116,94.0
1928.3826,90.0
1929.1539,80.0
1929.9255,99.0
1930.6975,75.0
1931.4698,77.0
1932.2424,67.0
1933.0154,89.0
1933.7886,84.0
1934.5621,86.0
1935.3359,68.0
1936.1101,92.0
1936.8845,91.0
1937.6593,107.0
1938.4343,95.0
1939.2097,86.0
1939.9854,87.0
1940.7614,92.0
1941.5376,98.0
1942.3142,72.0
1943.0912,71.0
1943.8684,77.0
1944.646,104.0
1945.4238,89.0
1946.202,80.0
1946.9805,79.0
1947.7593,80.0
1948.5383,80.0
1949.3177,65.0
1950.0975,87.0
1950.8776,110.0
1951.658,89.0
1952.4386,84.0
1953.2196,73.0
1954.0009,89.0
1954.7825,103.0
1955.5643,87.0
1956.3466,78.0
1957.1292,75.0
1957.912,88.0
1958.6952,83.0
1959.4786,70.0
1960.2625,68.0
1961.0465,77.0
1961.8309,76.0
1962.6157,86.0
1963.4008,84.0
1964.1862,69.0
1964.9718,79.0
1965.7578,97.0
1966.5441,78.0
1967.3307,90.0
1968.1177,68.0
1968.9049,105.0
1969.6925,71.0
1970.4803,77.0
1971.2686,70.0
1972.057,78.0
1972.8458,78.0
1973.635,71.0
1974.4244,80.0
1975.2142,68.0
1976.0043,93.0
1976.7947,103.0
1977.5854,84.0
1978.3765,83.0
1979.1678,72.0
1979.9595,77.0
1980.7515,96.0
1981.5438,70.0
1982.3364,69.0
1983.1294,92.0
1983.9226,84.0
1984.7162,103.0
1985.5101,80.0
1986.3043,80.0
1987.0989,79.0
1987.8937,67.0
1988.6888,73.0
1989.4844,72.0
1990.2802,74.0
1991.0763,63.0
1991.8727,81.0
1992.6694,96.0
1993.4666,119.0
1994.2639,87.0
1995.0616,86.0
1995.8596,94.0
1996.658,82.0
1997.4567,84.0
1998.2556,78.0
1999.0549,92.0
1999.8546,87.0
2000.6545,81.0
2001.4548,78.0
2002.2554,75.0
2003.0563,80.0
2003.8575,66.0
2004.659,73.0
2005.4609,66.0
2006.2631,77.0
2007.0656,78.0
2007.8684,99.0
2008.6715,60.0
2009.475,112.0
2010.2788,102.0
2011.0829,92.0
2011.8873,121.0
2012.6921,122.0
2013.4972,102.0
2014.3026,81.0
2015.1083,86.0
2015.9143,87.0
2016.7207,68.0
2017.5273,84.0
2018.3344,81.0
2019.1417,69.0
2019.9493,87.0
2020.7573,71.0
2021.5657,82.0
2022.3743,69.0
2023.1832,67.0
2023.9926,85.0
2024.8021,77.0
2025.612,50.0
2026.4224,73.0
2027.2329,69.0
2028.0438,82.0
2028.855,99.0
2029.6665,96.0
2030.4784,88.0
2031.2905,84.0
2032.103,87.0
2032.9159,94.0
2033.729,79.0
2034.5425,85.0
2035.3563,77.0
2036.1704,67.0
2036.9849,76.0
2037.7997,88.0
2038.6147,91.0
2039.4302,80.0
2040.246,66.0
2041.062,75.0
2041.8784,84.0
2042.6952,94.0
2043.5123,104.0
2044.3297,76.0
2045.1475,82.0
2045.9656,76.0
2046.7839,85.0
2047.6027,71.0
2048.4216,68.0
2049.241,88.0
2050.0605,72.0
2050.8806,79.0
2051.701,91.0
2052.5217,91.0
2053.3428,75.0
2054.164,62.0
2054.9858,78.0
2055.8079,76.0
2056.6301,66.0
2057.453,90.0
2058.276,89.0
2059.099,98.0
2059.9229,76.0
2060.7468,75.0
2061.571,95.0
2062.3958,68.0
2063.2207,105.0
2064.046,64.0
2064.8716,71.0
2065.6975,84.0
2066.5237,77.0
2067.3503,75.0
2068.1772,65.0
2069.0046,76.0
2069.8323,77.0
2070.6602,81.0
2071.4885,66.0
2072.3171,66.0
2073.146,72.0
2073.9753,87.0
2074.805,92.0
2075.6348,84.0
2076.465,96.0
2077.2957,75.0
2078.1265,49.0
2078.9578,68.0
2079.7893,87.0
2080.6213,103.0
2081.4536,73.0
2082.2861,83.0
2083.1191,90.0
2083.9524,100.0
2084.786,88.0
2085.6199,85.0
2086.454,74.0
2087.2886,89.0
2088.1235,74.0
2088.9587,81.0
2089.7944,77.0
2090.6304,81.0
2091.4666,72.0
2092.3032,77.0
2093.1401,75.0
2093.9773,64.0
2094.815,84.0
2095.6528,78.0
2096.4912,86.0
2097.3298,66.0
2098.1687,70.0
2099.008,76.0
2099.8477,80.0
2100.6875,85.0
2101.5278,85.0
2102.3684,83.0
2103.2095,89.0
2104.0508,92.0
2104.8923,72.0
2105.7344,78.0
2106.5767,74.0
2107.4192,77.0
2108.2622,64.0
2109.1055,79.0
2109.9492,75.0
2110.7932,77.0
2111.6375,88.0
2112.4822,72.0
2113.3271,84.0
2114.1724,68.0
2115.018,71.0
2115.864,68.0
2116.7104,85.0
2117.5571,87.0
2118.404,66.0
2119.2515,77.0
2120.099,79.0
2120.9473,87.0
2121.7957,95.0
2122.6443,65.0
2123.4934,82.0
2124.3428,84.0
2125.1926,68.0
2126.0427,74.0
2126.893,91.0
2127.744,92.0
2128.595,90.0
2129.4463,87.0
2130.298,82.0
2131.1501,89.0
2132.0027,67.0
2132.8555,76.0
2133.7085,80.0
2134.562,80.0
2135.4158,88.0
2136.27,94.0
2137.1245,87.0
2137.9792,103.0
2138.8345,96.0
2139.69,100.0
2140.546,85.0
2141.402,85.0
2142.2585,95.0
2143.1155,108.0
2143.9727,97.0
2144.8303,94.0
2145.6882,94.0
2146.5464,83.0
2147.405,68.0
2148.264,87.0
2149.1233,90.0
2149.983,66.0
2150.843,72.0
2151.7034,69.0
2152.564,72.0
2153.425,96.0
2154.2864,68.0
2155.1482,74.0
2156.0103,88.0
2156.8726,74.0
2157.7354,85.0
2158.5984,67.0
2159.462,92.0
2160.3257,66.0
2161.1897,75.0
2162.0542,95.0
2162.919,97.0
2163.7842,88.0
2164.6497,95.0
2165.5156,86.0
2166.3818,87.0
2167.2483,73.0
2168.1152,74.0
2168.9824,94.0
2169.85,96.0
2170.718,101.0
2171.5864,80.0
2172.455,96.0
2173.324,72.0
2174.1934,82.0
2175.063,74.0
2175.933,99.0
2176.8035,83.0
2177.674,95.0
2178.5452,98.0
2179.4165,103.0
2180.2883,111.0
2181.1604,97.0
2182.033,98.0
2182.9058,103.0
2183.7788,85.0
2184.6523,88.0
2185.5261,97.0
2186.4004,69.0
2187.275,74.0
2188.15,91.0
2189.0251,85.0
2189.9006,95.0
2190.7766,82.0
2191.6528,88.0
2192.5295,94.0
2193.4065,77.0
2194.284,83.0
2195.1616,83.0
2196.0398,102.0
2196.9182,87.0
2197.7969,93.0
2198.676,82.0
2199.5554,100.0
2200.4353,89.0
2201.3154,89.0
2202.196,71.0
2203.077,96.0
2203.9583,89.0
2204.8398,90.0
2205.7217,101.0
2206.604,102.0
2207.4866,78.0
2208.3696,80.0
2209.253,98.0
2210.1367,75.0
2211.0208,86.0
2211.9053,96.0
2212.79,83.0
2213.675,100.0
2214.5605,91.0
2215.4463,93.0
2216.3325,81.0
2217.219,101.0
2218.106,77.0
2218.9932,78.0
2219.8809,99.0
2220.7688,94.0
2221.6572,86.0
2222.546,102.0
2223.4348,101.0
2224.3242,77.0
2225.2139,102.0
2226.104,83.0
2226.9944,90.0
2227.8853,93.0
2228.7764,63.0
2229.668,105.0
2230.5598,86.0
2231.4521,105.0
2232.3447,93.0
2233.2375,98.0
2234.1309,148.0
2235.0244,108.0
2235.9185,98.0
2236.8127,100.0
2237.7075,102.0
2238.6025,97.0
2239.498,96.0
2240.3938,118.0
2241.29,79.0
2242.1865,98.0
2243.0835,115.0
2243.9807,91.0
2244.8784,90.0
2245.7764,96.0
2246.6746,85.0
2247.5732,85.0
2248.4722,96.0
2249.3716,89.0
2250.2712,94.0
2251.1714,87.0
2252.0718,121.0
2252.9727,96.0
2253.8738,85.0
2254.7754,84.0
2255.6772,88.0
2256.5796,95.0
2257.4822,110.0
2258.3853,119.0
2259.2886,94.0
2260.1924,132.0
2261.0964,127.0
2262.001,100.0
2262.9058,92.0
2263.811,124.0
2264.7166,118.0
2265.6226,110.0
2266.5288,103.0
2267.4353,102.0
2268.3423,99.0
2269.2495,73.0
2270.1572,102.0
2271.0652,92.0
2271.9736,101.0
2272.8823,114.0
2273.7915,102.0
2274.701,106.0
2275.6108,168.0
2276.521,181.0
2277.4316,155.0
2278.3425,146.0
2279.254,117.0
2280.1655,114.0
2281.0776,99.0
2281.99,129.0
2282.9028,99.0
2283.816,111.0
2284.7295,112.0
2285.6433,108.0
2286.5576,93.0
2287.4722,90.0
2288.3872,92.0
2289.3025,100.0
2290.2183,91.0
2291.1343,96.0
2292.0508,111.0
2292.9675,115.0
2293.8848,151.0
2294.8022,126.0
2295.7202,116.0
2296.6384,109.0
2297.5571,133.0
2298.476,110.0
2299.3955,89.0
2300.3152,110.0
2301.2354,108.0
2302.1558,117.0
2303.0767,136.0
2303.9978,118.0
2304.9194,111.0
2305.8413,114.0
2306.7637,125.0
2307.6863,99.0
2308.6094,125.0
2309.5327,106.0
2310.4565,113.0
2311.3806,113.0
2312.3052,119.0
2313.23,130.0
2314.1553,112.0
2315.081,99.0
2316.007,97.0
2316.9336,119.0
2317.8604,114.0
2318.7876,146.0
2319.715,160.0
2320.643,140.0
2321.5713,140.0
2322.5,122.0
2323.429,123.0
2324.3584,131.0
2325.288,110.0
2326.2183,111.0
2327.1487,121.0
2328.0796,131.0
2329.0107,115.0
2329.9424,139.0
2330.8743,119.0
2331.8066,110.0
2332.7393,122.0
2333.6724,106.0
2334.6057,104.0
2335.5396,86.0
2336.4739,96.0
2337.4084,89.0
2338.3435,105.0
2339.2788,106.0
2340.2146,102.0
2341.1506,98.0
2342.0872,112.0
2343.024,102.0
2343.9612,124.0
2344.8987,156.0
2345.8367,151.0
2346.775,152.0
2347.7136,125.0
2348.6526,128.0
2349.592,136.0
2350.532,121.0
2351.4722,110.0
2352.4128,119.0
2353.3538,116.0
2354.2952,109.0
2355.2368,111.0
2356.179,107.0
2357.1213,106.0
2358.0642,103.0
2359.0073,107.0
2359.951,112.0
2360.895,89.0
2361.8394,109.0
2362.7842,110.0
2363.7292,105.0
2364.6748,113.0
2365.6206,101.0
2366.567,95.0
2367.5134,125.0
2368.4604,109.0
2369.4077,108.0
2370.3555,109.0
2371.3037,121.0
2372.2522,106.0
2373.2012,100.0
2374.1504,100.0
2375.1,100.0
2376.05,86.0
2377.0005,98.0
2377.9512,109.0
2378.9023,94.0
2379.854,90.0
2380.806,95.0
2381.7583,99.0
2382.711,108.0
2383.664,92.0
2384.6174,88.0
2385.5713,101.0
2386.5256,99.0
2387.4802,120.0
2388.4353,122.0
2389.3906,123.0
2390.3464,107.0
2391.3025,95.0
2392.259,100.0
2393.2158,102.0
2394.173,99.0
2395.1309,84.0
2396.0889,115.0
2397.0474,124.0
2398.006,97.0
2398.9653,105.0
2399.9248,80.0
2400.8848,90.0
2401.8452,92.0
2402.806,77.0
2403.767,119.0
2404.7285,82.0
2405.6904,92.0
2406.6526,103.0
2407.6152,105.0
2408.5784,98.0
2409.5417,93.0
2410.5056,98.0
2411.4697,91.0
2412.4343,106.0
2413.3994,91.0
2414.3647,92.0
2415.3306,96.0
2416.2966,91.0
2417.2632,100.0
2418.23,85.0
2419.1973,106.0
2420.165,105.0
2421.133,96.0
2422.1016,117.0
2423.0703,125.0
2424.0396,105.0
2425.0093,82.0
2425.9792,88.0
2426.9497,95.0
2427.9204,90.0
2428.8916,111.0
2429.863,94.0
2430.835,116.0
2431.8074,143.0
2432.78,121.0
2433.7532,77.0
2434.7266,90.0
2435.7004,99.0
2436.6748,76.0
2437.6494,103.0
2438.6245,93.0
2439.5999,92.0
2440.5757,83.0
2441.552,81.0
2442.5286,94.0
2443.5056,78.0
2444.483,78.0
2445.4607,96.0
2446.439,108.0
2447.4175,105.0
2448.3965,128.0
2449.3757,107.0
2450.3555,105.0
2451.3357,104.0
2452.3162,85.0
2453.297,79.0
2454.2783,108.0
2455.26,84.0
2456.2422,89.0
2457.2246,90.0
2458.2075,92.0
2459.191,81.0
2460.1746,85.0
2461.1587,82.0
2462.143,75.0
2463.128,100.0
2464.1133,117.0
2465.0989,96.0
2466.085,112.0
2467.0713,91.0
2468.058,92.0
2469.0454,107.0
2470.033,111.0
2471.021,90.0
2472.0095,82.0
2472.9983,90.0
2473.9875,63.0
2474.977,79.0
2475.967,95.0
2476.9575,76.0
2477.9482,80.0
2478.9395,73.0
2479.931,94.0
2480.9229,97.0
2481.9153,96.0
2482.908,102.0
2483.9011,84.0
2484.8948,108.0
2485.8887,91.0
2486.883,95.0
2487.878,94.0
2488.873,84.0
2489.8687,87.0
2490.8645,108.0
2491.8608,100.0
2492.8577,74.0
2493.8547,99.0
2494.8523,84.0
2495.8503,101.0
2496.8486,111.0
2497.8474,106.0
2498.8464,114.0
2499.846,106.0
2500.846,100.0
2501.8462,100.0
2502.847,95.0
2503.8481,83.0
2504.8496,77.0
2505.8516,76.0
2506.854,77.0
2507.8567,101.0
2508.8599,93.0
2509.8635,84.0
2510.8674,86.0
2511.8718,83.0
2512.8765,103.0
2513.8816,88.0
2514.8872,98.0
2515.893,91.0
2516.8994,84.0
2517.9062,80.0
2518.9133,90.0
2519.921,98.0
2520.929,92.0
2521.9373,88.0
2522.946,90.0
2523.9553,82.0
2524.9648,86.0
2525.9749,76.0
2526.9854,87.0
2527.996,93.0
2529.0073,84.0
2530.019,115.0
2531.031,98.0
2532.0435,108.0
2533.0562,112.0
2534.0693,83.0
2535.083,72.0
2536.097,94.0
2537.1113,83.0
2538.1262,85.0
2539.1414,83.0
2540.157,78.0
2541.173,78.0
2542.1895,78.0
2543.2063,95.0
2544.2236,86.0
2545.2412,93.0
2546.2593,88.0
2547.2778,93.0
2548.2966,110.0
2549.316,112.0
2550.3357,111.0
2551.3557,86.0
2552.3762,92.0
2553.3972,70.0
2554.4185,86.0
2555.4402,92.0
2556.4624,83.0
2557.485,71.0
2558.508,89.0
2559.5315,78.0
2560.5554,105.0
2561.5796,87.0
2562.6042,121.0
2563.6294,120.0
2564.6548,108.0
2565.6807,125.0
2566.707,99.0
2567.7336,82.0
2568.7607,102.0
2569.7883,85.0
2570.8162,91.0
2571.8445,89.0
2572.8733,103.0
2573.9023,73.0
2574.932,92.0
2575.962,95.0
2576.9922,97.0
2578.023,116.0
2579.0542,87.0
2580.086,96.0
2581.118,83.0
2582.1504,84.0
2583.1833,90.0
2584.2166,87.0
2585.2502,107.0
2586.2844,100.0
2587.3188,104.0
2588.3538,97.0
2589.3892,107.0
2590.4248,80.0
2591.461,99.0
2592.4976,101.0
2593.5347,117.0
2594.572,134.0
2595.6099,98.0
2596.6482,80.0
2597.6868,93.0
2598.7258,81.0
2599.7654,97.0
2600.8052,95.0
2601.8455,91.0
2602.8862,105.0
2603.9275,94.0
2604.969,112.0
2606.011,91.0
2607.0535,99.0
2608.0962,98.0
2609.1394,109.0
2610.183,110.0
2611.2273,136.0
2612.2717,91.0
2613.3167,95.0
2614.362,96.0
2615.4077,92.0
2616.4539,88.0
2617.5005,103.0
2618.5476,117.0
2619.595,107.0
2620.6428,117.0
2621.6912,117.0
2622.7397,107.0
2623.7888,122.0
2624.8384,113.0
2625.8884,74.0
2626.9387,78.0
2627.9895,91.0
2629.0408,64.0
2630.0923,100.0
2631.1443,98.0
2632.1968,100.0
2633.2498,106.0
2634.303,94.0
2635.3567,100.0
2636.411,106.0
2637.4653,102.0
2638.5203,91.0
2639.5757,85.0
2640.6316,76.0
2641.6877,88.0
2642.7444,93.0
2643.8015,97.0
2644.8591,115.0
2645.917,111.0
2646.9753,113.0
2648.0342,128.0
2649.0935,100.0
2650.153,114.0
2651.2131,88.0
2652.2737,106.0
2653.3345,88.0
2654.3958,95.0
2655.4575,100.0
2656.5198,94.0
2657.5823,97.0
2658.6453,87.0
2659.7087,95.0
2660.7727,104.0
2661.837,90.0
2662.9016,104.0
2663.9668,166.0
2665.0325,175.0
2666.0984,152.0
2667.1648,129.0
2668.2317,122.0
2669.299,97.0
2670.3667,89.0
2671.4348,110.0
2672.5034,96.0
2673.5725,102.0
2674.6418,94.0
2675.7117,79.0
2676.782,87.0
2677.8528,86.0
2678.9238,109.0
2679.9954,97.0
2681.0674,86.0
2682.14,95.0
2683.2126,74.0
2684.286,73.0
2685.3596,98.0
2686.4338,112.0
2687.5083,122.0
2688.5833,93.0
2689.6587,90.0
2690.7346,111.0
2691.8108,99.0
2692.8875,80.0
2693.9646,101.0
2695.0422,91.0
2696.1204,103.0
2697.1987,87.0
2698.2776,95.0
2699.357,95.0
2700.4368,98.0
2701.5168,87.0
2702.5974,86.0
2703.6785,100.0
2704.76,72.0
2705.8418,100.0
2706.924,92.0
2708.0068,83.0
2709.09,92.0
2710.1738,95.0
2711.2578,97.0
2712.3423,113.0
2713.4272,95.0
2714.5127,84.0
2715.5984,94.0
2716.6846,90.0
2717.7712,104.0
2718.8584,83.0
2719.946,97.0
2721.034,77.0
2722.1223,111.0
2723.2112,94.0
2724.3005,95.0
2725.3901,101.0
2726.4802,78.0
2727.5708,81.0
2728.6619,92.0
2729.7534,100.0
2730.8452,113.0
2731.9375,84.0
2733.0303,88.0
2734.1235,118.0
2735.2173,133.0
2736.3113,169.0
2737.4058,113.0
2738.5007,95.0
2739.5962,92.0
2740.6921,87.0
2741.7883,86.0
2742.885,85.0
2743.9822,98.0
2745.0798,110.0
2746.178,87.0
2747.2764,86.0
2748.3752,103.0
2749.4746,106.0
2750.5745,96.0
2751.6748,121.0
2752.7754,95.0
2753.8765,83.0
2754.978,91.0
2756.08,85.0
2757.1826,79.0
2758.2854,86.0
2759.3887,85.0
2760.4924,94.0
2761.5967,71.0
2762.7014,97.0
2763.8064,99.0
2764.9119,95.0
2766.0178,85.0
2767.1243,83.0
2768.2312,91.0
2769.3384,85.0
2770.446,96.0
2771.5542,103.0
2772.6628,77.0
2773.772,71.0
2774.8816,98.0
2775.9915,123.0
2777.1018,119.0
2778.2126,119.0
2779.324,99.0
2780.4358,110.0
2781.5479,90.0
2782.6604,75.0
2783.7734,92.0
2784.887,78.0
2786.001,119.0
2787.1155,63.0
2788.2302,85.0
2789.3455,76.0
2790.4612,102.0
2791.5774,108.0
2792.694,210.0
2793.8113,211.0
2794.9287,238.0
2796.0466,178.0
2797.165,152.0
2798.284,155.0
2799.4033,140.0
2800.5232,128.0
2801.6433,119.0
2802.764,117.0
2803.885,146.0
2805.0066,124.0
2806.1287,111.0
2807.2512,143.0
2808.374,142.0
2809.4973,151.0
2810.621,145.0
2811.7454,125.0
2812.87,121.0
2813.9954,132.0
2815.1208,159.0
2816.2468,159.0
2817.3733,132.0
2818.5002,146.0
2819.6277,142.0
2820.7556,139.0
2821.884,137.0
2823.0127,128.0
2824.1418,133.0
2825.2715,115.0
2826.4016,142.0
2827.5322,112.0
2828.6633,135.0
2829.7947,143.0
2830.9265,120.0
2832.0588,161.0
2833.1917,136.0
2834.325,131.0
2835.4587,124.0
2836.593,143.0
2837.7275,143.0
2838.8625,118.0
2839.998,125.0
2841.134,133.0
2842.2705,120.0
2843.4075,162.0
2844.545,135.0
2845.6829,123.0
2846.821,139.0
2847.9597,134.0
2849.0989,150.0
2850.2385,153.0
2851.3787,134.0
2852.5193,150.0
2853.6604,145.0
2854.8018,150.0
2855.9436,138.0
2857.086,144.0
2858.2288,174.0
2859.372,166.0
2860.5159,148.0
2861.6602,131.0
2862.805,120.0
2863.95,141.0
2865.0955,156.0
2866.2415,186.0
2867.388,152.0
2868.535,134.0
2869.6824,115.0
2870.8303,124.0
2871.9788,134.0
2873.1274,133.0
2874.2766,133.0
2875.4263,170.0
2876.5764,152.0
2877.727,123.0
2878.8782,117.0
2880.0298,138.0
2881.182,98.0
2882.3345,121.0
2883.4873,139.0
2884.6406,125.0
2885.7944,119.0
2886.9487,137.0
2888.1035,130.0
2889.2588,158.0
2890.4146,156.0
2891.5708,179.0
2892.7275,141.0
2893.8845,143.0
2895.042,147.0
2896.2,151.0
2897.3584,121.0
2898.5173,134.0
2899.6768,115.0
2900.8367,121.0
2901.997,125.0
2903.158,115.0
2904.3193,123.0
2905.481,159.0
2906.643,142.0
2907.8057,176.0
2908.9688,233.0
2910.1323,206.0
2911.2964,204.0
2912.461,158.0
2913.626,153.0
2914.7915,123.0
2915.9575,129.0
2917.124,134.0
2918.2908,130.0
2919.458,139.0
2920.6257,142.0
2921.794,135.0
2922.9626,129.0
2924.1318,151.0
2925.3015,145.0
2926.4717,149.0
2927.6423,154.0
2928.8135,130.0
2929.985,133.0
2931.157,172.0
2932.3293,170.0
2933.5022,176.0
2934.6755,161.0
2935.8494,135.0
2937.0237,117.0
2938.1985,145.0
2939.3738,143.0
2940.5496,145.0
2941.7258,160.0
2942.9026,159.0
2944.0798,157.0
2945.2576,164.0
2946.4358,150.0
2947.6143,201.0
2948.7932,251.0
2949.9727,236.0
2951.1526,201.0
2952.333,172.0
2953.514,170.0
2954.6953,147.0
2955.8772,134.0
2957.0596,124.0
2958.2424,134.0
2959.4258,147.0
2960.6096,129.0
2961.794,142.0
2962.9788,138.0
2964.164,148.0
2965.3496,147.0
2966.5356,126.0
2967.7222,112.0
2968.9092,129.0
2970.0967,145.0
2971.2847,158.0
2972.4731,167.0
2973.662,160.0
2974.8516,141.0
2976.0415,129.0
2977.232,135.0
2978.4229,141.0
2979.6143,184.0
2980.8062,120.0
2981.9985,129.0
2983.1914,152.0
2984.3848,152.0
2985.5786,141.0
2986.773,148.0
2987.9678,143.0
2989.1628,128.0
2990.3584,160.0
2991.5544,136.0
2992.751,136.0
2993.948,144.0
2995.1455,134.0
2996.3435,146.0
2997.542,146.0
2998.741,169.0
2999.9404,144.0
3001.1404,137.0
3002.3408,147.0
3003.5417,146.0
3004.7432,158.0
3005.945,169.0
3007.1475,151.0
3008.3503,153.0
3009.5537,189.0
3010.7576,150.0
3011.962,146.0
3013.1667,146.0
3014.372,164.0
3015.578,147.0
3016.7842,158.0
3017.991,133.0
3019.1982,131.0
3020.406,196.0
3021.6143,190.0
3022.823,176.0
3024.0322,140.0
3025.242,119.0
3026.4521,168.0
3027.6628,151.0
3028.874,134.0
3030.0857,122.0
3031.2976,156.0
3032.51,162.0
3033.723,146.0
3034.9363,129.0
3036.1501,136.0
3037.3645,120.0
3038.5793,158.0
3039.7947,135.0
3041.0105,126.0
3042.2268,153.0
3043.4436,150.0
3044.661,128.0
3045.8787,145.0
3047.097,124.0
3048.3157,131.0
3049.535,142.0
3050.7546,127.0
3051.9749,115.0
3053.1956,129.0
3054.4167,141.0
3055.6384,123.0
3056.8606,126.0
3058.0833,148.0
3059.3064,178.0
3060.53,144.0
3061.7542,173.0
3062.9788,127.0
3064.2039,130.0
3065.4294,137.0
3066.6555,142.0
3067.882,164.0
3069.1091,139.0
3070.3367,134.0
3071.5647,151.0
3072.7932,128.0
3074.0222,122.0
3075.2517,121.0
3076.4817,147.0
3077.7124,124.0
3078.9436,119.0
3080.1753,134.0
3081.4075,137.0
3082.6401,133.0
3083.8733,129.0
3085.107,132.0
3086.341,123.0
3087.5757,134.0
3088.8108,141.0
3090.0464,135.0
3091.2825,133.0
3092.519,155.0
3093.756,148.0
3094.9937,133.0
3096.2317,120.0
3097.4702,156.0
3098.7092,130.0
3099.9487,130.0
3101.1887,122.0
3102.4292,129.0
3103.6702,140.0
3104.9116,154.0
3106.1536,133.0
3107.396,130.0
3108.639,150.0
3109.8823,147.0
3111.1262,186.0
3112.3706,187.0
3113.6155,168.0
3114.8608,141.0
3116.1067,128.0
3117.353,168.0
3118.5999,132.0
3119.8474,152.0
3121.0955,113.0
3122.344,133.0
3123.593,140.0
3124.8425,129.0
3126.0925,122.0
3127.343,147.0
3128.594,169.0
3129.8455,131.0
3131.0974,119.0
3132.3499,131.0
3133.6028,148.0
3134.8562,141.0
3136.11,111.0
3137.3645,169.0
3138.6194,173.0
3139.8748,147.0
3141.1306,138.0
3142.387,149.0
3143.6438,119.0
3144.9014,132.0
3146.1594,148.0
3147.418,161.0
3148.677,167.0
3149.9365,122.0
3151.1965,152.0
3152.457,149.0
3153.718,148.0
3154.9795,146.0
3156.2415,138.0
3157.504,138.0
3158.7668,136.0
3160.0303,127.0
3161.2942,130.0
3162.5586,135.0
3163.8237,114.0
3165.0894,114.0
3166.3555,135.0
3167.622,164.0
3168.8892,144.0
3170.1567,151.0
3171.4248,149.0
3172.6934,140.0
3173.9624,136.0
3175.232,145.0
3176.502,139.0
3177.7725,150.0
3179.0435,126.0
3180.3152,134.0
3181.5874,131.0
3182.86,139.0
3184.1333,123.0
3185.407,129.0
3186.6812,177.0
3187.9558,202.0
3189.231,185.0
3190.5066,176.0
3191.7827,149.0
3193.0593,145.0
3194.3367,153.0
3195.6145,157.0
3196.8928,158.0
3198.1716,136.0
3199.451,133.0
3200.7307,127.0
3202.011,143.0
3203.2917,115.0
3204.573,159.0
3205.8547,148.0
3207.137,125.0
3208.42,140.0
3209.7034,138.0
3210.9873,131.0
3212.2717,125.0
3213.5566,132.0
3214.842,156.0
3216.128,150.0
3217.4143,153.0
3218.7012,130.0
3219.9888,148.0
3221.2769,146.0
3222.5654,168.0
3223.8545,142.0
3225.144,135.0
3226.434,133.0
3227.7246,123.0
3229.0156,114.0
3230.3071,122.0
3231.5994,144.0
3232.892,122.0
3234.1853,105.0
3235.479,148.0
3236.7732,153.0
3238.0679,172.0
3239.363,215.0
3240.6587,181.0
3241.9548,135.0
3243.2517,127.0
3244.549,151.0
3245.847,125.0
3247.1453,120.0
3248.444,138.0
3249.7434,121.0
3251.0432,125.0
3252.3438,119.0
3253.6448,140.0
3254.9463,164.0
3256.2483,151.0
3257.5508,133.0
3258.8538,125.0
3260.1572,111.0
3261.4612,130.0
3262.7659,134.0
3264.071,122.0
3265.3767,131.0
3266.6829,117.0
3267.9895,126.0
3269.2966,113.0
3270.6042,178.0
3271.9126,138.0
3273.2214,124.0
3274.5308,160.0
3275.8406,141.0
3277.151,121.0
3278.4617,145.0
3279.773,149.0
3281.085,130.0
3282.3975,143.0
3283.7104,115.0
3285.024,140.0
3286.338,144.0
3287.6523,127.0
3288.9673,134.0
3290.283,122.0
3291.599,142.0
3292.9158,128.0
3294.233,128.0
3295.5505,124.0
3296.8687,129.0
3298.1875,127.0
3299.5068,153.0
3300.8267,131.0
3302.147,135.0
3303.4678,145.0
3304.789,129.0
3306.111,118.0
3307.4336,137.0
3308.7566,142.0
3310.08,124.0
3311.404,129.0
3312.7285,126.0
3314.0537,113.0
3315.3794,131.0
3316.7056,139.0
3318.0322,130.0
3319.3594,109.0
3320.687,155.0
3322.0154,132.0
3323.3442,148.0
3324.6736,155.0
3326.0034,127.0
3327.3337,147.0
3328.6648,125.0
3329.9963,121.0
3331.3284,118.0
3332.661,135.0
3333.994,141.0
3335.3274,152.0
3336.6616,155.0
3337.9963,137.0
3339.3315,144.0
3340.6672,148.0
3342.0034,114.0
3343.3403,128.0
3344.6777,147.0
3346.0156,125.0
3347.354,112.0
3348.6929,140.0
3350.0322,130.0
3351.3723,160.0
3352.713,164.0
3354.054,132.0
3355.3955,152.0
3356.7375,132.0
3358.0803,125.0
3359.4236,153.0
3360.7673,140.0
3362.1116,142.0
3363.4563,125.0
3364.8018,120.0
3366.1477,119.0
3367.4941,151.0
3368.841,150.0
3370.1887,149.0
3371.5369,148.0
3372.8855,139.0
3374.2346,152.0
3375.5842,155.0
3376.9346,124.0
3378.2854,126.0
3379.6367,152.0
3380.9885,129.0
3382.3408,116.0
3383.6938,144.0
3385.0474,133.0
3386.4014,150.0
3387.7559,148.0
3389.1108,127.0
3390.4666,128.0
3391.8228,175.0
3393.1794,133.0
3394.5366,135.0
3395.8945,123.0
3397.253,133.0
3398.6118,160.0
3399.9712,145.0
3401.3313,143.0
3402.692,147.0
3404.053,153.0
3405.4146,154.0
3406.7766,158.0
3408.1394,130.0
3409.5027,163.0
3410.8665,132.0
3412.2307,143.0
3413.5957,156.0
3414.9612,154.0
3416.3271,136.0
3417.6936,137.0
3419.0608,127.0
3420.4285,168.0
3421.7966,145.0
3423.1653,143.0
3424.5347,133.0
3425.9045,134.0
3427.275,152.0
3428.6458,174.0
3430.017,157.0
3431.3892,145.0
3432.7617,140.0
3434.1348,137.0
3435.5083,145.0
3436.8826,145.0
3438.2573,128.0
3439.6326,142.0
3441.0083,140.0
3442.3848,152.0
3443.7617,135.0
3445.1392,117.0
3446.5173,132.0
3447.896,128.0
3449.2751,146.0
3450.6548,123.0
3452.0352,124.0
3453.416,145.0
3454.7974,121.0
3456.1792,140.0
3457.5618,156.0
3458.9448,133.0
3460.3284,128.0
3461.7124,137.0
3463.0972,113.0
3464.4824,151.0
3465.8682,137.0
3467.2544,160.0
3468.6414,122.0
3470.0288,142.0
3471.4167,145.0
3472.8054,121.0
3474.1946,136.0
3475.5842,125.0
3476.9744,138.0
3478.3652,150.0
3479.7566,141.0
3481.1484,136.0
3482.541,138.0
3483.934,146.0
3485.3276,138.0
3486.7217,179.0
3488.1165,126.0
3489.5117,138.0
3490.9075,151.0
3492.304,145.0
3493.701,149.0
3495.0984,139.0
3496.4963,148.0
3497.895,125.0
3499.2942,156.0
3500.6938,171.0
3502.0942,165.0
3503.495,165.0
3504.8965,168.0
3506.2983,142.0
3507.701,190.0
3509.104,146.0
3510.5076,154.0
3511.9119,160.0
3513.3167,169.0
3514.722,150.0
3516.128,135.0
3517.5344,164.0
3518.9414,133.0
3520.3489,147.0
3521.757,160.0
3523.1658,175.0
3524.575,163.0
3525.9849,147.0
3527.3953,161.0
3528.8062,144.0
3530.2178,193.0
3531.63,218.0
3533.0425,151.0
3534.4558,145.0
3535.8696,171.0
3537.284,126.0
3538.6987,176.0
3540.1143,128.0
3541.5303,150.0
3542.9468,140.0
3544.364,153.0
3545.7817,171.0
3547.2,137.0
3548.619,135.0
3550.0383,139.0
3551.4583,134.0
3552.879,152.0
3554.3,146.0
3555.7217,146.0
3557.144,147.0
3558.567,154.0
3559.9902,140.0
3561.4143,139.0
3562.8389,167.0
3564.264,155.0
3565.6897,155.0
3567.116,142.0
3568.5427,134.0
3569.9702,161.0
3571.3982,186.0
3572.8267,157.0
3574.2559,153.0
3575.6855,180.0
3577.1157,149.0
3578.5466,158.0
3579.978,142.0
3581.41,167.0
3582.8425,155.0
3584.2756,154.0
3585.7092,168.0
3587.1436,172.0
3588.5784,153.0
3590.014,145.0
3591.45,137.0
3592.8865,173.0
3594.3237,186.0
3595.7615,156.0
3597.1997,174.0
3598.6387,180.0
3600.0781,130.0
3601.518,172.0
3602.9587,177.0
3604.4,133.0
3605.8416,143.0
3607.284,231.0
3608.7268,196.0
3610.1704,156.0
3611.6145,156.0
3613.059,140.0
3614.5044,131.0
3615.9502,216.0
3617.3965,236.0
3618.8435,179.0
3620.291,171.0
3621.739,163.0
3623.1877,149.0
3624.637,151.0
3626.087,177.0
3627.5374,186.0
3628.9883,182.0
3630.44,148.0
3631.892,141.0
3633.3447,140.0
3634.798,138.0
3636.252,154.0
3637.7065,181.0
3639.1616,144.0
3640.6172,154.0
3642.0735,161.0
3643.5303,167.0
3644.9878,167.0
3646.4458,159.0
3647.9043,178.0
3649.3635,154.0
3650.8232,166.0
3652.2837,131.0
3653.7446,162.0
3655.206,132.0
3656.6682,165.0
3658.1309,149.0
3659.594,170.0
3661.0579,155.0
3662.5222,166.0
3663.9873,158.0
3665.453,172.0
3666.919,157.0
3668.3857,173.0
3669.853,146.0
3671.321,142.0
3672.7896,159.0
3674.2585,142.0
3675.7283,179.0
3677.1985,172.0
3678.6694,170.0
3680.1409,167.0
3681.613,173.0
3683.0857,159.0
3684.5588,155.0
3686.0327,149.0
3687.507,154.0
3688.9822,137.0
3690.4578,158.0
3691.9338,160.0
3693.4106,180.0
3694.888,159.0
3696.366,165.0
3697.8445,165.0
3699.3237,136.0
3700.8035,175.0
3702.2837,136.0
3703.7646,153.0
3705.246,166.0
3706.7283,188.0
3708.211,158.0
3709.6943,205.0
3711.1782,177.0
3712.6626,171.0
3714.1477,155.0
3715.6333,156.0
3717.1196,173.0
3718.6064,189.0
3720.094,146.0
3721.582,179.0
3723.0706,156.0
3724.5598,143.0
3726.0496,174.0
3727.54,181.0
3729.031,159.0
3730.5227,168.0
3732.015,162.0
3733.5078,207.0
3735.0012,189.0
3736.495,205.0
3737.9897,199.0
3739.4849,160.0
3740.9807,152.0
3742.477,204.0
3743.974,168.0
3745.4717,175.0
3746.97,144.0
3748.4688,163.0
3749.968,239.0
3751.468,369.0
3752.9685,427.0
3754.4697,250.0
3755.9714,223.0
3757.4739,197.0
3758.9768,200.0
3760.4805,165.0
3761.9846,190.0
3763.4895,154.0
3764.9949,165.0
3766.501,168.0
3768.0076,209.0
3769.515,189.0
3771.0227,186.0
3772.531,194.0
3774.04,201.0
3775.5496,201.0
3777.0598,179.0
3778.5706,203.0
3780.082,188.0
3781.594,183.0
3783.1067,229.0
3784.6199,242.0
3786.1338,195.0
3787.6482,193.0
3789.1633,195.0
3790.679,182.0
3792.1953,165.0
3793.7122,169.0
3795.2297,155.0
3796.7478,194.0
3798.2666,180.0
3799.786,209.0
3801.306,197.0
3802.8264,168.0
3804.3477,177.0
3805.8694,185.0
3807.3918,187.0
3808.9148,203.0
3810.4385,175.0
3811.9626,176.0
3813.4875,205.0
3815.013,212.0
3816.539,186.0
3818.0657,201.0
3819.593,180.0
3821.1208,167.0
3822.6494,175.0
3824.1785,149.0
3825.7083,160.0
3827.2385,165.0
3828.7695,167.0
3830.301,170.0
3831.8333,221.0
3833.366,173.0
3834.8994,195.0
3836.4333,166.0
3837.968,166.0
3839.5032,186.0
3841.039,218.0
3842.5754,167.0
3844.1125,188.0
3845.6501,190.0
3847.1885,213.0
3848.7273,215.0
3850.2668,206.0
3851.807,213.0
3853.3477,170.0
3854.889,187.0
3856.431,165.0
3857.9734,181.0
3859.5166,196.0
3861.0603,177.0
3862.6047,174.0
3864.1497,170.0
3865.6953,206.0
3867.2417,184.0
3868.7886,169.0
3870.3362,208.0
3871.8843,218.0
3873.433,182.0
3874.9824,188.0
3876.5325,185.0
3878.083,182.0
3879.6343,184.0
3881.186,216.0
3882.7385,220.0
3884.2915,191.0
3885.8452,218.0
3887.3997,203.0
3888.9546,205.0
3890.5103,187.0
3892.0664,182.0
3893.6233,191.0
3895.1807,208.0
3896.7388,208.0
3898.2974,204.0
3899.8567,239.0
3901.4167,198.0
3902.9773,191.0
3904.5386,195.0
3906.1003,199.0
3907.6628,187.0
3909.2258,181.0
3910.7896,167.0
3912.3538,159.0
3913.9187,205.0
3915.4844,224.0
3917.0505,218.0
3918.6174,170.0
3920.1848,191.0
3921.753,175.0
3923.3215,176.0
3924.8909,195.0
3926.461,181.0
3928.0315,186.0
3929.6028,179.0
3931.1746,193.0
3932.747,176.0
3934.32,181.0
3935.8938,188.0
3937.4683,179.0
3939.0432,193.0
3940.619,197.0
3942.195,182.0
3943.772,186.0
3945.3494,154.0
3946.9275,174.0
3948.5063,184.0
3950.0857,184.0
3951.6658,164.0
3953.2463,180.0
3954.8276,195.0
3956.4097,182.0
3957.9922,195.0
3959.5754,217.0
3961.1592,165.0
3962.7437,196.0
3964.3289,172.0
3965.9146,169.0
3967.501,181.0
3969.088,175.0
3970.6755,193.0
3972.264,174.0
3973.8528,172.0
3975.4424,155.0
3977.0325,161.0
3978.6233,177.0
3980.2148,161.0
3981.807,181.0
3983.3997,198.0
3984.993,191.0
3986.587,182.0
3988.1816,179.0
3989.7769,171.0
3991.3728,212.0
3992.9692,216.0
3994.5664,171.0
3996.1643,179.0
3997.7627,178.0
3999.3618,168.0
4000.9617,176.0
4002.562,199.0
4004.163,207.0
4005.7646,195.0
4007.367,181.0
4008.97,184.0
4010.5735,209.0
4012.1777,180.0
4013.7827,199.0
4015.3882,189.0
4016.9944,192.0
4018.601,180.0
4020.2085,188.0
4021.8167,198.0
4023.4253,193.0
4025.0347,176.0
4026.6448,178.0
4028.2554,226.0
4029.8667,220.0
4031.4788,180.0
4033.0913,183.0
4034.7046,214.0
4036.3184,216.0
4037.9329,227.0
4039.548,230.0
4041.1638,225.0
4042.7803,240.0
4044.3975,204.0
4046.0151,214.0
4047.6335,213.0
4049.2527,189.0
4050.8723,305.0
4052.4927,275.0
4054.1138,223.0
4055.7354,256.0
4057.3577,223.0
4058.9807,291.0
4060.6042,325.0
4062.2285,301.0
4063.8535,238.0
4065.479,265.0
4067.1052,258.0
4068.7322,276.0
4070.3596,289.0
4071.9878,324.0
4073.6167,309.0
4075.246,309.0
4076.8762,288.0
4078.507,299.0
4080.1384,320.0
4081.7705,383.0
4083.4033,347.0
4085.0366,434.0
4086.6707,482.0
4088.3054,329.0
4089.9407,281.0
4091.5767,255.0
4093.2134,561.0
4094.8506,929.0
4096.489,531.0
4098.1274,357.0
4099.7666,292.0
4101.4067,588.0
4103.0474,1609.0
4104.6885,1262.0
4106.3306,557.0
4107.973,316.0
4109.616,248.0
4111.2603,240.0
4112.905,264.0
4114.55,277.0
4116.196,281.0
4117.8423,232.0
4119.4893,220.0
4121.137,214.0
4122.7856,269.0
4124.4346,232.0
4126.0845,226.0
4127.735,205.0
4129.3857,211.0
4131.0376,219.0
4132.69,221.0
4134.343,209.0
4135.9966,231.0
4137.651,228.0
4139.306,201.0
4140.962,220.0
4142.618,205.0
4144.2754,201.0
4145.933,228.0
4147.5913,197.0
4149.2505,225.0
4150.91,201.0
4152.5703,202.0
4154.2314,229.0
4155.893,226.0
4157.5557,200.0
4159.2188,224.0
4160.8823,211.0
4162.547,220.0
4164.212,189.0
4165.8774,221.0
4167.544,226.0
4169.211,220.0
4170.8784,204.0
4172.547,210.0
4174.216,248.0
4175.8857,261.0
4177.556,241.0
4179.227,228.0
4180.899,245.0
4182.5713,233.0
4184.244,204.0
4185.918,226.0
4187.5923,228.0
4189.267,262.0
4190.943,227.0
4192.619,191.0
4194.2964,202.0
4195.974,203.0
4197.6523,244.0
4199.3315,249.0
4201.011,222.0
4202.6914,190.0
4204.3726,226.0
4206.054,210.0
4207.737,234.0
4209.42,206.0
4211.1035,214.0
4212.788,189.0
4214.473,187.0
4216.1587,212.0
4217.845,204.0
4219.532,222.0
4221.22,208.0
4222.9087,222.0
4224.5977,210.0
4226.2876,205.0
4227.978,196.0
4229.6694,228.0
4231.3613,237.0
4233.0537,191.0
4234.747,199.0
4236.441,212.0
4238.1353,210.0
4239.8306,214.0
4241.5264,206.0
4243.223,185.0
4244.9204,211.0
4246.618,217.0
4248.317,209.0
4250.016,208.0
4251.7163,201.0
4253.417,196.0
4255.118,226.0
4256.8203,206.0
4258.523,221.0
4260.2266,218.0
4261.9307,213.0
4263.6353,218.0
4265.341,236.0
4267.047,254.0
4268.754,274.0
4270.4614,254.0
4272.1694,207.0
4273.8784,228.0
4275.588,268.0
4277.2983,318.0
4279.0093,281.0
4280.7207,226.0
4282.433,210.0
4284.146,270.0
4285.86,448.0
4287.574,384.0
4289.289,272.0
4291.005,212.0
4292.721,230.0
4294.4385,172.0
4296.1562,209.0
4297.8745,275.0
4299.5938,210.0
4301.3135,197.0
4303.034,218.0
4304.7554,227.0
4306.477,208.0
4308.1997,176.0
4309.923,194.0
4311.647,204.0
4313.3716,209.0
4315.097,198.0
4316.823,207.0
4318.55,212.0
4320.2773,175.0
4322.0054,187.0
4323.7344,188.0
4325.464,227.0
4327.194,212.0
4328.925,217.0
4330.6562,206.0
4332.3887,192.0
4334.1216,213.0
4335.8555,212.0
4337.59,200.0
4339.3247,213.0
4341.0605,187.0
4342.797,195.0
4344.534,182.0
4346.272,183.0
4348.0103,200.0
4349.7495,205.0
4351.4893,206.0
4353.23,176.0
4354.971,189.0
4356.7134,222.0
4358.456,256.0
4360.199,222.0
4361.9434,226.0
4363.688,219.0
4365.4336,225.0
4367.1797,196.0
4368.927,232.0
4370.6743,192.0
4372.4224,220.0
4374.1714,204.0
4375.921,200.0
4377.6714,215.0
4379.4224,209.0
4381.1743,224.0
4382.927,226.0
4384.6797,209.0
4386.4336,245.0
4388.188,211.0
4389.9434,245.0
4391.699,224.0
4393.456,208.0
4395.2134,259.0
4396.9717,238.0
4398.7305,262.0
4400.4897,228.0
4402.25,222.0
4404.0107,249.0
4405.7725,238.0
4407.5347,270.0
4409.298,280.0
4411.0615,282.0
4412.826,242.0
4414.5913,277.0
4416.357,298.0
4418.1235,323.0
4419.8906,325.0
4421.6587,301.0
4423.4272,281.0
4425.197,263.0
4426.967,268.0
4428.738,310.0
4430.5093,336.0
4432.2812,280.0
4434.054,274.0
4435.8276,297.0
4437.602,308.0
4439.377,345.0
4441.153,347.0
4442.929,321.0
4444.7065,313.0
4446.4844,281.0
4448.263,299.0
4450.0425,322.0
4451.8223,339.0
4453.603,315.0
4455.3843,325.0
4457.1665,313.0
4458.949,378.0
4460.733,392.0
4462.517,359.0
4464.3022,347.0
4466.088,347.0
4467.8745,392.0
4469.6616,406.0
4471.4497,357.0
4473.2383,382.0
4475.0273,369.0
4476.8174,358.0
4478.608,357.0
4480.3994,396.0
4482.1914,412.0
4483.9844,394.0
4485.778,350.0
4487.5723,370.0
4489.367,387.0
4491.163,442.0
4492.9595,342.0
4494.757,353.0
4496.5547,416.0
4498.3535,469.0
4500.153,452.0
4501.953,389.0
4503.754,346.0
4505.555,445.0
4507.3574,421.0
4509.16,391.0
4510.964,373.0
4512.768,441.0
4514.573,476.0
4516.379,401.0
4518.1855,349.0
4519.9927,369.0
4521.801,515.0
4523.6094,490.0
4525.419,359.0
4527.229,340.0
4529.04,419.0
4530.8516,646.0
4532.664,535.0
4534.477,365.0
4536.291,354.0
4538.1055,422.0
4539.921,492.0
4541.737,378.0
4543.5537,351.0
4545.371,327.0
4547.1895,341.0
4549.0083,309.0
4550.828,291.0
4552.6484,277.0
4554.4697,286.0
4556.2915,302.0
4558.1143,303.0
4559.9375,315.0
4561.7617,343.0
4563.5864,311.0
4565.4116,295.0
4567.238,276.0
4569.0645,298.0
4570.892,285.0
4572.72,274.0
4574.5493,263.0
4576.379,284.0
4578.2095,306.0
4580.0405,273.0
4581.8726,295.0
4583.705,307.0
4585.5386,302.0
4587.3726,301.0
4589.2075,281.0
4591.043,306.0
4592.8794,334.0
4594.7163,306.0
4596.554,284.0
4598.3926,245.0
4600.232,292.0
4602.0723,342.0
4603.913,359.0
4605.755,332.0
4607.597,284.0
4609.4404,274.0
4611.284,288.0
4613.129,278.0
4614.974,284.0
4616.8203,275.0
4618.667,288.0
4620.5146,291.0
4622.363,285.0
4624.212,299.0
4626.0615,308.0
4627.912,296.0
4629.763,298.0
4631.615,260.0
4633.468,313.0
4635.3213,276.0
4637.1753,280.0
4639.0303,261.0
4640.8857,282.0
4642.742,296.0
4644.599,291.0
4646.457,287.0
4648.3154,274.0
4650.175,261.0
4652.0347,245.0
4653.8955,263.0
4655.757,256.0
4657.619,230.0
4659.4824,281.0
4661.346,281.0
4663.211,328.0
4665.076,267.0
4666.9424,278.0
4668.809,254.0
4670.677,309.0
4672.545,254.0
4674.414,288.0
4676.2837,258.0
4678.1543,307.0
4680.0254,299.0
4681.8975,296.0
4683.77,260.0
4685.6436,302.0
4687.5176,295.0
4689.3926,297.0
4691.2686,301.0
4693.145,269.0
4695.0225,321.0
4696.9004,328.0
4698.7793,275.0
4700.6587,283.0
4702.539,294.0
4704.42,272.0
4706.302,282.0
4708.184,283.0
4710.0674,297.0
4711.951,314.0
4713.836,335.0
4715.7217,252.0
4717.608,276.0
4719.495,239.0
4721.383,260.0
4723.2715,260.0
4725.1606,232.0
4727.051,243.0
4728.9414,311.0
4730.833,286.0
4732.725,275.0
4734.618,248.0
4736.512,219.0
4738.4067,253.0
4740.3022,259.0
4742.198,216.0
4744.095,219.0
4745.9927,302.0
4747.891,251.0
4749.79,245.0
4751.69,235.0
4753.591,218.0
4755.492,216.0
4757.3945,220.0
4759.2974,217.0
4761.201,239.0
4763.1055,259.0
4765.0107,224.0
4766.9165,233.0
4768.823,229.0
4770.731,183.0
4772.639,183.0
4774.5483,208.0
4776.458,221.0
4778.3687,235.0
4780.28,224.0
4782.192,216.0
4784.105,186.0
4786.0186,182.0
4787.933,194.0
4789.848,178.0
4791.764,234.0
4793.6807,182.0
4795.598,208.0
4797.5166,208.0
4799.4355,180.0
4801.3555,209.0
4803.276,191.0
4805.1973,183.0
4807.119,178.0
4809.042,179.0
4810.966,191.0
4812.89,185.0
4814.8154,222.0
4816.741,179.0
4818.668,178.0
4820.595,187.0
4822.5234,192.0
4824.4526,230.0
4826.3823,205.0
4828.313,209.0
4830.244,183.0
4832.1763,185.0
4834.1094,182.0
4836.043,187.0
4837.9775,190.0
4839.9126,175.0
4841.8486,182.0
4843.785,179.0
4845.7227,157.0
4847.661,198.0
4849.6,180.0
4851.54,184.0
4853.4805,183.0
4855.422,167.0
4857.3643,172.0
4859.307,174.0
4861.251,189.0
4863.1953,189.0
4865.1406,176.0
4867.087,165.0
4869.0337,184.0
4870.9814,173.0
4872.9297,188.0
4874.879,149.0
4876.829,191.0
4878.78,158.0
4880.7314,178.0
4882.6836,174.0
4884.6367,191.0
4886.5903,171.0
4888.545,189.0
4890.5005,146.0
4892.4565,179.0
4894.4136,183.0
4896.3716,157.0
4898.33,169.0
4900.2896,178.0
4902.2495,177.0
4904.2104,169.0
4906.1724,172.0
4908.135,149.0
4910.098,159.0
4912.062,166.0
4914.027,155.0
4915.9927,169.0
4917.959,174.0
4919.9263,156.0
4921.894,169.0
4923.863,179.0
4925.8325,143.0
4927.8027,174.0
4929.774,167.0
4931.7456,180.0
4933.7183,167.0
4935.692,179.0
4937.666,190.0
4939.641,153.0
4941.617,169.0
4943.5938,148.0
4945.5713,158.0
4947.5493,161.0
4949.5283,161.0
4951.5083,169.0
4953.489,164.0
4955.47,188.0
4957.4526,164.0
4959.4355,169.0
4961.4194,167.0
4963.404,176.0
4965.389,188.0
4967.3755,179.0
4969.3623,163.0
4971.35,167.0
4973.339,181.0
4975.328,171.0
4977.3184,174.0
4979.309,191.0
4981.301,197.0
4983.2935,169.0
4985.2866,182.0
4987.281,197.0
4989.276,172.0
4991.2715,172.0
4993.268,172.0
4995.265,190.0
4997.263,161.0
4999.262,209.0
5001.2617,161.0
5003.262,180.0
5005.2637,189.0
5007.2656,171.0
5009.2686,190.0
5011.2725,198.0
5013.277,192.0
5015.282,161.0
5017.2886,189.0
5019.2954,185.0
5021.303,166.0
5023.3115,182.0
5025.321,163.0
5027.331,186.0
5029.342,187.0
5031.3535,172.0
5033.366,183.0
5035.3794,179.0
5037.3936,191.0
5039.4087,194.0
5041.4243,206.0
5043.441,197.0
5045.4585,145.0
5047.4766,209.0
5049.4956,195.0
5051.5156,218.0
5053.536,204.0
5055.5576,191.0
5057.58,198.0
5059.603,189.0
5061.627,215.0
5063.6514,185.0
5065.677,175.0
5067.703,210.0
5069.73,184.0
5071.758,175.0
5073.7866,168.0
5075.816,158.0
5077.846,189.0
5079.8774,165.0
5081.909,172.0
5083.942,182.0
5085.9756,178.0
5088.01,216.0
5090.045,183.0
5092.081,196.0
5094.1177,160.0
5096.1553,183.0
5098.194,190.0
5100.233,177.0
5102.273,195.0
5104.314,187.0
5106.3555,207.0
5108.398,171.0
5110.4414,195.0
5112.4854,180.0
5114.5303,177.0
5116.576,167.0
5118.6226,210.0
5120.67,211.0
5122.7183,192.0
5124.7676,191.0
5126.8174,182.0
5128.868,194.0
5130.92,216.0
5132.972,207.0
5135.0254,181.0
5137.0796,192.0
5139.1343,182.0
5141.19,195.0
5143.2466,204.0
5145.3037,209.0
5147.362,197.0
5149.421,211.0
5151.4805,193.0
5153.541,216.0
5155.6025,209.0
5157.6646,184.0
5159.7275,192.0
5161.7915,194.0
5163.8564,195.0
5165.922,201.0
5167.9883,196.0
5170.0557,182.0
5172.1235,183.0
5174.1924,190.0
5176.262,216.0
5178.3325,207.0
5180.404,193.0
5182.476,198.0
5184.549,206.0
5186.6226,213.0
5188.6973,210.0
5190.773,190.0
5192.849,206.0
5194.9263,207.0
5197.0044,202.0
5199.083,207.0
5201.1626,220.0
5203.243,217.0
5205.324,209.0
5207.4062,214.0
5209.4893,205.0
5211.573,202.0
5213.6577,204.0
5215.743,226.0
5217.8296,212.0
5219.9165,210.0
5222.0044,236.0
5224.0933,206.0
5226.183,208.0
5228.2734,229.0
5230.3647,185.0
5232.457,223.0
5234.55,203.0
5236.6436,226.0
5238.7383,225.0
5240.834,212.0
5242.93,239.0
5245.0273,217.0
5247.1255,204.0
5249.224,213.0
5251.3237,242.0
5253.4243,211.0
5255.526,232.0
5257.628,203.0
5259.731,227.0
5261.835,204.0
5263.9395,212.0
5266.045,214.0
5268.1514,204.0
5270.259,212.0
5272.3667,197.0
5274.4756,198.0
5276.5854,225.0
5278.6963,195.0
5280.8076,216.0
5282.92,249.0
5285.033,234.0
5287.147,231.0
5289.2617,214.0
5291.3774,200.0
5293.494,218.0
5295.6113,225.0
5297.7295,198.0
5299.8486,264.0
5301.9688,212.0
5304.0894,240.0
5306.211,219.0
5308.3335,213.0
5310.457,203.0
5312.581,201.0
5314.706,207.0
5316.832,247.0
5318.959,238.0
5321.0864,231.0
5323.215,222.0
5325.344,220.0
5327.4746,225.0
5329.6055,205.0
5331.7373,229.0
5333.87,227.0
5336.004,204.0
5338.138,236.0
5340.2734,241.0
5342.4097,204.0
5344.547,230.0
5346.6846,234.0
5348.823,241.0
5350.963,225.0
5353.1035,230.0
5355.2446,222.0
5357.3867,245.0
5359.53,231.0
5361.674,219.0
5363.8184,246.0
5365.964,239.0
5368.1104,237.0
5370.258,228.0
5372.406,239.0
5374.5547,237.0
5376.7046,257.0
5378.8555,254.0
5381.007,256.0
5383.159,250.0
5385.3125,216.0
5387.467,229.0
5389.6216,250.0
5391.7773,251.0
5393.934,238.0
5396.092,236.0
5398.25,226.0
5400.409,269.0
5402.5693,276.0
5404.7305,228.0
5406.8926,266.0
5409.055,248.0
5411.2188,246.0
5413.3833,236.0
5415.549,272.0
5417.715,260.0
5419.882,260.0
5422.05,235.0
5424.2188,212.0
5426.3887,249.0
5428.559,250.0
5430.7305,228.0
5432.903,226.0
5435.076,239.0
5437.25,214.0
5439.425,236.0
5441.6006,263.0
5443.7773,251.0
5445.955,284.0
5448.1333,263.0
5450.3125,243.0
5452.4927,289.0
5454.674,240.0
5456.8555,240.0
5459.038,241.0
5461.2217,254.0
5463.4062,266.0
5465.592,240.0
5467.778,284.0
5469.965,224.0
5472.153,265.0
5474.342,238.0
5476.5317,250.0
5478.722,241.0
5480.9136,253.0
5483.106,247.0
5485.2993,278.0
5487.4937,259.0
5489.6885,267.0
5491.8843,266.0
5494.081,244.0
5496.279,263.0
5498.4775,293.0
5500.677,294.0
5502.877,283.0
5505.078,244.0
5507.2803,281.0
5509.4834,280.0
5511.687,254.0
5513.8916,246.0
5516.097,270.0
5518.3037,273.0
5520.511,253.0
5522.719,260.0
5524.928,302.0
5527.138,299.0
5529.349,257.0
5531.561,279.0
5533.7734,262.0
5535.987,253.0
5538.201,247.0
5540.4165,272.0
5542.633,276.0
5544.85,281.0
5547.068,266.0
5549.2866,278.0
5551.5063,284.0
5553.727,243.0
5555.9487,251.0
5558.171,275.0
5560.394,277.0
5562.618,263.0
5564.8433,263.0
5567.0693,300.0
5569.2964,248.0
5571.524,256.0
5573.7524,277.0
5575.982,244.0
5578.2124,278.0
5580.444,251.0
5582.676,290.0
5584.9087,261.0
5587.1426,258.0
5589.3774,234.0
5591.6133,255.0
5593.85,268.0
5596.0874,288.0
5598.3257,284.0
5600.565,218.0
5602.805,261.0
5605.0464,286.0
5607.2886,274.0
5609.5312,280.0
5611.775,274.0
5614.0195,264.0
5616.265,251.0
5618.5117,259.0
5620.7593,270.0
5623.008,226.0
5625.257,285.0
5627.507,252.0
5629.758,251.0
5632.01,223.0
5634.2627,264.0
5636.5166,243.0
5638.771,226.0
5641.0264,257.0
5643.2827,247.0
5645.54,243.0
5647.7983,257.0
5650.0576,248.0
5652.318,243.0
5654.5786,244.0
5656.8403,221.0
5659.103,258.0
5661.3667,251.0
5663.6313,233.0
5665.897,265.0
5668.1636,249.0
5670.4307,285.0
5672.6987,236.0
5674.968,253.0
5677.238,269.0
5679.509,234.0
5681.781,224.0
5684.0537,234.0
5686.327,223.0
5688.6016,254.0
5690.877,240.0
5693.1533,254.0
5695.4307,277.0
5697.709,275.0
5699.9883,268.0
5702.268,296.0
5704.549,236.0
5706.8306,238.0
5709.1133,266.0
5711.397,268.0
5713.6816,286.0
5715.9673,260.0
5718.254,271.0
5720.541,252.0
5722.829,254.0
5725.118,304.0
5727.408,250.0
5729.699,275.0
5731.991,269.0
5734.284,257.0
5736.578,286.0
5738.8726,270.0
5741.168,315.0
5743.4644,284.0
5745.7617,272.0
5748.06,282.0
5750.3594,294.0
5752.6597,270.0
5754.961,285.0
5757.2627,301.0
5759.5654,258.0
5761.869,289.0
5764.174,286.0
5766.4795,302.0
5768.786,300.0
5771.0938,272.0
5773.4023,314.0
5775.712,284.0
5778.022,278.0
5780.333,306.0
5782.645,309.0
5784.958,291.0
5787.272,257.0
5789.587,287.0
5791.903,330.0
5794.2197,305.0
5796.5376,289.0
5798.8564,309.0
5801.176,312.0
5803.496,294.0
5805.8174,306.0
5808.1396,288.0
5810.463,287.0
5812.787,291.0
5815.1123,361.0
5817.4385,298.0
5819.7656,299.0
5822.0938,348.0
5824.4224,316.0
5826.752,292.0
5829.0825,327.0
5831.414,369.0
5833.7466,306.0
5836.08,315.0
5838.4146,371.0
5840.75,407.0
5843.0864,331.0
5845.424,310.0
5847.762,323.0
5850.101,337.0
5852.441,328.0
5854.7817,307.0
5857.1235,301.0
5859.4663,305.0
5861.81,342.0
5864.155,326.0
5866.5005,324.0
5868.847,295.0
5871.195,331.0
5873.5435,342.0
5875.893,337.0
5878.2437,340.0
5880.5947,361.0
5882.947,324.0
5885.3,296.0
5887.654,358.0
5890.009,339.0
5892.3647,339.0
5894.7217,334.0
5897.0796,311.0
5899.4385,310.0
5901.7983,330.0
5904.159,348.0
5906.521,362.0
5908.884,331.0
5911.2476,386.0
5913.612,357.0
5915.977,311.0
5918.3433,340.0
5920.7104,355.0
5923.0786,333.0
5925.4478,364.0
5927.818,355.0
5930.189,375.0
5932.561,353.0
5934.934,330.0
5937.308,358.0
5939.683,348.0
5942.059,395.0
5944.436,364.0
5946.814,362.0
5949.193,364.0
5951.5728,331.0
5953.9536,353.0
5956.335,360.0
5958.7173,417.0
5961.1006,375.0
5963.485,347.0
5965.87,360.0
5968.2563,365.0
5970.6436,378.0
5973.0317,378.0
5975.421,398.0
5977.811,407.0
5980.202,350.0
5982.594,365.0
5984.9873,352.0
5987.3813,361.0
5989.7764,354.0
5992.1724,407.0
5994.5693,438.0
5996.9673,333.0
5999.366,348.0
6001.766,405.0
6004.167,385.0
6006.569,399.0
6008.9717,396.0
6011.3755,374.0
6013.7803,394.0
6016.1855,371.0
6018.592,355.0
6020.999,363.0
6023.407,405.0
6025.8164,335.0
6028.2266,365.0
6030.6377,402.0
6033.05,345.0
6035.463,407.0
6037.877,389.0
6040.292,365.0
6042.708,349.0
6045.125,327.0
6047.543,333.0
6049.962,396.0
6052.382,371.0
6054.8027,323.0
6057.2246,370.0
6059.6475,330.0
6062.0713,399.0
6064.496,358.0
6066.922,389.0
6069.3486,378.0
6071.7764,368.0
6074.205,329.0
6076.635,372.0
6079.0654,351.0
6081.497,394.0
6083.9297,371.0
6086.3633,371.0
6088.798,377.0
6091.2334,407.0
6093.67,349.0
6096.1074,362.0
6098.546,381.0
6100.9854,366.0
6103.426,387.0
6105.867,362.0
6108.3096,387.0
6110.753,340.0
6113.1973,369.0
6115.6426,395.0
6118.089,425.0
6120.536,376.0
6122.9844,371.0
6125.4336,374.0
6127.884,389.0
6130.335,394.0
6132.787,428.0
6135.24,430.0
6137.6943,411.0
6140.1494,391.0
6142.6055,398.0
6145.0625,448.0
6147.5205,435.0
6149.9795,492.0
6152.4395,406.0
6154.9004,439.0
6157.3623,435.0
6159.825,486.0
6162.289,444.0
6164.754,440.0
6167.2197,441.0
6169.6865,440.0
6172.1543,454.0
6174.623,518.0
6177.093,542.0
6179.5635,491.0
6182.035,488.0
6184.508,470.0
6186.9814,450.0
6189.456,479.0
6191.9316,592.0
6194.408,658.0
6196.8857,586.0
6199.3643,495.0
6201.844,466.0
6204.325,488.0
6206.807,436.0
6209.29,474.0
6211.774,485.0
6214.259,499.0
6216.7446,491.0
6219.2314,509.0
6221.719,460.0
6224.208,444.0
6226.6978,498.0
6229.1885,500.0
6231.68,570.0
6234.173,524.0
6236.6665,469.0
6239.161,495.0
6241.6567,455.0
6244.1533,448.0
6246.651,509.0
6249.1494,564.0
6251.649,536.0
6254.1494,536.0
6256.651,569.0
6259.1533,537.0
6261.6567,471.0
6264.1616,469.0
6266.6675,398.0
6269.1743,421.0
6271.682,546.0
6274.191,689.0
6276.7007,583.0
6279.2114,464.0
6281.723,464.0
6284.236,432.0
6286.7495,444.0
6289.264,682.0
6291.78,801.0
6294.2964,743.0
6296.814,534.0
6299.3325,493.0
6301.852,473.0
6304.3726,425.0
6306.8945,444.0
6309.4175,448.0
6311.9414,401.0
6314.4663,444.0
6316.992,436.0
6319.519,412.0
6322.047,392.0
6324.5757,395.0
6327.1055,403.0
6329.636,415.0
6332.168,455.0
6334.7007,398.0
6337.2344,409.0
6339.769,419.0
6342.305,404.0
6344.8423,389.0
6347.3804,417.0
6349.9194,429.0
6352.4595,387.0
6355.0005,387.0
6357.5425,372.0
6360.0854,423.0
6362.6294,425.0
6365.1743,419.0
6367.72,423.0
6370.267,427.0
6372.8154,438.0
6375.3647,402.0
6377.915,394.0
6380.4663,393.0
6383.0186,410.0
6385.572,451.0
6388.126,443.0
6390.681,425.0
6393.2373,405.0
6395.7944,430.0
6398.3525,446.0
6400.912,391.0
6403.4727,448.0
6406.034,448.0
6408.5967,420.0
6411.16,396.0
6413.7246,405.0
6416.29,414.0
6418.8564,463.0
6421.424,422.0
6423.992,411.0
6426.562,402.0
6429.133,393.0
6431.7046,420.0
6434.2773,407.0
6436.851,459.0
6439.426,441.0
6442.0015,385.0
6444.578,464.0
6447.156,428.0
6449.735,417.0
6452.315,429.0
6454.896,403.0
6457.478,383.0
6460.061,425.0
6462.645,467.0
6465.23,460.0
6467.816,455.0
6470.403,415.0
6472.991,429.0
6475.5806,440.0
6478.171,441.0
6480.762,427.0
6483.3545,450.0
6485.9478,407.0
6488.542,439.0
6491.137,448.0
6493.734,431.0
6496.3315,424.0
6498.93,448.0
6501.53,416.0
6504.1304,428.0
6506.732,445.0
6509.3345,436.0
6511.938,460.0
6514.543,433.0
6517.149,442.0
6519.756,422.0
6522.364,422.0
6524.9727,453.0
6527.5825,432.0
6530.1934,457.0
6532.8057,473.0
6535.419,410.0
6538.033,423.0
6540.6484,491.0
6543.2646,468.0
6545.882,481.0
6548.5,446.0
6551.1196,486.0
6553.74,459.0
6556.362,486.0
6558.9844,498.0
6561.608,503.0
6564.2324,451.0
6566.858,478.0
6569.485,457.0
6572.113,434.0
6574.7417,445.0
6577.3716,451.0
6580.0024,454.0
6582.6343,443.0
6585.267,434.0
6587.9014,477.0
6590.5366,433.0
6593.173,455.0
6595.81,496.0
6598.448,436.0
6601.0874,417.0
6603.728,457.0
6606.3696,424.0
6609.012,430.0
6611.656,443.0
6614.3003,467.0
6616.946,375.0
6619.593,427.0
6622.2407,482.0
6624.8896,443.0
6627.5396,416.0
6630.1904,459.0
6632.8423,430.0
6635.4956,413.0
6638.15,432.0
6640.805,461.0
6643.4614,404.0
6646.1187,428.0
6648.7773,458.0
6651.437,425.0
6654.0977,422.0
6656.7593,546.0
6659.422,423.0
6662.0854,391.0
6664.7505,436.0
6667.4165,408.0
6670.0835,368.0
6672.7515,388.0
6675.4204,365.0
6678.091,398.0
6680.762,387.0
6683.4346,451.0
6686.108,404.0
6688.782,395.0
6691.4575,453.0
6694.1343,443.0
6696.812,439.0
6699.4907,429.0
6702.1704,431.0
6704.851,404.0
6707.533,395.0
6710.2163,419.0
6712.9004,390.0
6715.5854,423.0
6718.2715,388.0
6720.959,407.0
6723.6475,486.0
6726.337,411.0
6729.0273,409.0
6731.7188,401.0
6734.4116,437.0
6737.1055,433.0
6739.8003,435.0
6742.496,505.0
6745.193,390.0
6747.891,416.0
6750.5903,456.0
6753.2905,440.0
6755.9917,444.0
6758.6943,510.0
6761.398,480.0
6764.1025,491.0
6766.808,463.0
6769.5146,415.0
6772.2227,443.0
6774.9316,441.0
6777.6416,458.0
6780.3525,496.0
6783.0645,527.0
6785.778,495.0
6788.492,445.0
6791.2075,509.0
6793.924,479.0
6796.6416,485.0
6799.3604,484.0
6802.08,469.0
6804.801,497.0
6807.5225,631.0
6810.2456,549.0
6812.9697,576.0
6815.695,464.0
6818.421,433.0
6821.1484,566.0
6823.877,778.0
6826.6064,679.0
6829.337,586.0
6832.069,435.0
6834.802,475.0
6837.5356,510.0
6840.2705,559.0
6843.007,646.0
6845.744,561.0
6848.4824,445.0
6851.2217,431.0
6853.9624,633.0
6856.704,770.0
6859.447,559.0
6862.1904,480.0
6864.9355,440.0
6867.6816,496.0
6870.4287,440.0
6873.177,443.0
6875.9263,454.0
6878.677,468.0
6881.428,445.0
6884.1807,460.0
6886.9346,449.0
6889.6895,378.0
6892.4453,434.0
6895.202,424.0
6897.9604,455.0
6900.7197,437.0
6903.48,447.0
6906.241,456.0
6909.004,410.0
6911.7676,472.0
6914.532,442.0
6917.298,452.0
6920.065,443.0
6922.833,447.0
6925.602,413.0
6928.372,388.0
6931.1436,455.0
6933.916,425.0
6936.6895,417.0
6939.4644,441.0
6942.24,427.0
6945.017,428.0
6947.795,489.0
6950.574,427.0
6953.3545,456.0
6956.1357,410.0
6958.918,472.0
6961.7017,458.0
6964.4863,421.0
6967.272,434.0
6970.059,423.0
6972.847,438.0
6975.636,469.0
6978.4263,412.0
6981.218,466.0
6984.0103,476.0
6986.8037,428.0
6989.5986,474.0
6992.3945,492.0
6995.1914,510.0
6997.9893,465.0
7000.7886,514.0
7003.589,493.0
7006.39,505.0
7009.193,483.0
7011.9966,468.0
7014.8013,486.0
7017.6074,524.0
7020.4146,512.0
7023.2227,565.0
7026.0317,618.0
7028.8423,516.0
7031.654,432.0
7034.4663,412.0
7037.2803,398.0
7040.095,439.0
7042.911,640.0
7045.7285,541.0
7048.547,429.0
7051.366,424.0
7054.1865,417.0
7057.0083,473.0
7059.831,682.0
7062.655,706.0
7065.48,514.0
7068.306,438.0
7071.1333,426.0
7073.962,402.0
7076.7915,403.0
7079.622,423.0
7082.454,449.0
7085.287,399.0
7088.121,409.0
7090.9565,436.0
7093.793,463.0
7096.6304,404.0
7099.469,427.0
7102.309,397.0
7105.15,449.0
7107.992,400.0
7110.8354,419.0
7113.6797,455.0
7116.5254,437.0
7119.372,411.0
7122.2197,471.0
7125.069,498.0
7127.919,494.0
7130.77,467.0
7133.6226,461.0
7136.476,435.0
7139.3306,540.0
7142.1865,520.0
7145.0435,492.0
7147.9014,513.0
7150.7607,469.0
7153.621,530.0
7156.4824,569.0
7159.345,673.0
7162.209,527.0
7165.0737,529.0
7167.94,539.0
7170.807,519.0
7173.6753,558.0
7176.545,553.0
7179.4155,516.0
7182.287,488.0
7185.16,488.0
7188.034,533.0
7190.909,531.0
7193.7856,498.0
7196.663,592.0
7199.542,604.0
7202.422,553.0
7205.3027,432.0
7208.185,369.0
7211.0684,472.0
7213.9526,726.0
7216.8384,743.0
7219.725,509.0
7222.613,416.0
7225.502,403.0
7228.392,452.0
7231.283,951.0
7234.176,1079.0
7237.0693,655.0
7239.9644,457.0
7242.8604,410.0
7245.7573,392.0
7248.656,400.0
7251.555,414.0
7254.4556,422.0
7257.3574,405.0
7260.2603,399.0
7263.1646,366.0
7266.07,346.0
7268.976,413.0
7271.884,394.0
7274.7925,376.0
7277.7026,363.0
7280.614,430.0
7283.526,399.0
7286.4395,418.0
7289.354,400.0
7292.2695,369.0
7295.1865,430.0
7298.1045,401.0
7301.024,380.0
7303.9443,343.0
7306.8657,340.0
7309.7886,385.0
7312.7124,486.0
7315.6377,457.0
7318.564,393.0
7321.491,347.0
7324.42,347.0
7327.3496,386.0
7330.281,528.0
7333.213,461.0
7336.146,423.0
7339.0806,378.0
7342.016,354.0
7344.953,335.0
7347.891,436.0
7350.83,400.0
7353.7705,367.0
7356.712,374.0
7359.655,325.0
7362.5986,325.0
7365.5435,370.0
7368.4897,349.0
7371.437,367.0
7374.3857,351.0
7377.3354,421.0
7380.2866,343.0
7383.239,380.0
7386.192,372.0
7389.1465,416.0
7392.102,374.0
7395.059,339.0
7398.017,380.0
7400.976,419.0
7403.9365,395.0
7406.898,368.0
7409.861,319.0
7412.8247,300.0
7415.79,355.0
7418.7563,384.0
7421.7236,355.0
7424.6924,387.0
7427.662,341.0
7430.6333,338.0
7433.6055,348.0
7436.579,398.0
7439.5537,364.0
7442.5293,355.0
7445.5063,355.0
7448.4844,294.0
7451.464,356.0
7454.4443,347.0
7457.4263,336.0
7460.409,349.0
7463.3936,360.0
7466.379,375.0
7469.365,360.0
7472.353,369.0
7475.342,291.0
7478.332,356.0
7481.323,341.0
7484.316,392.0
7487.3096,397.0
7490.3047,339.0
7493.301,351.0
7496.2983,330.0
7499.297,337.0
7502.2964,360.0
7505.2974,355.0
7508.2993,343.0
7511.3027,353.0
7514.307,341.0
7517.313,359.0
7520.32,370.0
7523.328,349.0
7526.3374,335.0
7529.348,371.0
7532.36,350.0
7535.373,319.0
7538.387,350.0
7541.4023,323.0
7544.419,360.0
7547.4365,336.0
7550.4556,382.0
7553.4756,344.0
7556.497,355.0
7559.5195,371.0
7562.5435,384.0
7565.5684,398.0
7568.5947,394.0
7571.622,362.0
7574.651,378.0
7577.6807,366.0
7580.712,393.0
7583.744,386.0
7586.778,338.0
7589.8125,339.0
7592.8486,337.0
7595.8857,388.0
7598.9243,468.0
7601.964,429.0
7605.005,363.0
7608.047,287.0
7611.0903,324.0
7614.135,425.0
7617.18,470.0
7620.227,469.0
7623.275,343.0
7626.324,373.0
7629.3745,355.0
7632.4263,357.0
7635.479,346.0
7638.533,348.0
7641.5884,377.0
7644.645,330.0
7647.7026,357.0
7650.7617,320.0
7653.8223,350.0
7656.884,340.0
7659.947,369.0
7663.0107,361.0
7666.076,352.0
7669.1426,343.0
7672.2104,382.0
7675.2793,373.0
7678.3496,348.0
7681.421,347.0
7684.4937,372.0
7687.5674,340.0
7690.6426,424.0
7693.7188,391.0
7696.7964,352.0
7699.875,403.0
7702.955,368.0
7706.036,371.0
7709.1187,354.0
7712.202,366.0
7715.287,380.0
7718.373,424.0
7721.4604,354.0
7724.549,352.0
7727.6387,393.0
7730.7295,399.0
7733.822,414.0
7736.9155,348.0
7740.0103,404.0
7743.1064,423.0
7746.2036,396.0
7749.3022,417.0
7752.402,440.0
7755.503,427.0
7758.605,387.0
7761.7085,426.0
7764.813,378.0
7767.919,400.0
7771.026,478.0
7774.1343,435.0
7777.244,403.0
7780.355,374.0
7783.4673,391.0
7786.5806,469.0
7789.6953,466.0
7792.811,456.0
7795.928,413.0
7799.0464,396.0
7802.166,407.0
7805.287,419.0
7808.409,456.0
7811.5327,503.0
7814.657,442.0
7817.783,457.0
7820.91,422.0
7824.0386,440.0
7827.168,489.0
7830.299,497.0
7833.431,452.0
7836.5645,423.0
7839.699,418.0
7842.835,433.0
7845.972,465.0
7849.1104,481.0
7852.25,460.0
7855.391,455.0
7858.533,435.0
7861.677,451.0
7864.8213,446.0
7867.9673,398.0
7871.1143,418.0
7874.2627,445.0
7877.4126,442.0
7880.5635,439.0
7883.716,490.0
7886.869,452.0
7890.024,429.0
7893.18,443.0
7896.3374,492.0
7899.496,570.0
7902.656,582.0
7905.817,488.0
7908.979,458.0
7912.1426,444.0
7915.3076,533.0
7918.4736,592.0
7921.641,614.0
7924.8096,564.0
7927.9795,500.0
7931.151,481.0
7934.323,518.0
7937.497,590.0
7940.672,560.0
7943.848,555.0
7947.026,567.0
7950.2046,542.0
7953.385,545.0
7956.566,608.0
7959.7485,551.0
7962.9326,676.0
7966.1177,685.0
7969.304,625.0
7972.4917,672.0
7975.6807,596.0
7978.871,627.0
7982.0625,868.0
7985.2554,854.0
7988.4497,775.0
7991.645,691.0
7994.842,663.0
7998.0396,705.0
8001.239,717.0
8004.4395,761.0
8007.641,840.0
8010.844,778.0
8014.0483,678.0
8017.254,767.0
8020.461,760.0
8023.669,822.0
8026.8784,824.0
8030.0894,803.0
8033.3013,843.0
8036.5146,942.0
8039.7295,999.0
8042.9453,919.0
8046.1626,946.0
8049.381,940.0
8052.6006,1009.0
8055.822,1162.0
8059.044,1188.0
8062.2676,1068.0
8065.4927,1182.0
8068.7188,1276.0
8071.9463,1303.0
8075.1753,1367.0
8078.4053,1341.0
8081.6367,1524.0
8084.869,1598.0
8088.103,1601.0
8091.3384,1352.0
8094.5747,1258.0
8097.8125,1666.0
8101.052,2228.0
8104.292,2050.0
8107.5337,1803.0
8110.777,1742.0
8114.021,1567.0
8117.2666,2238.0
8120.5137,2719.0
8123.7617,2457.0
8127.011,2494.0
8130.262,2156.0
8133.514,2198.0
8136.7676,2428.0
8140.0225,2642.0
8143.2783,3309.0
8146.5356,3254.0
8149.7944,2642.0
8153.054,3057.0
8156.3154,2796.0
8159.578,2958.0
8162.842,3597.0
8166.107,3362.0
8169.3735,5066.0
8172.641,5006.0
8175.91,3158.0
8179.1807,1836.0
8182.452,1981.0
8185.725,6653.0
8188.9995,9377.0
8192.275,4616.0
8195.553,2140.0
8198.831,1817.0
8202.11,6547.0
8205.392,15844.0
8208.674,10534.0
8211.957,3938.0
8215.242,1844.0
8218.528,1326.0
8221.815,1294.0
8225.1045,1567.0
8228.395,1874.0
8231.686,1490.0
8234.979,1107.0
8238.272,863.0
8241.567,893.0
8244.864,1010.0
8248.162,1058.0
8251.461,955.0
8254.762,850.0
8258.063,794.0
8261.367,776.0
8264.672,877.0
8267.978,990.0
8271.285,914.0
8274.594,831.0
8277.903,732.0
8281.215,678.0
8284.527,744.0
8287.841,858.0
8291.156,866.0
8294.473,774.0
8297.79,729.0
8301.109,753.0
8304.43,802.0
8307.751,797.0
8311.074,824.0
8314.398,844.0
8317.725,802.0
8321.052,840.0
8324.38,771.0
8327.71,779.0
8331.041,978.0
8334.373,947.0
8337.707,794.0
8341.042,761.0
8344.378,719.0
8347.716,1020.0
8351.055,1069.0
8354.3955,912.0
8357.737,859.0
8361.08,780.0
8364.425,631.0
8367.7705,573.0
8371.117,684.0
8374.466,832.0
8377.815,957.0
8381.167,707.0
8384.52,546.0
8387.873,579.0
8391.229,665.0
8394.585,793.0
8397.942,646.0
8401.302,566.0
8404.662,603.0
8408.024,625.0
8411.388,567.0
8414.752,554.0
8418.118,546.0
8421.485,498.0
8424.854,491.0
8428.224,487.0
8431.595,521.0
8434.968,548.0
8438.342,569.0
8441.717,485.0
8445.094,551.0
8448.472,595.0
8451.851,573.0
8455.231,579.0
8458.613,585.0
8461.997,513.0
8465.382,644.0
8468.768,614.0
8472.155,617.0
8475.544,610.0
8478.935,572.0
8482.326,602.0
8485.719,631.0
8489.113,746.0
8492.509,835.0
8495.906,729.0
8499.305,658.0
8502.704,798.0
8506.105,805.0
8509.508,894.0
8512.911,784.0
8516.316,832.0
8519.723,1016.0
8523.131,844.0
8526.54,978.0
8529.95,908.0
8533.362,1164.0
8536.775,1429.0
8540.19,1017.0
8543.606,784.0
8547.023,656.0
8550.442,1426.0
8553.862,1944.0
8557.284,1307.0
8560.707,833.0
8564.131,729.0
8567.557,1520.0
8570.983,2831.0
8574.412,2032.0
8577.842,1090.0
8581.272,789.0
8584.705,704.0
8588.139,659.0
8591.574,692.0
8595.011,930.0
8598.449,965.0
8601.889,710.0
8605.329,616.0
8608.771,582.0
8612.215,545.0
8615.66,596.0
8619.106,575.0
8622.554,604.0
8626.003,584.0
8629.453,586.0
8632.905,579.0
8636.358,630.0
8639.8125,627.0
8643.269,609.0
8646.726,612.0
8650.185,575.0
8653.645,623.0
8657.106,620.0
8660.569,634.0
8664.033,628.0
8667.499,672.0
8670.966,713.0
8674.435,676.0
8677.904,719.0
8681.375,692.0
8684.848,751.0
8688.321,720.0
8691.797,756.0
8695.273,812.0
8698.752,740.0
8702.231,805.0
8705.712,830.0
8709.194,805.0
8712.678,920.0
8716.163,1001.0
8719.649,966.0
8723.138,932.0
8726.627,953.0
8730.117,918.0
8733.609,991.0
8737.103,968.0
8740.598,1099.0
8744.094,1002.0
8747.592,975.0
8751.091,1107.0
8754.591,1189.0
8758.093,1139.0
8761.596,1070.0
8765.101,1078.0
8768.606,1151.0
8772.114,1298.0
8775.623,1252.0
8779.133,1236.0
8782.645,1397.0
8786.157,1296.0
8789.672,1352.0
8793.1875,1336.0
8796.705,1596.0
8800.224,1751.0
8803.744,1453.0
8807.266,1365.0
8810.788,1446.0
8814.3125,1907.0
8817.838,2075.0
8821.365,1753.0
8824.894,1502.0
8828.424,1667.0
8831.955,2233.0
8835.488,2465.0
8839.022,1985.0
8842.558,1873.0
8846.095,1798.0
8849.633,1789.0
8853.173,1772.0
8856.714,2090.0
8860.257,2290.0
8863.801,2080.0
8867.347,1886.0
8870.894,1904.0
8874.442,2208.0
8877.992,2657.0
8881.543,2498.0
8885.096,2159.0
8888.649,2124.0
8892.205,2072.0
8895.762,2184.0
8899.32,2354.0
8902.88,2418.0
8906.441,2109.0
8910.004,2177.0
8913.568,2344.0
8917.134,2588.0
8920.7,2440.0
8924.269,2215.0
8927.838,2421.0
8931.409,2465.0
8934.981,2759.0
8938.556,2606.0
8942.131,2520.0
8945.708,2519.0
8949.286,2340.0
8952.866,2158.0
8956.447,2215.0
8960.03,2593.0
8963.614,2785.0
8967.199,2334.0
8970.786,1953.0
8974.374,2219.0
8977.964,2722.0
8981.555,2486.0
8985.147,2055.0
8988.741,1998.0
8992.337,2443.0
8995.934,2691.0
8999.532,2407.0
9003.132,2033.0
9006.733,2172.0
9010.336,2572.0
9013.94,2379.0
9017.546,2059.0
9021.153,1983.0
9024.762,2401.0
9028.372,2539.0
9031.983,2047.0
9035.597,1572.0
9039.211,1836.0
9042.826,2484.0
9046.443,2396.0
9050.062,1554.0
9053.682,1358.0
9057.303,2128.0
9060.926,3148.0
9064.55,2445.0
9068.176,1556.0
9071.803,1400.0
9075.432,1929.0
9079.062,2013.0
9082.693,1563.0
9086.326,1249.0
9089.961,1284.0
9093.597,1363.0
9097.234,1222.0
9100.873,1140.0
9104.514,1148.0
9108.155,1196.0
9111.799,1022.0
9115.443,917.0
9119.09,993.0
9122.737,1122.0
9126.387,1004.0
9130.037,861.0
9133.689,889.0
9137.343,974.0
9140.998,1026.0
9144.654,939.0
9148.3125,887.0
9151.972,888.0
9155.633,939.0
9159.295,874.0
9162.959,948.0
9166.624,962.0
9170.291,941.0
9173.959,791.0
9177.629,830.0
9181.3,1014.0
9184.973,1062.0
9188.646,985.0
9192.322,821.0
9195.999,823.0
9199.678,955.0
9203.357,927.0
9207.039,926.0
9210.722,772.0
9214.406,695.0
9218.092,664.0
9221.779,718.0
9225.468,832.0
9229.158,773.0
9232.85,690.0
9236.543,617.0
9240.237,697.0
9243.934,789.0
9247.631,735.0
9251.33,736.0
9255.03,619.0
9258.732,506.0
9262.436,493.0
9266.141,596.0
9269.847,570.0
9273.555,527.0
9277.264,439.0
9280.975,452.0
9284.687,511.0
9288.4,492.0
9292.116,450.0
9295.833,436.0
9299.552,483.0
9303.271,459.0
9306.993,434.0
9310.716,453.0
9314.44,433.0
9318.166,411.0
9321.894,425.0
9325.622,483.0
9329.353,438.0
9333.084,429.0
9336.817,427.0
9340.552,412.0
9344.288,454.0
9348.025,431.0
9351.765,428.0
9355.505,391.0
9359.247,382.0
9362.991,426.0
9366.736,387.0
9370.483,354.0
9374.231,381.0
9377.981,387.0
9381.732,430.0
9385.485,379.0
9389.239,325.0
9392.995,360.0
9396.752,314.0
9400.511,330.0
9404.2705,304.0
9408.032,325.0
9411.796,323.0
9415.561,301.0
9419.327,279.0
9423.095,298.0
9426.864,331.0
9430.635,318.0
9434.407,269.0
9438.181,289.0
9441.956,325.0
9445.732,294.0
9449.511,282.0
9453.291,283.0
9457.072,299.0
9460.855,300.0
9464.64,307.0
9468.426,299.0
9472.213,264.0
9476.002,276.0
9479.792,298.0
9483.584,264.0
9487.377,314.0
9491.172,295.0
9494.969,271.0
9498.767,268.0
9502.566,283.0
9506.367,321.0
9510.17,294.0
9513.974,278.0
9517.779,299.0
9521.586,228.0
9525.395,244.0
9529.205,237.0
9533.017,275.0
9536.83,221.0
9540.645,248.0
9544.461,263.0
9548.278,284.0
9552.098,257.0
9555.919,245.0
9559.741,217.0
9563.565,236.0
9567.391,226.0
9571.218,262.0
9575.046,245.0
9578.876,222.0
9582.708,219.0
9586.541,229.0
9590.376,231.0
9594.212,230.0
9598.05,237.0
9601.889,211.0
9605.7295,214.0
9609.572,200.0
9613.416,225.0
9617.262,210.0
9621.108,204.0
9624.957,233.0
9628.807,200.0
9632.658,218.0
9636.512,207.0
9640.366,204.0
9644.223,196.0
9648.08,215.0
9651.939,201.0
9655.8,192.0
9659.662,191.0
9663.526,206.0
9667.392,182.0
9671.259,192.0
9675.127,197.0
9678.997,230.0
9682.869,205.0
9686.742,195.0
9690.617,186.0
9694.493,220.0
9698.371,213.0
9702.25,208.0
9706.131,210.0
9710.014,192.0
9713.897,187.0
9717.783,174.0
9721.67,174.0
9725.559,195.0
9729.449,161.0
9733.341,194.0
9737.234,179.0
9741.129,204.0
9745.025,163.0
9748.924,180.0
9752.823,197.0
9756.725,176.0
9760.627,165.0
9764.531,165.0
9768.4375,180.0
9772.345,195.0
9776.254,178.0
9780.164,201.0
9784.076,171.0
9787.99,195.0
9791.905,179.0
9795.822,194.0
9799.74,164.0
9803.66,211.0
9807.582,196.0
9811.505,179.0
9815.43,185.0
9819.355,180.0
9823.283,181.0
9827.213,184.0
9831.144,186.0
9835.076,196.0
9839.01,174.0
9842.945,215.0
9846.883,204.0
9850.821,192.0
9854.762,202.0
9858.704,156.0
9862.647,193.0
9866.593,185.0
9870.539,181.0
9874.487,150.0
9878.4375,185.0
9882.389,180.0
9886.342,192.0
9890.296,176.0
9894.252,164.0
9898.21,176.0
9902.169,186.0
9906.13,206.0
9910.093,193.0
9914.057,168.0
9918.022,176.0
9921.989,176.0
9925.958,166.0
9929.929,183.0
9933.9,184.0
9937.874,173.0
9941.85,185.0
9945.826,169.0
9949.805,196.0
9953.784,205.0
9957.766,169.0
9961.749,196.0
9965.733,185.0
9969.72,166.0
9973.708,196.0
9977.697,181.0
9981.688,170.0
9985.681,175.0
9989.675,165.0
9993.671,153.0
9997.668,164.0
10001.667,181.0
10005.668,171.0
10009.67,200.0
10013.674,172.0
10017.68,194.0
10021.687,176.0
10025.695,197.0
10029.706,188.0
10033.718,184.0
10037.731,173.0
10041.746,187.0
10045.763,187.0
10049.781,193.0
10053.801,178.0
10057.822,187.0
10061.846,187.0
10065.87,186.0
10069.896,167.0
10073.925,150.0
10077.954,190.0
10081.985,177.0
10086.019,161.0
10090.053,177.0
10094.089,191.0
10098.127,197.0
10102.166,198.0
10106.207,196.0
10110.25,196.0
10114.294,194.0
10118.34,170.0
10122.387,184.0
10126.436,195.0
10130.486,188.0
10134.538,211.0
10138.592,189.0
10142.647,208.0
10146.704,199.0
10150.763,192.0
10154.823,200.0
10158.885,209.0
10162.948,215.0
10167.014,209.0
10171.08,215.0
10175.148,204.0
10179.219,210.0
10183.29,196.0
10187.363,176.0
10191.438,193.0
10195.515,214.0
10199.593,188.0
10203.673,175.0
10207.754,192.0
10211.837,206.0
10215.922,174.0
10220.008,189.0
10224.096,200.0
10228.186,203.0
10232.276,201.0
10236.369,217.0
10240.464,200.0
10244.56,191.0
10248.657,182.0
10252.757,206.0
10256.858,174.0
10260.961,170.0
10265.065,183.0
10269.172,187.0
10273.279,190.0
10277.389,216.0
10281.5,204.0
10285.612,205.0
10289.727,195.0
10293.843,208.0
10297.96,197.0
10302.079,206.0
10306.2,204.0
10310.322,187.0
10314.446,224.0
10318.572,233.0
10322.699,191.0
10326.828,209.0
10330.959,242.0
10335.092,215.0
10339.226,204.0
10343.361,206.0
10347.499,186.0
10351.638,182.0
10355.778,212.0
10359.921,220.0
10364.064,209.0
10368.21,203.0
10372.357,230.0
10376.507,222.0
10380.657,220.0
10384.81,194.0
10388.964,234.0
10393.119,232.0
10397.276,225.0
10401.436,193.0
10405.596,185.0
10409.758,229.0
10413.922,194.0
10418.088,218.0
10422.255,212.0
10426.424,179.0
10430.595,232.0
10434.767,216.0
10438.94,226.0
10443.116,221.0
10447.294,203.0
10451.473,214.0
10455.653,210.0
10459.836,200.0
10464.02,194.0
10468.205,196.0
10472.393,194.0
10476.581,222.0
10480.771,233.0
10484.964,213.0
10489.158,198.0
10493.354,185.0
10497.551,221.0
10501.75,197.0
10505.951,196.0
10510.153,194.0
10514.357,210.0
10518.563,215.0
10522.7705,230.0
10526.9795,225.0
10531.19,196.0
10535.403,229.0
10539.617,200.0
10543.833,210.0
10548.051,206.0
10552.27,192.0
10556.49,199.0
10560.713,208.0
10564.9375,212.0
10569.163,199.0
10573.391,250.0
10577.62,207.0
10581.852,217.0
10586.084,251.0
10590.318,216.0
10594.555,206.0
10598.793,225.0
10603.032,225.0
10607.273,218.0
10611.517,228.0
10615.761,225.0
10620.007,234.0
10624.255,214.0
10628.505,197.0
10632.756,216.0
10637.009,219.0
10641.264,215.0
10645.5205,220.0
10649.778,232.0
10654.038,227.0
10658.3,203.0
10662.563,233.0
10666.828,221.0
10671.095,248.0
10675.363,240.0
10679.634,247.0
10683.905,234.0
10688.179,243.0
10692.454,234.0
10696.731,221.0
10701.01,253.0
10705.29,235.0
10709.572,233.0
10713.856,244.0
10718.142,234.0
10722.429,267.0
10726.718,275.0
10731.009,213.0
10735.301,268.0
10739.595,298.0
10743.891,264.0
10748.188,211.0
10752.487,245.0
10756.788,283.0
10761.091,264.0
10765.3955,247.0
10769.702,240.0
10774.01,225.0
10778.319,229.0
10782.631,254.0
10786.944,247.0
10791.259,219.0
10795.575,248.0
10799.894,233.0
10804.214,232.0
10808.535,222.0
10812.858,218.0
10817.184,231.0
10821.511,220.0
10825.839,207.0
10830.169,201.0
10834.501,219.0
10838.835,228.0
10843.171,236.0
10847.508,224.0
10851.847,241.0
10856.1875,214.0
10860.53,217.0
10864.874,212.0
10869.22,242.0
10873.567,239.0
10877.917,244.0
10882.269,235.0
10886.621,209.0
10890.976,251.0
10895.332,248.0
10899.69,251.0
10904.051,268.0
10908.412,261.0
10912.775,238.0
10917.141,271.0
10921.508,239.0
10925.876,269.0
10930.246,232.0
10934.618,251.0
10938.992,247.0
10943.368,266.0
10947.745,241.0
10952.124,207.0
10956.505,277.0
10960.888,236.0
10965.272,233.0
10969.658,234.0
10974.046,264.0
10978.436,257.0
10982.827,222.0
10987.221,265.0
10991.615,253.0
10996.012,227.0
11000.41,270.0
11004.811,260.0
11009.213,221.0
11013.616,258.0
11018.021,253.0
11022.429,246.0
11026.838,224.0
11031.249,254.0
11035.661,275.0
11040.075,243.0
11044.491,249.0
11048.909,259.0
11053.329,237.0
11057.75,233.0
11062.173,247.0
11066.598,253.0
11071.024,276.0
11075.453,235.0
11079.884,232.0
11084.315,226.0
11088.749,253.0
11093.185,282.0
11097.622,241.0
11102.062,245.0
11106.502,248.0
11110.944,249.0
11115.389,243.0
11119.835,262.0
11124.283,275.0
11128.733,262.0
11133.185,257.0
11137.638,260.0
11142.093,246.0
11146.55,263.0
11151.009,253.0
11155.469,242.0
11159.931,241.0
11164.395,253.0
11168.86,236.0
11173.328,281.0
11177.798,235.0
11182.269,227.0
11186.741,275.0
11191.216,266.0
11195.692,266.0
11200.171,246.0
11204.651,266.0
11209.133,271.0
11213.616,254.0
11218.102,223.0
11222.589,259.0
11227.078,270.0
11231.569,257.0
11236.062,280.0
11240.556,265.0
11245.052,267.0
11249.55,263.0
11254.05,248.0
11258.552,287.0
11263.056,283.0
11267.561,258.0
11272.067,250.0
11276.576,291.0
11281.087,259.0
11285.6,290.0
11290.114,281.0
11294.63,270.0
11299.147,286.0
11303.667,298.0
11308.188,300.0
11312.712,267.0
11317.237,268.0
11321.765,314.0
11326.293,306.0
11330.823,321.0
11335.355,341.0
11339.89,273.0
11344.426,294.0
11348.964,310.0
11353.504,316.0
11358.045,329.0
11362.588,349.0
11367.133,319.0
11371.68,337.0
11376.229,374.0
11380.779,338.0
11385.332,356.0
11389.886,348.0
11394.441,363.0
11398.999,391.0
11403.559,382.0
11408.12,377.0
11412.684,366.0
11417.249,412.0
11421.816,391.0
11426.385,441.0
11430.955,420.0
11435.527,430.0
11440.102,422.0
11444.678,475.0
11449.256,438.0
11453.836,464.0
11458.417,455.0
11463.0,457.0
11467.585,473.0
11472.172,460.0
11476.761,456.0
11481.352,448.0
11485.944,507.0
11490.539,493.0
11495.136,503.0
11499.733,523.0
11504.333,492.0
11508.935,531.0
11513.538,560.0
11518.144,512.0
11522.751,502.0
11527.36,592.0
11531.972,588.0
11536.584,543.0
11541.198,554.0
11545.814,565.0
11550.433,580.0
11555.053,570.0
11559.675,589.0
11564.299,605.0
11568.925,588.0
11573.553,617.0
11578.183,621.0
11582.813,655.0
11587.446,610.0
11592.081,665.0
11596.718,670.0
11601.356,616.0
11605.997,622.0
11610.64,656.0
11615.284,702.0
11619.931,598.0
11624.579,638.0
11629.229,760.0
11633.88,619.0
11638.533,586.0
11643.188,805.0
11647.846,710.0
11652.505,544.0
11657.166,694.0
11661.829,734.0
11666.494,569.0
11671.161,581.0
11675.83,811.0
11680.5,838.0
11685.172,603.0
11689.846,586.0
11694.521,603.0
11699.199,572.0
11703.879,527.0
11708.561,486.0
11713.244,482.0
11717.93,438.0
11722.617,444.0
11727.307,430.0
11731.998,420.0
11736.69,363.0
11741.385,449.0
11746.081,371.0
11750.779,394.0
11755.4795,338.0
11760.182,372.0
11764.886,330.0
11769.592,334.0
11774.3,316.0
11779.01,346.0
11783.722,337.0
11788.436,382.0
11793.151,328.0
11797.868,363.0
11802.587,374.0
11807.308,334.0
11812.03,314.0
11816.755,313.0
11821.481,356.0
11826.21,336.0
11830.94,298.0
11835.673,317.0
11840.407,291.0
11845.144,299.0
11849.882,308.0
11854.622,311.0
11859.364,295.0
11864.108,310.0
11868.8545,299.0
11873.602,288.0
11878.351,279.0
11883.102,325.0
11887.8545,290.0
11892.609,254.0
11897.366,273.0
11902.125,256.0
11906.886,234.0
11911.648,252.0
11916.413,252.0
11921.18,256.0
11925.948,226.0
11930.719,295.0
11935.491,242.0
11940.266,246.0
11945.042,218.0
11949.82,239.0
11954.601,238.0
11959.383,239.0
11964.167,236.0
11968.953,251.0
11973.74,256.0
11978.529,253.0
11983.32,253.0
11988.113,226.0
11992.908,256.0
