M/Z,Intensity
800.0,83.0
800.32,112.0
800.64014,73.0
800.9604,100.0
801.28076,158.0
801.60126,80.0
801.9219,76.0
802.2426,135.0
802.56354,76.0
802.8846,127.0
803.20575,131.0
803.52704,63.0
803.84845,60.0
804.17,153.0
804.49164,91.0
804.8134,43.0
805.1353,89.0
805.4574,110.0
805.7796,46.0
806.1019,109.0
806.4244,185.0
806.74695,51.0
807.06964,77.0
807.39246,169.0
807.7154,50.0
808.03845,73.0
808.3617,176.0
808.68506,54.0
809.00854,82.0
809.33215,170.0
809.6559,72.0
809.97974,59.0
810.3037,169.0
810.6278,75.0
810.9521,76.0
811.2765,139.0
811.601,66.0
811.92566,55.0
812.2504,131.0
812.5753,69.0
812.9003,73.0
813.22546,113.0
813.5508,81.0
813.8762,57.0
814.2018,126.0
814.52747,78.0
814.8533,53.0
815.1792,108.0
815.50525,104.0
815.8314,60.0
816.1578,112.0
816.48425,99.0
816.81085,63.0
817.1376,122.0
817.4644,102.0
817.7914,48.0
818.11847,101.0
818.44574,101.0
818.77313,62.0
819.10065,101.0
819.4283,105.0
819.75604,42.0
820.0839,87.0
820.412,109.0
820.7402,47.0
821.0685,101.0
821.3969,125.0
821.72546,45.0
822.05414,67.0
822.38293,123.0
822.7119,49.0
823.041,126.0
823.37024,103.0
823.6996,53.0
824.02905,92.0
824.35864,129.0
824.6884,119.0
825.0183,1278.0
825.3483,131.0
825.67847,63.0
826.0087,589.0
826.3391,135.0
826.6696,57.0
827.0003,248.0
827.3311,139.0
827.66205,49.0
827.9931,94.0
828.3243,144.0
828.65564,42.0
828.9871,70.0
829.3187,117.0
829.65045,39.0
829.9823,81.0
830.3143,125.0
830.6464,49.0
830.9787,86.0
831.3111,108.0
831.6436,55.0
831.97626,75.0
832.309,128.0
832.64197,68.0
832.97504,74.0
833.3082,114.0
833.64154,41.0
833.975,60.0
834.3086,140.0
834.64233,65.0
834.9762,76.0
835.3102,101.0
835.6443,55.0
835.9785,73.0
836.3129,146.0
836.64746,51.0
836.9821,84.0
837.3169,131.0
837.6518,55.0
837.9869,82.0
838.3221,134.0
838.6574,57.0
838.99286,249.0
839.3284,146.0
839.6642,54.0
840.00006,165.0
840.33606,129.0
840.6722,75.0
841.0084,322.0
841.34485,116.0
841.6814,58.0
842.01807,156.0
842.35486,166.0
842.6918,60.0
843.0289,114.0
843.3661,146.0
843.7034,61.0
844.0409,82.0
844.37854,118.0
844.7163,69.0
845.0542,279.0
845.3922,159.0
845.73035,75.0
846.06866,160.0
846.4071,138.0
846.74567,76.0
847.08435,125.0
847.42316,111.0
847.76215,59.0
848.10126,93.0
848.4405,91.0
848.77985,47.0
849.1194,101.0
849.45905,105.0
849.7988,50.0
850.13873,82.0
850.47876,80.0
850.819,50.0
851.1593,85.0
851.49976,89.0
851.84033,46.0
852.1811,118.0
852.522,73.0
852.863,50.0
853.2041,113.0
853.5454,70.0
853.88684,38.0
854.2284,113.0
854.57007,79.0
854.9119,190.0
855.2539,127.0
855.596,58.0
855.93823,131.0
856.2806,110.0
856.6231,57.0
856.96576,122.0
857.30853,95.0
857.6514,49.0
857.9945,102.0
858.3377,133.0
858.681,60.0
859.0245,116.0
859.3681,111.0
859.71185,71.0
860.0557,83.0
860.3997,142.0
860.7439,292.0
861.0882,564.0
861.4326,111.0
861.77716,202.0
862.1219,235.0
862.46674,108.0
862.8117,130.0
863.15686,117.0
863.50214,99.0
863.84753,103.0
864.19305,112.0
864.53876,80.0
864.8846,76.0
865.2305,107.0
865.5766,70.0
865.92285,66.0
866.2692,135.0
866.6157,60.0
866.96234,127.0
867.30914,123.0
867.65607,48.0
868.0031,91.0
868.35034,111.0
868.6977,44.0
869.04517,73.0
869.39276,99.0
869.74054,44.0
870.08844,66.0
870.43646,96.0
870.7846,65.0
871.13293,64.0
871.4814,71.0
871.82996,53.0
872.1787,93.0
872.5276,61.0
872.8766,86.0
873.2257,108.0
873.575,66.0
873.92444,77.0
874.274,120.0
874.6237,51.0
874.9736,67.0
875.32355,112.0
875.6737,49.0
876.024,76.0
876.3744,128.0
876.7249,111.0
877.0756,135.0
877.42645,116.0
877.7774,102.0
878.12854,113.0
878.4798,84.0
878.8312,71.0
879.18274,95.0
879.5344,60.0
879.8862,74.0
880.23816,133.0
880.5903,59.0
880.9425,74.0
881.29486,109.0
881.6474,37.0
882.00006,63.0
882.35284,97.0
882.7058,48.0
883.0589,96.0
883.4121,112.0
883.7655,40.0
884.119,93.0
884.47266,91.0
884.8264,57.0
885.18036,84.0
885.5344,84.0
885.8886,38.0
886.243,119.0
886.5975,48.0
886.9521,49.0
887.3069,100.0
887.6618,41.0
888.01685,54.0
888.3721,98.0
888.7274,57.0
889.0829,81.0
889.43854,114.0
889.7943,56.0
890.1502,96.0
890.5063,94.0
890.8625,59.0
891.2188,119.0
891.5753,72.0
891.93195,54.0
892.2887,127.0
892.6456,49.0
893.0027,73.0
893.35986,149.0
893.7172,33.0
894.0747,84.0
894.4323,110.0
894.7901,67.0
895.148,99.0
895.50604,81.0
895.86426,63.0
896.2226,95.0
896.58105,58.0
896.9397,62.0
897.29846,103.0
897.6574,45.0
898.0165,54.0
898.3757,87.0
898.73505,53.0
899.09454,95.0
899.45416,91.0
899.81396,44.0
900.1739,119.0
900.53394,80.0
900.89417,59.0
901.2545,99.0
901.615,38.0
901.97565,60.0
902.3364,86.0
902.6974,40.0
903.0585,84.0
903.4197,100.0
903.78107,33.0
904.1426,83.0
904.5042,93.0
904.866,55.0
905.22797,105.0
905.5901,62.0
905.95233,54.0
906.3147,125.0
906.67725,41.0
907.0399,57.0
907.4027,84.0
907.7657,36.0
908.1288,83.0
908.49207,95.0
908.85547,59.0
909.219,99.0
909.5827,69.0
909.94653,54.0
910.3105,102.0
910.6746,45.0
911.0389,57.0
911.4033,107.0
911.7679,43.0
912.13257,77.0
912.49744,99.0
912.8624,60.0
913.2276,96.0
913.5929,55.0
913.9583,44.0
914.3239,100.0
914.68964,36.0
915.05554,65.0
915.4216,102.0
915.7877,41.0
916.15405,83.0
916.5205,82.0
916.88715,44.0
917.2539,106.0
917.6208,37.0
917.98785,43.0
918.35504,117.0
918.7224,45.0
919.0899,77.0
919.4575,110.0
919.8253,52.0
920.19324,101.0
920.56134,52.0
920.92957,47.0
921.2979,122.0
921.66644,41.0
922.0351,64.0
922.40393,102.0
922.7729,41.0
923.14197,77.0
923.5112,70.0
923.8806,48.0
924.2502,106.0
924.6199,60.0
924.98975,62.0
925.35974,93.0
925.72986,43.0
926.10016,64.0
926.4706,88.0
926.8412,56.0
927.2119,74.0
927.5828,36.0
927.95386,53.0
928.325,117.0
928.69635,45.0
929.0678,70.0
929.43945,105.0
929.8112,46.0
930.18317,87.0
930.55524,78.0
930.9274,64.0
931.2998,113.0
931.6723,39.0
932.045,70.0
932.4178,89.0
932.7908,42.0
933.1639,93.0
933.5372,98.0
933.9106,52.0
934.2841,116.0
934.65784,55.0
935.0317,46.0
935.4057,80.0
935.77985,34.0
936.1542,83.0
936.5286,66.0
936.90326,47.0
937.278,109.0
937.65295,41.0
938.028,67.0
938.4032,103.0
938.77856,42.0
939.15405,69.0
939.5297,73.0
939.9055,57.0
940.2815,108.0
940.6576,49.0
941.0339,66.0
941.4103,94.0
941.78687,39.0
942.1636,80.0
942.54047,60.0
942.9175,59.0
943.2947,109.0
943.672,32.0
944.04944,63.0
944.42706,78.0
944.8048,34.0
945.18274,101.0
945.5608,66.0
945.939,51.0
946.3174,117.0
946.6959,43.0
947.0746,65.0
947.4534,72.0
947.8324,44.0
948.21155,104.0
948.5908,64.0
948.9703,63.0
949.34985,106.0
949.7296,43.0
950.1095,64.0
950.48956,82.0
950.86975,48.0
951.2501,85.0
951.6306,64.0
952.0113,63.0
952.3921,93.0
952.7731,46.0
953.1542,85.0
953.53546,69.0
953.9169,32.0
954.29846,110.0
954.6802,51.0
955.0621,71.0
955.4441,101.0
955.8263,38.0
956.2086,89.0
956.5911,62.0
956.97375,58.0
957.35657,104.0
957.7395,37.0
958.1226,74.0
958.50586,84.0
958.8893,46.0
959.2728,95.0
959.65656,40.0
960.0404,58.0
960.42444,81.0
960.8086,40.0
961.19293,91.0
961.5774,61.0
961.96204,43.0
962.3468,117.0
962.73175,40.0
963.1168,80.0
963.5021,65.0
963.88745,48.0
964.273,110.0
964.6587,49.0
965.04456,65.0
965.4306,94.0
965.8168,60.0
966.2031,107.0
966.5896,57.0
966.97626,52.0
967.36304,78.0
967.75,56.0
968.1371,88.0
968.52435,80.0
968.91174,41.0
969.2993,89.0
969.687,51.0
970.0749,85.0
970.4629,106.0
970.8511,63.0
971.23944,91.0
971.6279,60.0
972.0166,73.0
972.4054,94.0
972.7944,49.0
973.1835,108.0
973.57275,74.0
973.96216,46.0
974.35175,117.0
974.7415,39.0
975.1314,61.0
975.5215,89.0
975.9117,33.0
976.30206,90.0
976.69257,56.0
977.08325,74.0
977.47406,105.0
977.86505,59.0
978.2562,112.0
978.6475,50.0
979.039,65.0
979.4306,110.0
979.8224,42.0
980.2143,91.0
980.6064,47.0
980.99866,42.0
981.39105,83.0
981.7836,64.0
982.17633,83.0
982.5692,72.0
982.9622,60.0
983.3554,87.0
983.7488,39.0
984.1423,83.0
984.53595,73.0
984.92975,58.0
985.3237,107.0
985.71783,54.0
986.1121,80.0
986.5066,80.0
986.9012,51.0
987.29596,93.0
987.69086,43.0
988.08594,80.0
988.4812,79.0
988.8766,64.0
989.27216,86.0
989.66785,52.0
990.0637,66.0
990.4597,76.0
990.8559,48.0
991.25226,111.0
991.64874,61.0
992.0454,67.0
992.4422,97.0
992.8392,57.0
993.2363,93.0
993.6336,66.0
994.03107,58.0
994.42865,85.0
994.8264,47.0
995.22437,94.0
995.62244,61.0
996.0207,67.0
996.4191,85.0
996.8177,35.0
997.21643,92.0
997.6153,61.0
998.01434,58.0
998.4136,96.0
998.8129,34.0
999.21246,84.0
999.6121,65.0
1000.01196,63.0
1000.412,104.0
1000.81213,52.0
1001.21246,83.0
1001.613,69.0
1002.0136,49.0
1002.4144,95.0
1002.81537,43.0
1003.2165,74.0
1003.6178,65.0
1004.0192,53.0
1004.42084,110.0
1004.82263,29.0
1005.22455,89.0
1005.62665,84.0
1006.0289,75.0
1006.4313,105.0
1006.83386,37.0
1007.2366,91.0
1007.63947,69.0
1008.04254,71.0
1008.44574,108.0
1008.8491,74.0
1009.2527,84.0
1009.6564,67.0
1010.06024,64.0
1010.4643,94.0
1010.86847,48.0
1011.2728,87.0
1011.6773,49.0
1012.082,84.0
1012.4868,77.0
1012.8918,47.0
1013.29694,97.0
1013.7023,69.0
1014.1077,108.0
1014.51337,94.0
1014.9192,76.0
1015.32513,123.0
1015.73126,57.0
1016.1376,99.0
1016.544,90.0
1016.9506,53.0
1017.3574,118.0
1017.76434,47.0
1018.17145,73.0
1018.57874,70.0
1018.98615,55.0
1019.39374,116.0
1019.8015,55.0
1020.2094,74.0
1020.6175,62.0
1021.02576,72.0
1021.43414,117.0
1021.8427,67.0
1022.25146,97.0
1022.66034,61.0
1023.0694,73.0
1023.47864,89.0
1023.888,74.0
1024.2976,105.0
1024.7073,52.0
1025.1172,71.0
1025.5272,77.0
1025.9374,59.0
1026.3478,107.0
1026.7583,38.0
1027.169,67.0
1027.5798,64.0
1027.9908,78.0
1028.4021,107.0
1028.8135,51.0
1029.225,89.0
1029.6367,86.0
1030.0486,134.0
1030.4606,112.0
1030.8728,101.0
1031.2852,127.0
1031.6976,60.0
1032.1104,85.0
1032.5232,97.0
1032.9362,53.0
1033.3494,114.0
1033.7627,63.0
1034.1761,85.0
1034.5898,64.0
1035.0037,72.0
1035.4177,86.0
1035.8319,63.0
1036.2462,95.0
1036.6608,79.0
1037.0754,63.0
1037.4902,88.0
1037.9053,61.0
1038.3204,86.0
1038.7357,54.0
1039.1512,78.0
1039.5669,93.0
1039.9827,52.0
1040.3987,82.0
1040.8148,30.0
1041.2312,80.0
1041.6477,69.0
1042.0643,74.0
1042.4812,86.0
1042.8982,52.0
1043.3153,103.0
1043.7327,78.0
1044.1501,88.0
1044.5677,74.0
1044.9856,56.0
1045.4036,86.0
1045.8218,63.0
1046.2401,87.0
1046.6586,75.0
1047.0773,68.0
1047.4961,97.0
1047.915,57.0
1048.3342,101.0
1048.7535,49.0
1049.1731,65.0
1049.5928,92.0
1050.0126,179.0
1050.4326,93.0
1050.8528,129.0
1051.2731,83.0
1051.6936,61.0
1052.1143,101.0
1052.5352,66.0
1052.9562,90.0
1053.3773,87.0
1053.7987,74.0
1054.2202,106.0
1054.6418,69.0
1055.0637,83.0
1055.4857,87.0
1055.908,75.0
1056.3303,123.0
1056.7528,56.0
1057.1755,84.0
1057.5984,93.0
1058.0215,73.0
1058.4447,114.0
1058.868,54.0
1059.2916,95.0
1059.7153,65.0
1060.1392,93.0
1060.5632,132.0
1060.9874,60.0
1061.4119,115.0
1061.8364,59.0
1062.2611,91.0
1062.686,49.0
1063.1111,73.0
1063.5364,94.0
1063.9618,54.0
1064.3873,109.0
1064.8131,57.0
1065.239,88.0
1065.6652,128.0
1066.0914,181.0
1066.5178,109.0
1066.9445,149.0
1067.3712,106.0
1067.7982,104.0
1068.2253,92.0
1068.6526,70.0
1069.0801,76.0
1069.5077,96.0
1069.9355,81.0
1070.3635,89.0
1070.7916,51.0
1071.22,85.0
1071.6484,87.0
1072.0771,119.0
1072.506,89.0
1072.9349,92.0
1073.3641,104.0
1073.7935,78.0
1074.223,109.0
1074.6527,81.0
1075.0825,67.0
1075.5126,92.0
1075.9427,58.0
1076.3732,80.0
1076.8037,56.0
1077.2344,87.0
1077.6653,58.0
1078.0963,95.0
1078.5276,86.0
1078.959,69.0
1079.3906,101.0
1079.8224,67.0
1080.2543,87.0
1080.6864,71.0
1081.1187,64.0
1081.5511,82.0
1081.9838,86.0
1082.4165,109.0
1082.8495,64.0
1083.2826,93.0
1083.716,60.0
1084.1494,72.0
1084.5831,69.0
1085.017,65.0
1085.4509,102.0
1085.8851,58.0
1086.3195,108.0
1086.754,70.0
1087.1887,79.0
1087.6235,88.0
1088.0586,86.0
1088.4938,85.0
1088.9292,74.0
1089.3647,95.0
1089.8005,66.0
1090.2365,100.0
1090.6725,73.0
1091.1088,85.0
1091.5452,79.0
1091.9818,50.0
1092.4186,108.0
1092.8556,42.0
1093.2927,103.0
1093.7301,66.0
1094.1676,75.0
1094.6052,80.0
1095.0431,62.0
1095.4811,96.0
1095.9193,76.0
1096.3577,85.0
1096.7963,62.0
1097.235,72.0
1097.6738,71.0
1098.1129,63.0
1098.5521,79.0
1098.9916,56.0
1099.4312,74.0
1099.871,75.0
1100.3109,85.0
1100.751,69.0
1101.1913,71.0
1101.6317,71.0
1102.0724,69.0
1102.5132,89.0
1102.9542,62.0
1103.3954,103.0
1103.8368,62.0
1104.2783,94.0
1104.72,67.0
1105.1619,81.0
1105.6039,75.0
1106.0461,54.0
1106.4885,98.0
1106.9312,38.0
1107.3739,103.0
1107.8169,56.0
1108.26,80.0
1108.7034,62.0
1109.1469,75.0
1109.5905,65.0
1110.0343,62.0
1110.4783,84.0
1110.9225,60.0
1111.3668,60.0
1111.8114,50.0
1112.2561,102.0
1112.701,62.0
1113.1461,65.0
1113.5914,70.0
1114.0369,63.0
1114.4824,98.0
1114.9282,52.0
1115.3741,88.0
1115.8203,69.0
1116.2666,70.0
1116.7131,62.0
1117.1598,78.0
1117.6067,90.0
1118.0537,70.0
1118.501,102.0
1118.9484,53.0
1119.396,99.0
1119.8438,51.0
1120.2917,91.0
1120.7399,64.0
1121.1881,79.0
1121.6366,71.0
1122.0852,63.0
1122.534,74.0
1122.983,66.0
1123.4323,75.0
1123.8816,51.0
1124.3312,85.0
1124.7809,37.0
1125.2308,85.0
1125.6809,72.0
1126.1312,66.0
1126.5817,85.0
1127.0323,66.0
1127.4832,86.0
1127.9342,42.0
1128.3854,74.0
1128.8367,61.0
1129.2882,83.0
1129.7399,51.0
1130.1918,58.0
1130.6438,81.0
1131.0961,79.0
1131.5485,118.0
1132.0011,65.0
1132.4539,98.0
1132.9069,55.0
1133.36,106.0
1133.8134,59.0
1134.2668,88.0
1134.7206,51.0
1135.1744,83.0
1135.6285,75.0
1136.0828,60.0
1136.5372,82.0
1136.9918,62.0
1137.4467,96.0
1137.9016,61.0
1138.3568,99.0
1138.8121,57.0
1139.2677,80.0
1139.7234,64.0
1140.1793,72.0
1140.6354,66.0
1141.0917,62.0
1141.5481,97.0
1142.0048,42.0
1142.4615,89.0
1142.9186,56.0
1143.3757,97.0
1143.8331,61.0
1144.2906,82.0
1144.7484,61.0
1145.2063,82.0
1145.6644,64.0
1146.1227,53.0
1146.5812,92.0
1147.0398,59.0
1147.4987,76.0
1147.9576,58.0
1148.4169,131.0
1148.8762,63.0
1149.3358,117.0
1149.7955,77.0
1150.2555,110.0
1150.7156,64.0
1151.1759,84.0
1151.6364,81.0
1152.097,57.0
1152.5579,92.0
1153.0189,62.0
1153.4801,86.0
1153.9415,46.0
1154.4031,96.0
1154.8649,43.0
1155.3268,70.0
1155.789,55.0
1156.2512,91.0
1156.7137,63.0
1157.1764,67.0
1157.6393,90.0
1158.1023,56.0
1158.5656,95.0
1159.0289,63.0
1159.4926,97.0
1159.9563,63.0
1160.4203,75.0
1160.8844,56.0
1161.3488,81.0
1161.8134,46.0
1162.2781,103.0
1162.743,60.0
1163.2081,81.0
1163.6735,89.0
1164.1389,80.0
1164.6046,79.0
1165.0704,63.0
1165.5365,89.0
1166.0027,42.0
1166.4691,103.0
1166.9357,60.0
1167.4025,92.0
1167.8694,30.0
1168.3365,98.0
1168.8038,50.0
1169.2714,83.0
1169.739,75.0
1170.2069,81.0
1170.675,70.0
1171.1433,80.0
1171.6118,72.0
1172.0804,70.0
1172.5493,84.0
1173.0183,43.0
1173.4875,84.0
1173.9569,44.0
1174.4265,101.0
1174.8962,57.0
1175.3662,94.0
1175.8363,40.0
1176.3066,95.0
1176.7772,56.0
1177.2479,74.0
1177.7189,64.0
1178.19,78.0
1178.6613,78.0
1179.1327,65.0
1179.6044,62.0
1180.0762,48.0
1180.5482,74.0
1181.0204,60.0
1181.4928,77.0
1181.9655,60.0
1182.4382,98.0
1182.9113,61.0
1183.3844,85.0
1183.8578,55.0
1184.3313,87.0
1184.805,56.0
1185.2789,78.0
1185.753,64.0
1186.2273,66.0
1186.7018,69.0
1187.1765,90.0
1187.6514,73.0
1188.1265,58.0
1188.6017,72.0
1189.0771,54.0
1189.5527,90.0
1190.0286,54.0
1190.5045,97.0
1190.9807,57.0
1191.4572,87.0
1191.9337,46.0
1192.4105,108.0
1192.8875,63.0
1193.3646,106.0
1193.8419,51.0
1194.3195,76.0
1194.7972,67.0
1195.2751,76.0
1195.7533,73.0
1196.2316,77.0
1196.7101,69.0
1197.1887,79.0
1197.6676,93.0
1198.1467,65.0
1198.626,92.0
1199.1055,61.0
1199.5851,86.0
1200.065,63.0
1200.5449,62.0
1201.0251,61.0
1201.5056,80.0
1201.9862,70.0
1202.467,82.0
1202.948,57.0
1203.4292,82.0
1203.9105,57.0
1204.3921,107.0
1204.8739,56.0
1205.3558,92.0
1205.838,51.0
1206.3203,82.0
1206.8029,53.0
1207.2855,65.0
1207.7684,66.0
1208.2516,75.0
1208.7349,68.0
1209.2184,75.0
1209.702,68.0
1210.1859,78.0
1210.67,76.0
1211.1543,68.0
1211.6388,88.0
1212.1234,68.0
1212.6083,84.0
1213.0933,69.0
1213.5785,85.0
1214.064,62.0
1214.5496,70.0
1215.0354,53.0
1215.5214,88.0
1216.0076,46.0
1216.494,95.0
1216.9806,64.0
1217.4674,89.0
1217.9543,54.0
1218.4415,90.0
1218.929,61.0
1219.4165,95.0
1219.9043,53.0
1220.3922,91.0
1220.8804,52.0
1221.3688,112.0
1221.8573,62.0
1222.3461,69.0
1222.835,68.0
1223.3241,91.0
1223.8135,63.0
1224.303,85.0
1224.7927,49.0
1225.2826,83.0
1225.7727,38.0
1226.2631,72.0
1226.7535,66.0
1227.2443,72.0
1227.7351,68.0
1228.2262,71.0
1228.7175,66.0
1229.209,96.0
1229.7007,74.0
1230.1925,73.0
1230.6846,88.0
1231.1769,58.0
1231.6693,81.0
1232.162,57.0
1232.6549,78.0
1233.148,73.0
1233.6412,83.0
1234.1346,77.0
1234.6283,95.0
1235.1222,66.0
1235.6162,89.0
1236.1105,58.0
1236.6049,95.0
1237.0995,70.0
1237.5944,61.0
1238.0894,63.0
1238.5846,65.0
1239.0801,66.0
1239.5757,77.0
1240.0715,58.0
1240.5675,63.0
1241.0637,60.0
1241.5602,106.0
1242.0568,56.0
1242.5536,104.0
1243.0507,66.0
1243.5479,116.0
1244.0453,64.0
1244.5428,91.0
1245.0406,67.0
1245.5387,81.0
1246.0369,68.0
1246.5353,98.0
1247.0339,75.0
1247.5327,94.0
1248.0317,45.0
1248.531,88.0
1249.0304,61.0
1249.53,89.0
1250.0298,67.0
1250.5298,78.0
1251.03,62.0
1251.5304,104.0
1252.031,61.0
1252.5319,73.0
1253.0328,55.0
1253.534,84.0
1254.0355,62.0
1254.5371,93.0
1255.039,75.0
1255.541,83.0
1256.0432,68.0
1256.5457,67.0
1257.0482,70.0
1257.551,83.0
1258.0541,55.0
1258.5573,97.0
1259.0607,60.0
1259.5643,90.0
1260.0681,71.0
1260.5721,101.0
1261.0764,89.0
1261.5808,95.0
1262.0854,74.0
1262.5903,76.0
1263.0953,79.0
1263.6006,110.0
1264.1061,60.0
1264.6117,84.0
1265.1176,73.0
1265.6237,78.0
1266.1299,89.0
1266.6364,84.0
1267.1431,76.0
1267.6499,93.0
1268.157,67.0
1268.6642,72.0
1269.1716,72.0
1269.6793,76.0
1270.1871,64.0
1270.6952,74.0
1271.2035,65.0
1271.7119,88.0
1272.2206,64.0
1272.7295,81.0
1273.2385,63.0
1273.7478,67.0
1274.2573,83.0
1274.767,78.0
1275.2769,85.0
1275.787,69.0
1276.2972,82.0
1276.8077,133.0
1277.3185,102.0
1277.8295,92.0
1278.3406,92.0
1278.8519,83.0
1279.3635,83.0
1279.8752,78.0
1280.3872,79.0
1280.8994,65.0
1281.4117,94.0
1281.9243,67.0
1282.4371,90.0
1282.9501,65.0
1283.4633,94.0
1283.9767,60.0
1284.4902,93.0
1285.004,62.0
1285.5181,94.0
1286.0322,49.0
1286.5466,107.0
1287.0613,66.0
1287.576,89.0
1288.0911,76.0
1288.6063,98.0
1289.1218,76.0
1289.6375,78.0
1290.1533,79.0
1290.6694,82.0
1291.1857,74.0
1291.7021,68.0
1292.2189,85.0
1292.7357,88.0
1293.2528,72.0
1293.7701,67.0
1294.2876,83.0
1294.8053,75.0
1295.3232,67.0
1295.8414,53.0
1296.3597,85.0
1296.8783,64.0
1297.3971,93.0
1297.916,54.0
1298.4352,80.0
1298.9546,70.0
1299.4741,94.0
1299.9939,59.0
1300.5139,78.0
1301.0342,63.0
1301.5546,113.0
1302.0752,66.0
1302.5961,87.0
1303.1171,60.0
1303.6383,95.0
1304.1598,77.0
1304.6814,88.0
1305.2032,88.0
1305.7253,84.0
1306.2477,80.0
1306.7701,88.0
1307.2928,85.0
1307.8158,50.0
1308.3389,65.0
1308.8622,61.0
1309.3857,79.0
1309.9095,56.0
1310.4335,81.0
1310.9576,60.0
1311.482,80.0
1312.0066,40.0
1312.5314,78.0
1313.0564,49.0
1313.5817,64.0
1314.107,47.0
1314.6327,94.0
1315.1586,60.0
1315.6847,79.0
1316.2109,70.0
1316.7374,76.0
1317.2642,75.0
1317.791,79.0
1318.3181,75.0
1318.8455,59.0
1319.373,69.0
1319.9008,49.0
1320.4287,62.0
1320.9569,49.0
1321.4854,87.0
1322.0139,58.0
1322.5427,76.0
1323.0718,67.0
1323.601,84.0
1324.1304,57.0
1324.66,86.0
1325.19,78.0
1325.72,62.0
1326.2502,64.0
1326.7808,77.0
1327.3115,100.0
1327.8424,62.0
1328.3735,77.0
1328.9049,45.0
1329.4365,78.0
1329.9683,65.0
1330.5002,78.0
1331.0325,62.0
1331.565,74.0
1332.0975,57.0
1332.6304,80.0
1333.1635,82.0
1333.6968,75.0
1334.2302,76.0
1334.7639,66.0
1335.2979,70.0
1335.832,68.0
1336.3663,79.0
1336.9009,61.0
1337.4357,87.0
1337.9707,48.0
1338.5059,83.0
1339.0413,69.0
1339.5769,94.0
1340.1128,60.0
1340.6488,73.0
1341.185,57.0
1341.7216,73.0
1342.2583,86.0
1342.7952,75.0
1343.3323,86.0
1343.8696,62.0
1344.4072,62.0
1344.945,71.0
1345.4829,89.0
1346.0211,51.0
1346.5596,77.0
1347.0981,62.0
1347.637,88.0
1348.176,78.0
1348.7153,94.0
1349.2548,74.0
1349.7944,63.0
1350.3344,84.0
1350.8745,52.0
1351.4149,90.0
1351.9554,51.0
1352.4962,97.0
1353.0372,57.0
1353.5785,89.0
1354.1199,73.0
1354.6615,83.0
1355.2034,76.0
1355.7455,85.0
1356.2878,76.0
1356.8303,63.0
1357.373,63.0
1357.916,56.0
1358.4592,76.0
1359.0026,49.0
1359.5461,75.0
1360.09,57.0
1360.634,101.0
1361.1783,63.0
1361.7228,88.0
1362.2675,82.0
1362.8124,71.0
1363.3575,99.0
1363.9028,65.0
1364.4484,95.0
1364.9941,62.0
1365.5402,83.0
1366.0864,58.0
1366.6328,69.0
1367.1794,66.0
1367.7263,69.0
1368.2734,77.0
1368.8208,60.0
1369.3683,68.0
1369.916,57.0
1370.464,74.0
1371.0122,47.0
1371.5607,82.0
1372.1093,48.0
1372.6581,90.0
1373.2072,71.0
1373.7565,63.0
1374.306,75.0
1374.8557,61.0
1375.4056,83.0
1375.9558,64.0
1376.5062,101.0
1377.0569,48.0
1377.6077,95.0
1378.1587,56.0
1378.71,82.0
1379.2615,71.0
1379.8132,74.0
1380.3651,101.0
1380.9172,56.0
1381.4696,107.0
1382.0222,59.0
1382.5751,76.0
1383.128,39.0
1383.6813,87.0
1384.2347,74.0
1384.7885,66.0
1385.3424,69.0
1385.8965,54.0
1386.4508,85.0
1387.0054,52.0
1387.5602,91.0
1388.1152,69.0
1388.6705,81.0
1389.226,64.0
1389.7816,63.0
1390.3375,97.0
1390.8937,65.0
1391.4501,84.0
1392.0067,62.0
1392.5635,106.0
1393.1205,61.0
1393.6777,83.0
1394.2352,70.0
1394.793,66.0
1395.3508,84.0
1395.9089,54.0
1396.4673,98.0
1397.0259,64.0
1397.5847,83.0
1398.1438,68.0
1398.703,82.0
1399.2625,74.0
1399.8221,76.0
1400.3821,97.0
1400.9423,48.0
1401.5027,78.0
1402.0632,39.0
1402.624,88.0
1403.185,71.0
1403.7463,81.0
1404.3079,78.0
1404.8696,75.0
1405.4315,115.0
1405.9937,60.0
1406.556,110.0
1407.1187,59.0
1407.6815,86.0
1408.2446,84.0
1408.808,72.0
1409.3715,105.0
1409.9352,61.0
1410.4991,88.0
1411.0634,54.0
1411.6278,90.0
1412.1925,76.0
1412.7573,82.0
1413.3224,88.0
1413.8877,74.0
1414.4532,97.0
1415.019,62.0
1415.5851,113.0
1416.1514,63.0
1416.7178,69.0
1417.2844,83.0
1417.8513,66.0
1418.4185,92.0
1418.9858,55.0
1419.5535,89.0
1420.1213,78.0
1420.6893,70.0
1421.2576,82.0
1421.826,93.0
1422.3948,75.0
1422.9637,49.0
1423.533,85.0
1424.1024,70.0
1424.672,92.0
1425.2418,75.0
1425.8119,84.0
1426.3822,79.0
1426.9528,64.0
1427.5236,77.0
1428.0946,71.0
1428.6659,86.0
1429.2373,86.0
1429.809,76.0
1430.3809,86.0
1430.953,71.0
1431.5254,109.0
1432.098,61.0
1432.6709,91.0
1433.244,96.0
1433.8173,69.0
1434.3907,99.0
1434.9645,68.0
1435.5385,105.0
1436.1127,64.0
1436.6871,79.0
1437.2618,59.0
1437.8368,65.0
1438.412,89.0
1438.9873,67.0
1439.5629,77.0
1440.1387,66.0
1440.7147,86.0
1441.291,79.0
1441.8676,76.0
1442.4443,75.0
1443.0214,73.0
1443.5985,74.0
1444.1759,75.0
1444.7535,77.0
1445.3314,93.0
1445.9095,57.0
1446.4879,106.0
1447.0665,49.0
1447.6454,97.0
1448.2245,83.0
1448.8038,96.0
1449.3833,89.0
1449.963,63.0
1450.543,111.0
1451.1232,55.0
1451.7036,102.0
1452.2843,64.0
1452.8652,80.0
1453.4464,90.0
1454.0278,73.0
1454.6095,86.0
1455.1913,63.0
1455.7733,62.0
1456.3556,71.0
1456.9381,55.0
1457.5209,80.0
1458.1039,72.0
1458.6871,91.0
1459.2706,53.0
1459.8544,73.0
1460.4384,95.0
1461.0226,61.0
1461.6069,107.0
1462.1915,71.0
1462.7764,80.0
1463.3615,89.0
1463.9468,58.0
1464.5323,75.0
1465.1182,62.0
1465.7042,90.0
1466.2905,72.0
1466.8771,77.0
1467.4639,90.0
1468.0509,66.0
1468.6382,80.0
1469.2256,68.0
1469.8132,74.0
1470.4011,80.0
1470.9893,80.0
1471.5776,89.0
1472.1663,61.0
1472.7551,73.0
1473.3442,84.0
1473.9336,88.0
1474.5232,109.0
1475.113,70.0
1475.7031,92.0
1476.2935,76.0
1476.884,62.0
1477.4747,98.0
1478.0657,49.0
1478.6569,76.0
1479.2483,76.0
1479.84,78.0
1480.4319,84.0
1481.024,64.0
1481.6165,94.0
1482.2091,62.0
1482.802,75.0
1483.3951,72.0
1483.9885,66.0
1484.5822,87.0
1485.176,61.0
1485.7701,73.0
1486.3645,81.0
1486.9591,69.0
1487.5538,82.0
1488.1488,69.0
1488.744,83.0
1489.3395,99.0
1489.9352,50.0
1490.5311,67.0
1491.1273,60.0
1491.7238,83.0
1492.3204,82.0
1492.9174,72.0
1493.5145,106.0
1494.1119,66.0
1494.7096,74.0
1495.3075,85.0
1495.9056,86.0
1496.504,110.0
1497.1027,65.0
1497.7015,89.0
1498.3007,92.0
1498.9,54.0
1499.4996,80.0
1500.0995,71.0
1500.6996,86.0
1501.2998,68.0
1501.9003,90.0
1502.501,79.0
1503.1019,57.0
1503.7031,72.0
1504.3046,91.0
1504.9062,71.0
1505.5082,103.0
1506.1104,64.0
1506.7128,64.0
1507.3154,91.0
1507.9183,59.0
1508.5215,104.0
1509.1249,72.0
1509.7285,111.0
1510.3324,85.0
1510.9365,69.0
1511.5409,108.0
1512.1455,66.0
1512.7504,194.0
1513.3555,136.0
1513.9608,108.0
1514.5664,140.0
1515.1722,67.0
1515.7783,74.0
1516.3846,92.0
1516.9912,61.0
1517.598,95.0
1518.2051,67.0
1518.8124,89.0
1519.4199,76.0
1520.0277,68.0
1520.6357,99.0
1521.244,77.0
1521.8525,58.0
1522.4613,89.0
1523.0703,62.0
1523.6796,76.0
1524.2891,78.0
1524.8988,67.0
1525.5088,90.0
1526.119,62.0
1526.7295,97.0
1527.3402,72.0
1527.9512,69.0
1528.5624,85.0
1529.1738,68.0
1529.7855,71.0
1530.3975,85.0
1531.0096,68.0
1531.6221,78.0
1532.2347,69.0
1532.8477,64.0
1533.4608,80.0
1534.0742,61.0
1534.6879,87.0
1535.3018,72.0
1535.9159,74.0
1536.5303,85.0
1537.1449,53.0
1537.7598,82.0
1538.3749,71.0
1538.9902,54.0
1539.6058,80.0
1540.2217,61.0
1540.8378,80.0
1541.4541,80.0
1542.0707,59.0
1542.6875,88.0
1543.3046,60.0
1543.9219,74.0
1544.5394,79.0
1545.1572,62.0
1545.7753,82.0
1546.3936,77.0
1547.0121,57.0
1547.6309,84.0
1548.2499,69.0
1548.8691,61.0
1549.4886,90.0
1550.1084,65.0
1550.7284,80.0
1551.3486,66.0
1551.9691,65.0
1552.5898,101.0
1553.2109,79.0
1553.8323,91.0
1554.4539,69.0
1555.0757,61.0
1555.6978,83.0
1556.3201,69.0
1556.9426,65.0
1557.5654,88.0
1558.1885,62.0
1558.8118,84.0
1559.4353,80.0
1560.0591,66.0
1560.6831,98.0
1561.3074,75.0
1561.9319,75.0
1562.5566,90.0
1563.1816,72.0
1563.8069,70.0
1564.4324,98.0
1565.0581,76.0
1565.6841,81.0
1566.3103,69.0
1566.9368,55.0
1567.5636,75.0
1568.1907,63.0
1568.818,80.0
1569.4456,93.0
1570.0734,66.0
1570.7014,105.0
1571.3297,76.0
1571.9583,65.0
1572.587,77.0
1573.2161,68.0
1573.8453,76.0
1574.4749,67.0
1575.1046,59.0
1575.7346,86.0
1576.3649,77.0
1576.9954,62.0
1577.6261,66.0
1578.2572,73.0
1578.8885,65.0
1579.5201,70.0
1580.152,44.0
1580.784,83.0
1581.4164,70.0
1582.049,48.0
1582.6818,72.0
1583.3148,76.0
1583.9481,66.0
1584.5817,96.0
1585.2155,82.0
1585.8495,83.0
1586.4839,91.0
1587.1185,60.0
1587.7534,89.0
1588.3885,87.0
1589.0239,67.0
1589.6595,97.0
1590.2954,80.0
1590.9315,59.0
1591.5679,87.0
1592.2045,72.0
1592.8413,77.0
1593.4784,75.0
1594.1158,62.0
1594.7535,76.0
1595.3915,85.0
1596.0297,68.0
1596.6681,92.0
1597.3068,78.0
1597.9457,70.0
1598.5848,87.0
1599.2242,62.0
1599.8639,76.0
1600.5038,79.0
1601.144,55.0
1601.7845,79.0
1602.4253,91.0
1603.0663,68.0
1603.7075,76.0
1604.349,67.0
1604.9907,83.0
1605.6327,97.0
1606.2749,81.0
1606.9174,70.0
1607.5602,73.0
1608.2032,52.0
1608.8466,71.0
1609.4901,82.0
1610.1339,62.0
1610.778,86.0
1611.4222,75.0
1612.0668,53.0
1612.7115,64.0
1613.3567,90.0
1614.0021,75.0
1614.6477,73.0
1615.2936,71.0
1615.9397,66.0
1616.586,79.0
1617.2327,75.0
1617.8795,73.0
1618.5266,78.0
1619.1741,55.0
1619.8218,97.0
1620.4697,80.0
1621.1179,62.0
1621.7664,78.0
1622.415,74.0
1623.064,59.0
1623.7131,89.0
1624.3627,72.0
1625.0125,80.0
1625.6625,91.0
1626.3127,78.0
1626.9633,73.0
1627.614,74.0
1628.265,70.0
1628.9163,50.0
1629.5679,87.0
1630.2197,67.0
1630.8718,88.0
1631.5242,81.0
1632.1768,68.0
1632.8296,77.0
1633.4827,83.0
1634.1361,59.0
1634.7898,92.0
1635.4437,73.0
1636.0979,55.0
1636.7523,72.0
1637.407,85.0
1638.0619,52.0
1638.7172,68.0
1639.3727,93.0
1640.0284,83.0
1640.6844,79.0
1641.3407,71.0
1641.9972,77.0
1642.6539,103.0
1643.311,93.0
1643.9684,59.0
1644.626,129.0
1645.2838,85.0
1645.9419,68.0
1646.6002,106.0
1647.2589,77.0
1647.9178,88.0
1648.577,97.0
1649.2365,80.0
1649.8961,71.0
1650.556,68.0
1651.2163,65.0
1651.8768,70.0
1652.5376,80.0
1653.1986,57.0
1653.8599,60.0
1654.5214,83.0
1655.1832,67.0
1655.8453,67.0
1656.5077,85.0
1657.1703,71.0
1657.8331,75.0
1658.4962,81.0
1659.1597,54.0
1659.8234,77.0
1660.4873,85.0
1661.1515,59.0
1661.8159,90.0
1662.4806,78.0
1663.1456,69.0
1663.8109,84.0
1664.4764,80.0
1665.1422,78.0
1665.8082,88.0
1666.4746,93.0
1667.1412,62.0
1667.8081,98.0
1668.4752,64.0
1669.1426,66.0
1669.8102,62.0
1670.4781,89.0
1671.1464,65.0
1671.8148,74.0
1672.4835,83.0
1673.1525,58.0
1673.8218,99.0
1674.4913,74.0
1675.1611,50.0
1675.8312,71.0
1676.5015,66.0
1677.1721,54.0
1677.843,68.0
1678.5142,78.0
1679.1855,67.0
1679.8572,74.0
1680.5292,79.0
1681.2014,66.0
1681.8739,68.0
1682.5466,72.0
1683.2196,68.0
1683.893,78.0
1684.5665,83.0
1685.2404,57.0
1685.9144,70.0
1686.5887,82.0
1687.2634,67.0
1687.9384,66.0
1688.6135,76.0
1689.289,54.0
1689.9646,65.0
1690.6406,82.0
1691.3169,58.0
1691.9934,57.0
1692.6702,88.0
1693.3473,55.0
1694.0247,53.0
1694.7023,70.0
1695.3801,59.0
1696.0582,56.0
1696.7367,74.0
1697.4154,83.0
1698.0944,70.0
1698.7736,88.0
1699.4531,79.0
1700.1329,53.0
1700.813,104.0
1701.4933,74.0
1702.1738,71.0
1702.8547,80.0
1703.5359,79.0
1704.2173,68.0
1704.8989,63.0
1705.5809,76.0
1706.2632,75.0
1706.9457,61.0
1707.6284,66.0
1708.3115,92.0
1708.9949,76.0
1709.6785,75.0
1710.3623,76.0
1711.0465,61.0
1711.731,65.0
1712.4156,47.0
1713.1006,70.0
1713.7858,72.0
1714.4713,70.0
1715.1571,67.0
1715.8431,71.0
1716.5294,69.0
1717.2161,56.0
1717.903,58.0
1718.5901,70.0
1719.2775,60.0
1719.9652,66.0
1720.6532,70.0
1721.3414,76.0
1722.0299,62.0
1722.7188,93.0
1723.4078,73.0
1724.0972,68.0
1724.7869,79.0
1725.4768,70.0
1726.167,77.0
1726.8574,78.0
1727.5482,73.0
1728.2393,62.0
1728.9305,52.0
1729.6221,74.0
1730.314,56.0
1731.0061,66.0
1731.6985,70.0
1732.3911,66.0
1733.0841,57.0
1733.7773,66.0
1734.4708,62.0
1735.1647,43.0
1735.8588,74.0
1736.5531,76.0
1737.2477,65.0
1737.9426,61.0
1738.6378,70.0
1739.3333,72.0
1740.0289,76.0
1740.725,74.0
1741.4213,65.0
1742.1178,60.0
1742.8147,53.0
1743.5118,65.0
1744.2092,51.0
1744.9069,61.0
1745.6049,67.0
1746.3031,60.0
1747.0016,61.0
1747.7004,67.0
1748.3995,68.0
1749.0989,47.0
1749.7985,77.0
1750.4984,91.0
1751.1986,70.0
1751.899,77.0
1752.5999,74.0
1753.3009,60.0
1754.0022,53.0
1754.7039,76.0
1755.4058,60.0
1756.1079,67.0
1756.8103,79.0
1757.5131,67.0
1758.2161,78.0
1758.9193,69.0
1759.6229,75.0
1760.3268,63.0
1761.0309,58.0
1761.7354,59.0
1762.4401,70.0
1763.145,65.0
1763.8502,75.0
1764.5558,80.0
1765.2616,56.0
1765.9677,62.0
1766.6741,72.0
1767.3807,61.0
1768.0876,54.0
1768.7949,59.0
1769.5024,47.0
1770.2102,66.0
1770.9183,62.0
1771.6267,74.0
1772.3353,75.0
1773.0443,64.0
1773.7535,66.0
1774.463,72.0
1775.1729,51.0
1775.8829,70.0
1776.5933,66.0
1777.304,56.0
1778.0149,66.0
1778.7261,75.0
1779.4376,76.0
1780.1494,54.0
1780.8615,63.0
1781.5739,71.0
1782.2865,70.0
1782.9994,63.0
1783.7126,95.0
1784.4261,54.0
1785.1399,53.0
1785.854,79.0
1786.5684,60.0
1787.283,55.0
1787.9979,70.0
1788.7131,83.0
1789.4286,76.0
1790.1444,62.0
1790.8605,67.0
1791.5768,88.0
1792.2935,50.0
1793.0104,56.0
1793.7275,78.0
1794.4451,60.0
1795.1628,69.0
1795.8809,68.0
1796.5992,69.0
1797.3179,72.0
1798.0367,70.0
1798.756,60.0
1799.4755,79.0
1800.1953,51.0
1800.9154,65.0
1801.6357,69.0
1802.3564,65.0
1803.0774,62.0
1803.7986,72.0
1804.5201,74.0
1805.242,51.0
1805.964,66.0
1806.6864,76.0
1807.409,77.0
1808.1321,69.0
1808.8553,60.0
1809.5789,71.0
1810.3027,72.0
1811.0269,80.0
1811.7512,87.0
1812.476,91.0
1813.2009,43.0
1813.9261,78.0
1814.6517,84.0
1815.3776,78.0
1816.1038,66.0
1816.8302,70.0
1817.5569,61.0
1818.2839,48.0
1819.0112,67.0
1819.7389,69.0
1820.4668,78.0
1821.195,44.0
1821.9235,54.0
1822.6522,86.0
1823.3812,74.0
1824.1106,45.0
1824.8402,66.0
1825.5702,70.0
1826.3004,60.0
1827.0309,63.0
1827.7617,76.0
1828.4928,79.0
1829.2242,45.0
1829.9559,76.0
1830.6879,58.0
1831.4202,57.0
1832.1527,47.0
1832.8856,61.0
1833.6188,78.0
1834.3522,69.0
1835.0859,77.0
1835.82,80.0
1836.5543,85.0
1837.289,63.0
1838.0238,68.0
1838.759,74.0
1839.4945,80.0
1840.2303,66.0
1840.9664,84.0
1841.7028,89.0
1842.4395,70.0
1843.1764,68.0
1843.9137,79.0
1844.6512,59.0
1845.3892,58.0
1846.1273,61.0
1846.8657,67.0
1847.6045,64.0
1848.3435,47.0
1849.0829,52.0
1849.8225,61.0
1850.5624,83.0
1851.3026,49.0
1852.0431,76.0
1852.7839,88.0
1853.525,76.0
1854.2665,61.0
1855.0082,73.0
1855.7501,82.0
1856.4924,61.0
1857.235,62.0
1857.9779,111.0
1858.7211,123.0
1859.4646,95.0
1860.2084,80.0
1860.9525,59.0
1861.6969,82.0
1862.4415,79.0
1863.1865,56.0
1863.9318,63.0
1864.6774,69.0
1865.4232,79.0
1866.1694,51.0
1866.9159,67.0
1867.6627,82.0
1868.4098,63.0
1869.1571,67.0
1869.9048,76.0
1870.6527,84.0
1871.401,88.0
1872.1495,63.0
1872.8984,69.0
1873.6476,76.0
1874.3971,64.0
1875.1469,55.0
1875.8969,101.0
1876.6472,86.0
1877.3978,70.0
1878.1488,54.0
1878.9,56.0
1879.6516,67.0
1880.4034,64.0
1881.1556,78.0
1881.9081,64.0
1882.6609,81.0
1883.414,71.0
1884.1674,79.0
1884.921,242.0
1885.675,251.0
1886.4293,153.0
1887.1838,103.0
1887.9387,113.0
1888.6938,84.0
1889.4493,72.0
1890.2051,56.0
1890.9612,56.0
1891.7175,79.0
1892.4742,74.0
1893.2312,69.0
1893.9885,74.0
1894.7461,88.0
1895.504,71.0
1896.2622,76.0
1897.0208,81.0
1897.7795,91.0
1898.5387,63.0
1899.2981,58.0
1900.0579,59.0
1900.8179,70.0
1901.5782,89.0
1902.3389,64.0
1903.0999,55.0
1903.8611,60.0
1904.6227,56.0
1905.3845,63.0
1906.1467,63.0
1906.9092,73.0
1907.672,72.0
1908.435,70.0
1909.1985,67.0
1909.9622,66.0
1910.7262,75.0
1911.4905,79.0
1912.2551,52.0
1913.02,71.0
1913.7853,213.0
1914.5508,151.0
1915.3167,112.0
1916.0828,162.0
1916.8492,118.0
1917.616,79.0
1918.383,64.0
1919.1504,64.0
1919.9181,77.0
1920.686,61.0
1921.4543,74.0
1922.2229,66.0
1922.9918,70.0
1923.761,50.0
1924.5305,58.0
1925.3003,61.0
1926.0704,60.0
1926.8408,73.0
1927.6116,78.0
1928.3826,71.0
1929.1539,64.0
1929.9255,72.0
1930.6975,59.0
1931.4698,56.0
1932.2424,57.0
1933.0154,82.0
1933.7886,65.0
1934.5621,61.0
1935.3359,55.0
1936.1101,57.0
1936.8845,67.0
1937.6593,64.0
1938.4343,57.0
1939.2097,59.0
1939.9854,68.0
1940.7614,63.0
1941.5376,78.0
1942.3142,50.0
1943.0912,56.0
1943.8684,62.0
1944.646,61.0
1945.4238,74.0
1946.202,55.0
1946.9805,48.0
1947.7593,73.0
1948.5383,82.0
1949.3177,63.0
1950.0975,51.0
1950.8776,68.0
1951.658,62.0
1952.4386,63.0
1953.2196,83.0
1954.0009,54.0
1954.7825,76.0
1955.5643,65.0
1956.3466,60.0
1957.1292,48.0
1957.912,59.0
1958.6952,61.0
1959.4786,67.0
1960.2625,64.0
1961.0465,54.0
1961.8309,66.0
1962.6157,61.0
1963.4008,48.0
1964.1862,55.0
1964.9718,53.0
1965.7578,61.0
1966.5441,66.0
1967.3307,58.0
1968.1177,59.0
1968.9049,74.0
1969.6925,74.0
1970.4803,72.0
1971.2686,53.0
1972.057,47.0
1972.8458,73.0
1973.635,82.0
1974.4244,58.0
1975.2142,46.0
1976.0043,84.0
1976.7947,65.0
1977.5854,78.0
1978.3765,56.0
1979.1678,66.0
1979.9595,59.0
1980.7515,76.0
1981.5438,67.0
1982.3364,71.0
1983.1294,84.0
1983.9226,71.0
1984.7162,71.0
1985.5101,70.0
1986.3043,53.0
1987.0989,56.0
1987.8937,47.0
1988.6888,63.0
1989.4844,62.0
1990.2802,63.0
1991.0763,57.0
1991.8727,56.0
1992.6694,86.0
1993.4666,80.0
1994.2639,71.0
1995.0616,86.0
1995.8596,74.0
1996.658,64.0
1997.4567,55.0
1998.2556,56.0
1999.0549,64.0
1999.8546,64.0
2000.6545,60.0
2001.4548,63.0
2002.2554,61.0
2003.0563,54.0
2003.8575,70.0
2004.659,79.0
2005.4609,64.0
2006.2631,55.0
2007.0656,62.0
2007.8684,54.0
2008.6715,69.0
2009.475,77.0
2010.2788,75.0
2011.0829,80.0
2011.8873,116.0
2012.6921,106.0
2013.4972,66.0
2014.3026,70.0
2015.1083,70.0
2015.9143,73.0
2016.7207,70.0
2017.5273,68.0
2018.3344,54.0
2019.1417,69.0
2019.9493,56.0
2020.7573,70.0
2021.5657,67.0
2022.3743,52.0
2023.1832,59.0
2023.9926,61.0
2024.8021,66.0
2025.612,113.0
2026.4224,99.0
2027.2329,94.0
2028.0438,87.0
2028.855,100.0
2029.6665,88.0
2030.4784,77.0
2031.2905,61.0
2032.103,46.0
2032.9159,65.0
2033.729,56.0
2034.5425,67.0
2035.3563,64.0
2036.1704,64.0
2036.9849,67.0
2037.7997,75.0
2038.6147,86.0
2039.4302,60.0
2040.246,54.0
2041.062,51.0
2041.8784,90.0
2042.6952,79.0
2043.5123,80.0
2044.3297,59.0
2045.1475,70.0
2045.9656,55.0
2046.7839,74.0
2047.6027,66.0
2048.4216,55.0
2049.241,54.0
2050.0605,67.0
2050.8806,80.0
2051.701,84.0
2052.5217,88.0
2053.3428,71.0
2054.164,62.0
2054.9858,81.0
2055.8079,68.0
2056.6301,79.0
2057.453,71.0
2058.276,64.0
2059.099,56.0
2059.9229,69.0
2060.7468,66.0
2061.571,76.0
2062.3958,70.0
2063.2207,45.0
2064.046,49.0
2064.8716,62.0
2065.6975,71.0
2066.5237,68.0
2067.3503,78.0
2068.1772,67.0
2069.0046,72.0
2069.8323,83.0
2070.6602,60.0
2071.4885,63.0
2072.3171,61.0
2073.146,50.0
2073.9753,53.0
2074.805,49.0
2075.6348,67.0
2076.465,56.0
2077.2957,61.0
2078.1265,49.0
2078.9578,74.0
2079.7893,73.0
2080.6213,58.0
2081.4536,67.0
2082.2861,60.0
2083.1191,106.0
2083.9524,86.0
2084.786,63.0
2085.6199,70.0
2086.454,52.0
2087.2886,67.0
2088.1235,57.0
2088.9587,66.0
2089.7944,64.0
2090.6304,67.0
2091.4666,57.0
2092.3032,57.0
2093.1401,80.0
2093.9773,56.0
2094.815,56.0
2095.6528,67.0
2096.4912,60.0
2097.3298,51.0
2098.1687,66.0
2099.008,61.0
2099.8477,65.0
2100.6875,69.0
2101.5278,58.0
2102.3684,52.0
2103.2095,60.0
2104.0508,84.0
2104.8923,62.0
2105.7344,76.0
2106.5767,77.0
2107.4192,57.0
2108.2622,48.0
2109.1055,55.0
2109.9492,55.0
2110.7932,71.0
2111.6375,60.0
2112.4822,62.0
2113.3271,66.0
2114.1724,63.0
2115.018,64.0
2115.864,61.0
2116.7104,65.0
2117.5571,59.0
2118.404,60.0
2119.2515,69.0
2120.099,76.0
2120.9473,63.0
2121.7957,85.0
2122.6443,59.0
2123.4934,52.0
2124.3428,59.0
2125.1926,68.0
2126.0427,64.0
2126.893,90.0
2127.744,70.0
2128.595,68.0
2129.4463,77.0
2130.298,51.0
2131.1501,49.0
2132.0027,65.0
2132.8555,52.0
2133.7085,69.0
2134.562,68.0
2135.4158,62.0
2136.27,57.0
2137.1245,52.0
2137.9792,55.0
2138.8345,67.0
2139.69,72.0
2140.546,70.0
2141.402,82.0
2142.2585,97.0
2143.1155,100.0
2143.9727,80.0
2144.8303,71.0
2145.6882,65.0
2146.5464,69.0
2147.405,71.0
2148.264,52.0
2149.1233,60.0
2149.983,68.0
2150.843,60.0
2151.7034,74.0
2152.564,61.0
2153.425,69.0
2154.2864,60.0
2155.1482,68.0
2156.0103,74.0
2156.8726,67.0
2157.7354,59.0
2158.5984,72.0
2159.462,58.0
2160.3257,64.0
2161.1897,67.0
2162.0542,61.0
2162.919,56.0
2163.7842,69.0
2164.6497,86.0
2165.5156,57.0
2166.3818,68.0
2167.2483,54.0
2168.1152,67.0
2168.9824,77.0
2169.85,75.0
2170.718,73.0
2171.5864,77.0
2172.455,62.0
2173.324,55.0
2174.1934,72.0
2175.063,52.0
2175.933,64.0
2176.8035,65.0
2177.674,71.0
2178.5452,60.0
2179.4165,83.0
2180.2883,76.0
2181.1604,82.0
2182.033,75.0
2182.9058,81.0
2183.7788,73.0
2184.6523,71.0
2185.5261,70.0
2186.4004,67.0
2187.275,55.0
2188.15,70.0
2189.0251,56.0
2189.9006,77.0
2190.7766,80.0
2191.6528,63.0
2192.5295,67.0
2193.4065,74.0
2194.284,70.0
2195.1616,86.0
2196.0398,82.0
2196.9182,87.0
2197.7969,74.0
2198.676,54.0
2199.5554,77.0
2200.4353,69.0
2201.3154,74.0
2202.196,74.0
2203.077,69.0
2203.9583,73.0
2204.8398,69.0
2205.7217,63.0
2206.604,70.0
2207.4866,66.0
2208.3696,67.0
2209.253,62.0
2210.1367,73.0
2211.0208,71.0
2211.9053,75.0
2212.79,71.0
2213.675,81.0
2214.5605,65.0
2215.4463,78.0
2216.3325,72.0
2217.219,79.0
2218.106,85.0
2218.9932,62.0
2219.8809,82.0
2220.7688,75.0
2221.6572,70.0
2222.546,66.0
2223.4348,80.0
2224.3242,62.0
2225.2139,57.0
2226.104,76.0
2226.9944,85.0
2227.8853,72.0
2228.7764,74.0
2229.668,65.0
2230.5598,71.0
2231.4521,60.0
2232.3447,74.0
2233.2375,80.0
2234.1309,94.0
2235.0244,78.0
2235.9185,81.0
2236.8127,82.0
2237.7075,77.0
2238.6025,82.0
2239.498,67.0
2240.3938,67.0
2241.29,56.0
2242.1865,85.0
2243.0835,63.0
2243.9807,85.0
2244.8784,74.0
2245.7764,85.0
2246.6746,66.0
2247.5732,69.0
2248.4722,75.0
2249.3716,68.0
2250.2712,56.0
2251.1714,80.0
2252.0718,79.0
2252.9727,65.0
2253.8738,71.0
2254.7754,73.0
2255.6772,79.0
2256.5796,81.0
2257.4822,76.0
2258.3853,66.0
2259.2886,109.0
2260.1924,105.0
2261.0964,82.0
2262.001,81.0
2262.9058,81.0
2263.811,84.0
2264.7166,81.0
2265.6226,79.0
2266.5288,86.0
2267.4353,79.0
2268.3423,80.0
2269.2495,48.0
2270.1572,68.0
2271.0652,73.0
2271.9736,81.0
2272.8823,68.0
2273.7915,86.0
2274.701,101.0
2275.6108,120.0
2276.521,104.0
2277.4316,115.0
2278.3425,102.0
2279.254,82.0
2280.1655,76.0
2281.0776,69.0
2281.99,87.0
2282.9028,79.0
2283.816,85.0
2284.7295,76.0
2285.6433,80.0
2286.5576,78.0
2287.4722,80.0
2288.3872,84.0
2289.3025,69.0
2290.2183,73.0
2291.1343,74.0
2292.0508,93.0
2292.9675,86.0
2293.8848,103.0
2294.8022,86.0
2295.7202,100.0
2296.6384,81.0
2297.5571,91.0
2298.476,104.0
2299.3955,77.0
2300.3152,96.0
2301.2354,98.0
2302.1558,109.0
2303.0767,99.0
2303.9978,98.0
2304.9194,100.0
2305.8413,92.0
2306.7637,113.0
2307.6863,81.0
2308.6094,89.0
2309.5327,74.0
2310.4565,87.0
2311.3806,83.0
2312.3052,97.0
2313.23,88.0
2314.1553,91.0
2315.081,99.0
2316.007,94.0
2316.9336,91.0
2317.8604,81.0
2318.7876,100.0
2319.715,105.0
2320.643,112.0
2321.5713,100.0
2322.5,87.0
2323.429,86.0
2324.3584,75.0
2325.288,104.0
2326.2183,97.0
2327.1487,83.0
2328.0796,71.0
2329.0107,97.0
2329.9424,108.0
2330.8743,111.0
2331.8066,96.0
2332.7393,84.0
2333.6724,77.0
2334.6057,81.0
2335.5396,106.0
2336.4739,78.0
2337.4084,82.0
2338.3435,74.0
2339.2788,77.0
2340.2146,76.0
2341.1506,89.0
2342.0872,88.0
2343.024,86.0
2343.9612,74.0
2344.8987,98.0
2345.8367,102.0
2346.775,119.0
2347.7136,105.0
2348.6526,84.0
2349.592,91.0
2350.532,79.0
2351.4722,83.0
2352.4128,78.0
2353.3538,85.0
2354.2952,87.0
2355.2368,89.0
2356.179,66.0
2357.1213,69.0
2358.0642,70.0
2359.0073,86.0
2359.951,81.0
2360.895,95.0
2361.8394,66.0
2362.7842,98.0
2363.7292,85.0
2364.6748,82.0
2365.6206,69.0
2366.567,90.0
2367.5134,65.0
2368.4604,61.0
2369.4077,82.0
2370.3555,82.0
2371.3037,65.0
2372.2522,91.0
2373.2012,87.0
2374.1504,81.0
2375.1,76.0
2376.05,86.0
2377.0005,82.0
2377.9512,75.0
2378.9023,73.0
2379.854,75.0
2380.806,98.0
2381.7583,86.0
2382.711,74.0
2383.664,76.0
2384.6174,66.0
2385.5713,67.0
2386.5256,92.0
2387.4802,99.0
2388.4353,104.0
2389.3906,90.0
2390.3464,101.0
2391.3025,82.0
2392.259,74.0
2393.2158,71.0
2394.173,74.0
2395.1309,83.0
2396.0889,61.0
2397.0474,76.0
2398.006,90.0
2398.9653,82.0
2399.9248,62.0
2400.8848,71.0
2401.8452,61.0
2402.806,57.0
2403.767,71.0
2404.7285,78.0
2405.6904,73.0
2406.6526,66.0
2407.6152,83.0
2408.5784,65.0
2409.5417,70.0
2410.5056,66.0
2411.4697,80.0
2412.4343,79.0
2413.3994,66.0
2414.3647,76.0
2415.3306,79.0
2416.2966,60.0
2417.2632,76.0
2418.23,61.0
2419.1973,63.0
2420.165,62.0
2421.133,78.0
2422.1016,76.0
2423.0703,83.0
2424.0396,68.0
2425.0093,85.0
2425.9792,81.0
2426.9497,62.0
2427.9204,65.0
2428.8916,71.0
2429.863,84.0
2430.835,75.0
2431.8074,96.0
2432.78,95.0
2433.7532,78.0
2434.7266,58.0
2435.7004,75.0
2436.6748,56.0
2437.6494,77.0
2438.6245,62.0
2439.5999,84.0
2440.5757,57.0
2441.552,65.0
2442.5286,61.0
2443.5056,64.0
2444.483,70.0
2445.4607,66.0
2446.439,79.0
2447.4175,90.0
2448.3965,88.0
2449.3757,80.0
2450.3555,70.0
2451.3357,60.0
2452.3162,76.0
2453.297,75.0
2454.2783,90.0
2455.26,66.0
2456.2422,67.0
2457.2246,74.0
2458.2075,69.0
2459.191,69.0
2460.1746,62.0
2461.1587,50.0
2462.143,75.0
2463.128,66.0
2464.1133,80.0
2465.0989,82.0
2466.085,89.0
2467.0713,79.0
2468.058,75.0
2469.0454,75.0
2470.033,69.0
2471.021,58.0
2472.0095,67.0
2472.9983,61.0
2473.9875,57.0
2474.977,68.0
2475.967,70.0
2476.9575,64.0
2477.9482,62.0
2478.9395,74.0
2479.931,50.0
2480.9229,83.0
2481.9153,77.0
2482.908,69.0
2483.9011,79.0
2484.8948,64.0
2485.8887,91.0
2486.883,82.0
2487.878,64.0
2488.873,73.0
2489.8687,70.0
2490.8645,62.0
2491.8608,77.0
2492.8577,63.0
2493.8547,83.0
2494.8523,62.0
2495.8503,76.0
2496.8486,71.0
2497.8474,77.0
2498.8464,62.0
2499.846,87.0
2500.846,57.0
2501.8462,64.0
2502.847,59.0
2503.8481,68.0
2504.8496,80.0
2505.8516,77.0
2506.854,61.0
2507.8567,78.0
2508.8599,64.0
2509.8635,76.0
2510.8674,60.0
2511.8718,67.0
2512.8765,76.0
2513.8816,71.0
2514.8872,67.0
2515.893,74.0
2516.8994,72.0
2517.9062,59.0
2518.9133,78.0
2519.921,64.0
2520.929,63.0
2521.9373,62.0
2522.946,65.0
2523.9553,66.0
2524.9648,62.0
2525.9749,72.0
2526.9854,62.0
2527.996,52.0
2529.0073,54.0
2530.019,64.0
2531.031,51.0
2532.0435,71.0
2533.0562,71.0
2534.0693,49.0
2535.083,74.0
2536.097,70.0
2537.1113,77.0
2538.1262,57.0
2539.1414,56.0
2540.157,75.0
2541.173,72.0
2542.1895,64.0
2543.2063,80.0
2544.2236,64.0
2545.2412,73.0
2546.2593,58.0
2547.2778,54.0
2548.2966,86.0
2549.316,59.0
2550.3357,79.0
2551.3557,73.0
2552.3762,78.0
2553.3972,62.0
2554.4185,69.0
2555.4402,43.0
2556.4624,65.0
2557.485,71.0
2558.508,60.0
2559.5315,59.0
2560.5554,73.0
2561.5796,82.0
2562.6042,75.0
2563.6294,67.0
2564.6548,70.0
2565.6807,76.0
2566.707,67.0
2567.7336,77.0
2568.7607,79.0
2569.7883,64.0
2570.8162,60.0
2571.8445,73.0
2572.8733,56.0
2573.9023,70.0
2574.932,82.0
2575.962,63.0
2576.9922,71.0
2578.023,71.0
2579.0542,61.0
2580.086,57.0
2581.118,81.0
2582.1504,83.0
2583.1833,60.0
2584.2166,69.0
2585.2502,60.0
2586.2844,54.0
2587.3188,72.0
2588.3538,62.0
2589.3892,61.0
2590.4248,69.0
2591.461,83.0
2592.4976,68.0
2593.5347,70.0
2594.572,79.0
2595.6099,75.0
2596.6482,68.0
2597.6868,81.0
2598.7258,62.0
2599.7654,71.0
2600.8052,77.0
2601.8455,71.0
2602.8862,54.0
2603.9275,54.0
2604.969,66.0
2606.011,75.0
2607.0535,66.0
2608.0962,75.0
2609.1394,78.0
2610.183,70.0
2611.2273,79.0
2612.2717,70.0
2613.3167,69.0
2614.362,78.0
2615.4077,66.0
2616.4539,71.0
2617.5005,56.0
2618.5476,78.0
2619.595,64.0
2620.6428,94.0
2621.6912,62.0
2622.7397,55.0
2623.7888,73.0
2624.8384,79.0
2625.8884,74.0
2626.9387,67.0
2627.9895,64.0
2629.0408,67.0
2630.0923,69.0
2631.1443,72.0
2632.1968,69.0
2633.2498,67.0
2634.303,67.0
2635.3567,74.0
2636.411,76.0
2637.4653,75.0
2638.5203,78.0
2639.5757,66.0
2640.6316,60.0
2641.6877,65.0
2642.7444,71.0
2643.8015,66.0
2644.8591,64.0
2645.917,77.0
2646.9753,51.0
2648.0342,67.0
2649.0935,80.0
2650.153,94.0
2651.2131,77.0
2652.2737,73.0
2653.3345,73.0
2654.3958,65.0
2655.4575,61.0
2656.5198,43.0
2657.5823,75.0
2658.6453,59.0
2659.7087,61.0
2660.7727,74.0
2661.837,67.0
2662.9016,90.0
2663.9668,75.0
2665.0325,66.0
2666.0984,70.0
2667.1648,92.0
2668.2317,74.0
2669.299,69.0
2670.3667,87.0
2671.4348,66.0
2672.5034,87.0
2673.5725,60.0
2674.6418,73.0
2675.7117,69.0
2676.782,82.0
2677.8528,76.0
2678.9238,74.0
2679.9954,70.0
2681.0674,82.0
2682.14,71.0
2683.2126,77.0
2684.286,79.0
2685.3596,79.0
2686.4338,67.0
2687.5083,62.0
2688.5833,70.0
2689.6587,94.0
2690.7346,73.0
2691.8108,74.0
2692.8875,77.0
2693.9646,66.0
2695.0422,64.0
2696.1204,70.0
2697.1987,74.0
2698.2776,62.0
2699.357,86.0
2700.4368,80.0
2701.5168,79.0
2702.5974,70.0
2703.6785,71.0
2704.76,75.0
2705.8418,77.0
2706.924,74.0
2708.0068,88.0
2709.09,63.0
2710.1738,59.0
2711.2578,65.0
2712.3423,88.0
2713.4272,82.0
2714.5127,77.0
2715.5984,76.0
2716.6846,82.0
2717.7712,67.0
2718.8584,81.0
2719.946,58.0
2721.034,73.0
2722.1223,93.0
2723.2112,112.0
2724.3005,83.0
2725.3901,90.0
2726.4802,81.0
2727.5708,77.0
2728.6619,89.0
2729.7534,86.0
2730.8452,70.0
2731.9375,82.0
2733.0303,69.0
2734.1235,69.0
2735.2173,93.0
2736.3113,99.0
2737.4058,101.0
2738.5007,74.0
2739.5962,77.0
2740.6921,64.0
2741.7883,65.0
2742.885,80.0
2743.9822,76.0
2745.0798,72.0
2746.178,79.0
2747.2764,62.0
2748.3752,55.0
2749.4746,84.0
2750.5745,94.0
2751.6748,76.0
2752.7754,67.0
2753.8765,70.0
2754.978,75.0
2756.08,70.0
2757.1826,72.0
2758.2854,64.0
2759.3887,79.0
2760.4924,62.0
2761.5967,67.0
2762.7014,76.0
2763.8064,87.0
2764.9119,74.0
2766.0178,59.0
2767.1243,64.0
2768.2312,66.0
2769.3384,62.0
2770.446,70.0
2771.5542,83.0
2772.6628,66.0
2773.772,61.0
2774.8816,61.0
2775.9915,91.0
2777.1018,56.0
2778.2126,72.0
2779.324,84.0
2780.4358,78.0
2781.5479,85.0
2782.6604,76.0
2783.7734,77.0
2784.887,73.0
2786.001,64.0
2787.1155,61.0
2788.2302,74.0
2789.3455,60.0
2790.4612,77.0
2791.5774,69.0
2792.694,86.0
2793.8113,116.0
2794.9287,111.0
2796.0466,93.0
2797.165,134.0
2798.284,93.0
2799.4033,115.0
2800.5232,95.0
2801.6433,100.0
2802.764,96.0
2803.885,92.0
2805.0066,113.0
2806.1287,113.0
2807.2512,118.0
2808.374,99.0
2809.4973,110.0
2810.621,121.0
2811.7454,89.0
2812.87,119.0
2813.9954,111.0
2815.1208,89.0
2816.2468,81.0
2817.3733,110.0
2818.5002,110.0
2819.6277,114.0
2820.7556,103.0
2821.884,96.0
2823.0127,98.0
2824.1418,86.0
2825.2715,88.0
2826.4016,99.0
2827.5322,106.0
2828.6633,109.0
2829.7947,116.0
2830.9265,113.0
2832.0588,107.0
2833.1917,103.0
2834.325,100.0
2835.4587,113.0
2836.593,107.0
2837.7275,105.0
2838.8625,104.0
2839.998,105.0
2841.134,98.0
2842.2705,84.0
2843.4075,94.0
2844.545,109.0
2845.6829,99.0
2846.821,109.0
2847.9597,111.0
2849.0989,117.0
2850.2385,122.0
2851.3787,116.0
2852.5193,100.0
2853.6604,109.0
2854.8018,107.0
2855.9436,101.0
2857.086,112.0
2858.2288,114.0
2859.372,105.0
2860.5159,134.0
2861.6602,122.0
2862.805,115.0
2863.95,96.0
2865.0955,137.0
2866.2415,120.0
2867.388,116.0
2868.535,93.0
2869.6824,85.0
2870.8303,95.0
2871.9788,111.0
2873.1274,107.0
2874.2766,104.0
2875.4263,109.0
2876.5764,112.0
2877.727,102.0
2878.8782,104.0
2880.0298,91.0
2881.182,135.0
2882.3345,136.0
2883.4873,123.0
2884.6406,101.0
2885.7944,94.0
2886.9487,119.0
2888.1035,80.0
2889.2588,114.0
2890.4146,117.0
2891.5708,132.0
2892.7275,115.0
2893.8845,96.0
2895.042,100.0
2896.2,107.0
2897.3584,100.0
2898.5173,100.0
2899.6768,114.0
2900.8367,95.0
2901.997,92.0
2903.158,86.0
2904.3193,129.0
2905.481,132.0
2906.643,113.0
2907.8057,149.0
2908.9688,159.0
2910.1323,140.0
2911.2964,121.0
2912.461,112.0
2913.626,101.0
2914.7915,113.0
2915.9575,92.0
2917.124,94.0
2918.2908,108.0
2919.458,106.0
2920.6257,109.0
2921.794,189.0
2922.9626,212.0
2924.1318,214.0
2925.3015,173.0
2926.4717,128.0
2927.6423,121.0
2928.8135,97.0
2929.985,106.0
2931.157,98.0
2932.3293,115.0
2933.5022,101.0
2934.6755,117.0
2935.8494,99.0
2937.0237,97.0
2938.1985,113.0
2939.3738,118.0
2940.5496,116.0
2941.7258,111.0
2942.9026,114.0
2944.0798,114.0
2945.2576,134.0
2946.4358,130.0
2947.6143,116.0
2948.7932,121.0
2949.9727,111.0
2951.1526,105.0
2952.333,103.0
2953.514,123.0
2954.6953,99.0
2955.8772,77.0
2957.0596,96.0
2958.2424,114.0
2959.4258,113.0
2960.6096,125.0
2961.794,103.0
2962.9788,98.0
2964.164,97.0
2965.3496,124.0
2966.5356,118.0
2967.7222,113.0
2968.9092,89.0
2970.0967,87.0
2971.2847,89.0
2972.4731,112.0
2973.662,105.0
2974.8516,116.0
2976.0415,104.0
2977.232,95.0
2978.4229,110.0
2979.6143,106.0
2980.8062,112.0
2981.9985,105.0
2983.1914,96.0
2984.3848,123.0
2985.5786,112.0
2986.773,104.0
2987.9678,111.0
2989.1628,114.0
2990.3584,100.0
2991.5544,120.0
2992.751,123.0
2993.948,113.0
2995.1455,118.0
2996.3435,113.0
2997.542,105.0
2998.741,90.0
2999.9404,98.0
3001.1404,101.0
3002.3408,104.0
3003.5417,100.0
3004.7432,112.0
3005.945,99.0
3007.1475,97.0
3008.3503,108.0
3009.5537,107.0
3010.7576,112.0
3011.962,96.0
3013.1667,93.0
3014.372,100.0
3015.578,103.0
3016.7842,117.0
3017.991,105.0
3019.1982,115.0
3020.406,113.0
3021.6143,123.0
3022.823,102.0
3024.0322,115.0
3025.242,109.0
3026.4521,113.0
3027.6628,101.0
3028.874,97.0
3030.0857,84.0
3031.2976,103.0
3032.51,92.0
3033.723,110.0
3034.9363,76.0
3036.1501,100.0
3037.3645,124.0
3038.5793,104.0
3039.7947,99.0
3041.0105,118.0
3042.2268,103.0
3043.4436,104.0
3044.661,110.0
3045.8787,100.0
3047.097,83.0
3048.3157,114.0
3049.535,89.0
3050.7546,95.0
3051.9749,92.0
3053.1956,116.0
3054.4167,120.0
3055.6384,140.0
3056.8606,101.0
3058.0833,108.0
3059.3064,109.0
3060.53,104.0
3061.7542,117.0
3062.9788,84.0
3064.2039,111.0
3065.4294,107.0
3066.6555,118.0
3067.882,108.0
3069.1091,88.0
3070.3367,118.0
3071.5647,120.0
3072.7932,100.0
3074.0222,85.0
3075.2517,113.0
3076.4817,99.0
3077.7124,110.0
3078.9436,113.0
3080.1753,92.0
3081.4075,123.0
3082.6401,106.0
3083.8733,90.0
3085.107,115.0
3086.341,91.0
3087.5757,119.0
3088.8108,102.0
3090.0464,96.0
3091.2825,87.0
3092.519,102.0
3093.756,108.0
3094.9937,115.0
3096.2317,93.0
3097.4702,117.0
3098.7092,105.0
3099.9487,103.0
3101.1887,105.0
3102.4292,92.0
3103.6702,110.0
3104.9116,100.0
3106.1536,111.0
3107.396,108.0
3108.639,98.0
3109.8823,111.0
3111.1262,95.0
3112.3706,117.0
3113.6155,125.0
3114.8608,101.0
3116.1067,108.0
3117.353,113.0
3118.5999,120.0
3119.8474,115.0
3121.0955,88.0
3122.344,88.0
3123.593,113.0
3124.8425,92.0
3126.0925,94.0
3127.343,96.0
3128.594,107.0
3129.8455,97.0
3131.0974,90.0
3132.3499,103.0
3133.6028,119.0
3134.8562,96.0
3136.11,108.0
3137.3645,114.0
3138.6194,129.0
3139.8748,115.0
3141.1306,92.0
3142.387,97.0
3143.6438,120.0
3144.9014,122.0
3146.1594,121.0
3147.418,125.0
3148.677,121.0
3149.9365,98.0
3151.1965,113.0
3152.457,98.0
3153.718,123.0
3154.9795,119.0
3156.2415,117.0
3157.504,120.0
3158.7668,101.0
3160.0303,94.0
3161.2942,92.0
3162.5586,111.0
3163.8237,88.0
3165.0894,92.0
3166.3555,95.0
3167.622,112.0
3168.8892,112.0
3170.1567,118.0
3171.4248,120.0
3172.6934,110.0
3173.9624,89.0
3175.232,90.0
3176.502,96.0
3177.7725,99.0
3179.0435,114.0
3180.3152,106.0
3181.5874,114.0
3182.86,97.0
3184.1333,95.0
3185.407,120.0
3186.6812,127.0
3187.9558,100.0
3189.231,99.0
3190.5066,114.0
3191.7827,88.0
3193.0593,115.0
3194.3367,106.0
3195.6145,132.0
3196.8928,124.0
3198.1716,95.0
3199.451,118.0
3200.7307,110.0
3202.011,120.0
3203.2917,110.0
3204.573,112.0
3205.8547,113.0
3207.137,91.0
3208.42,106.0
3209.7034,119.0
3210.9873,100.0
3212.2717,109.0
3213.5566,108.0
3214.842,113.0
3216.128,105.0
3217.4143,109.0
3218.7012,110.0
3219.9888,94.0
3221.2769,99.0
3222.5654,127.0
3223.8545,113.0
3225.144,108.0
3226.434,139.0
3227.7246,122.0
3229.0156,124.0
3230.3071,100.0
3231.5994,122.0
3232.892,100.0
3234.1853,114.0
3235.479,125.0
3236.7732,135.0
3238.0679,109.0
3239.363,94.0
3240.6587,127.0
3241.9548,97.0
3243.2517,114.0
3244.549,114.0
3245.847,102.0
3247.1453,120.0
3248.444,100.0
3249.7434,120.0
3251.0432,111.0
3252.3438,116.0
3253.6448,142.0
3254.9463,101.0
3256.2483,100.0
3257.5508,113.0
3258.8538,111.0
3260.1572,87.0
3261.4612,107.0
3262.7659,88.0
3264.071,92.0
3265.3767,95.0
3266.6829,112.0
3267.9895,123.0
3269.2966,95.0
3270.6042,114.0
3271.9126,108.0
3273.2214,99.0
3274.5308,110.0
3275.8406,106.0
3277.151,92.0
3278.4617,104.0
3279.773,134.0
3281.085,98.0
3282.3975,102.0
3283.7104,118.0
3285.024,97.0
3286.338,113.0
3287.6523,112.0
3288.9673,98.0
3290.283,118.0
3291.599,138.0
3292.9158,113.0
3294.233,88.0
3295.5505,111.0
3296.8687,112.0
3298.1875,105.0
3299.5068,101.0
3300.8267,118.0
3302.147,91.0
3303.4678,95.0
3304.789,98.0
3306.111,121.0
3307.4336,134.0
3308.7566,116.0
3310.08,104.0
3311.404,125.0
3312.7285,111.0
3314.0537,123.0
3315.3794,112.0
3316.7056,110.0
3318.0322,126.0
3319.3594,114.0
3320.687,107.0
3322.0154,116.0
3323.3442,116.0
3324.6736,117.0
3326.0034,101.0
3327.3337,105.0
3328.6648,124.0
3329.9963,108.0
3331.3284,101.0
3332.661,128.0
3333.994,107.0
3335.3274,119.0
3336.6616,116.0
3337.9963,100.0
3339.3315,106.0
3340.6672,109.0
3342.0034,123.0
3343.3403,120.0
3344.6777,100.0
3346.0156,121.0
3347.354,92.0
3348.6929,115.0
3350.0322,122.0
3351.3723,115.0
3352.713,147.0
3354.054,105.0
3355.3955,100.0
3356.7375,111.0
3358.0803,114.0
3359.4236,113.0
3360.7673,127.0
3362.1116,92.0
3363.4563,109.0
3364.8018,111.0
3366.1477,106.0
3367.4941,117.0
3368.841,144.0
3370.1887,113.0
3371.5369,111.0
3372.8855,132.0
3374.2346,121.0
3375.5842,105.0
3376.9346,121.0
3378.2854,104.0
3379.6367,119.0
3380.9885,107.0
3382.3408,123.0
3383.6938,114.0
3385.0474,109.0
3386.4014,125.0
3387.7559,103.0
3389.1108,110.0
3390.4666,117.0
3391.8228,111.0
3393.1794,113.0
3394.5366,123.0
3395.8945,97.0
3397.253,131.0
3398.6118,119.0
3399.9712,107.0
3401.3313,123.0
3402.692,136.0
3404.053,139.0
3405.4146,124.0
3406.7766,129.0
3408.1394,118.0
3409.5027,153.0
3410.8665,126.0
3412.2307,140.0
3413.5957,141.0
3414.9612,134.0
3416.3271,100.0
3417.6936,138.0
3419.0608,115.0
3420.4285,117.0
3421.7966,117.0
3423.1653,102.0
3424.5347,114.0
3425.9045,111.0
3427.275,115.0
3428.6458,138.0
3430.017,115.0
3431.3892,109.0
3432.7617,112.0
3434.1348,112.0
3435.5083,107.0
3436.8826,121.0
3438.2573,100.0
3439.6326,124.0
3441.0083,113.0
3442.3848,96.0
3443.7617,106.0
3445.1392,123.0
3446.5173,127.0
3447.896,109.0
3449.2751,87.0
3450.6548,110.0
3452.0352,120.0
3453.416,115.0
3454.7974,126.0
3456.1792,119.0
3457.5618,145.0
3458.9448,118.0
3460.3284,112.0
3461.7124,117.0
3463.0972,121.0
3464.4824,112.0
3465.8682,118.0
3467.2544,94.0
3468.6414,128.0
3470.0288,113.0
3471.4167,103.0
3472.8054,138.0
3474.1946,105.0
3475.5842,112.0
3476.9744,115.0
3478.3652,116.0
3479.7566,115.0
3481.1484,124.0
3482.541,135.0
3483.934,135.0
3485.3276,124.0
3486.7217,111.0
3488.1165,121.0
3489.5117,120.0
3490.9075,108.0
3492.304,121.0
3493.701,132.0
3495.0984,115.0
3496.4963,150.0
3497.895,151.0
3499.2942,126.0
3500.6938,132.0
3502.0942,121.0
3503.495,130.0
3504.8965,116.0
3506.2983,129.0
3507.701,135.0
3509.104,108.0
3510.5076,121.0
3511.9119,123.0
3513.3167,109.0
3514.722,129.0
3516.128,128.0
3517.5344,116.0
3518.9414,120.0
3520.3489,142.0
3521.757,148.0
3523.1658,141.0
3524.575,142.0
3525.9849,131.0
3527.3953,126.0
3528.8062,149.0
3530.2178,141.0
3531.63,161.0
3533.0425,148.0
3534.4558,122.0
3535.8696,114.0
3537.284,124.0
3538.6987,125.0
3540.1143,139.0
3541.5303,107.0
3542.9468,123.0
3544.364,107.0
3545.7817,139.0
3547.2,121.0
3548.619,118.0
3550.0383,118.0
3551.4583,129.0
3552.879,105.0
3554.3,137.0
3555.7217,123.0
3557.144,134.0
3558.567,131.0
3559.9902,109.0
3561.4143,110.0
3562.8389,141.0
3564.264,140.0
3565.6897,151.0
3567.116,147.0
3568.5427,151.0
3569.9702,126.0
3571.3982,136.0
3572.8267,132.0
3574.2559,114.0
3575.6855,119.0
3577.1157,124.0
3578.5466,131.0
3579.978,141.0
3581.41,148.0
3582.8425,132.0
3584.2756,160.0
3585.7092,166.0
3587.1436,147.0
3588.5784,160.0
3590.014,121.0
3591.45,125.0
3592.8865,141.0
3594.3237,152.0
3595.7615,129.0
3597.1997,152.0
3598.6387,184.0
3600.0781,173.0
3601.518,144.0
3602.9587,167.0
3604.4,135.0
3605.8416,130.0
3607.284,171.0
3608.7268,193.0
3610.1704,169.0
3611.6145,135.0
3613.059,103.0
3614.5044,156.0
3615.9502,159.0
3617.3965,219.0
3618.8435,197.0
3620.291,133.0
3621.739,158.0
3623.1877,131.0
3624.637,138.0
3626.087,138.0
3627.5374,162.0
3628.9883,147.0
3630.44,141.0
3631.892,137.0
3633.3447,139.0
3634.798,136.0
3636.252,124.0
3637.7065,154.0
3639.1616,147.0
3640.6172,149.0
3642.0735,147.0
3643.5303,152.0
3644.9878,152.0
3646.4458,152.0
3647.9043,139.0
3649.3635,115.0
3650.8232,130.0
3652.2837,137.0
3653.7446,143.0
3655.206,154.0
3656.6682,135.0
3658.1309,140.0
3659.594,152.0
3661.0579,170.0
3662.5222,137.0
3663.9873,157.0
3665.453,162.0
3666.919,146.0
3668.3857,135.0
3669.853,150.0
3671.321,141.0
3672.7896,138.0
3674.2585,141.0
3675.7283,165.0
3677.1985,154.0
3678.6694,193.0
3680.1409,150.0
3681.613,168.0
3683.0857,125.0
3684.5588,136.0
3686.0327,144.0
3687.507,143.0
3688.9822,146.0
3690.4578,150.0
3691.9338,147.0
3693.4106,144.0
3694.888,146.0
3696.366,170.0
3697.8445,158.0
3699.3237,142.0
3700.8035,133.0
3702.2837,146.0
3703.7646,170.0
3705.246,131.0
3706.7283,159.0
3708.211,155.0
3709.6943,202.0
3711.1782,209.0
3712.6626,201.0
3714.1477,174.0
3715.6333,151.0
3717.1196,156.0
3718.6064,163.0
3720.094,160.0
3721.582,173.0
3723.0706,174.0
3724.5598,168.0
3726.0496,146.0
3727.54,164.0
3729.031,154.0
3730.5227,158.0
3732.015,168.0
3733.5078,231.0
3735.0012,280.0
3736.495,228.0
3737.9897,197.0
3739.4849,180.0
3740.9807,170.0
3742.477,164.0
3743.974,188.0
3745.4717,183.0
3746.97,166.0
3748.4688,168.0
3749.968,304.0
3751.468,640.0
3752.9685,739.0
3754.4697,427.0
3755.9714,322.0
3757.4739,213.0
3758.9768,191.0
3760.4805,154.0
3761.9846,137.0
3763.4895,161.0
3764.9949,182.0
3766.501,185.0
3768.0076,206.0
3769.515,192.0
3771.0227,162.0
3772.531,182.0
3774.04,201.0
3775.5496,176.0
3777.0598,203.0
3778.5706,179.0
3780.082,181.0
3781.594,166.0
3783.1067,213.0
3784.6199,219.0
3786.1338,221.0
3787.6482,165.0
3789.1633,159.0
3790.679,155.0
3792.1953,161.0
3793.7122,169.0
3795.2297,150.0
3796.7478,181.0
3798.2666,163.0
3799.786,175.0
3801.306,169.0
3802.8264,153.0
3804.3477,154.0
3805.8694,156.0
3807.3918,151.0
3808.9148,192.0
3810.4385,159.0
3811.9626,156.0
3813.4875,163.0
3815.013,236.0
3816.539,221.0
3818.0657,189.0
3819.593,178.0
3821.1208,150.0
3822.6494,163.0
3824.1785,167.0
3825.7083,138.0
3827.2385,137.0
3828.7695,168.0
3830.301,190.0
3831.8333,186.0
3833.366,148.0
3834.8994,177.0
3836.4333,189.0
3837.968,179.0
3839.5032,175.0
3841.039,165.0
3842.5754,175.0
3844.1125,157.0
3845.6501,146.0
3847.1885,207.0
3848.7273,217.0
3850.2668,234.0
3851.807,177.0
3853.3477,176.0
3854.889,193.0
3856.431,145.0
3857.9734,146.0
3859.5166,177.0
3861.0603,160.0
3862.6047,179.0
3864.1497,176.0
3865.6953,182.0
3867.2417,178.0
3868.7886,181.0
3870.3362,161.0
3871.8843,180.0
3873.433,176.0
3874.9824,154.0
3876.5325,164.0
3878.083,168.0
3879.6343,161.0
3881.186,183.0
3882.7385,176.0
3884.2915,180.0
3885.8452,197.0
3887.3997,177.0
3888.9546,168.0
3890.5103,163.0
3892.0664,140.0
3893.6233,186.0
3895.1807,154.0
3896.7388,176.0
3898.2974,159.0
3899.8567,201.0
3901.4167,195.0
3902.9773,190.0
3904.5386,196.0
3906.1003,196.0
3907.6628,153.0
3909.2258,170.0
3910.7896,149.0
3912.3538,141.0
3913.9187,165.0
3915.4844,177.0
3917.0505,203.0
3918.6174,199.0
3920.1848,159.0
3921.753,159.0
3923.3215,140.0
3924.8909,162.0
3926.461,159.0
3928.0315,151.0
3929.6028,148.0
3931.1746,152.0
3932.747,176.0
3934.32,153.0
3935.8938,153.0
3937.4683,135.0
3939.0432,164.0
3940.619,155.0
3942.195,170.0
3943.772,173.0
3945.3494,170.0
3946.9275,157.0
3948.5063,150.0
3950.0857,184.0
3951.6658,189.0
3953.2463,150.0
3954.8276,163.0
3956.4097,154.0
3957.9922,160.0
3959.5754,174.0
3961.1592,173.0
3962.7437,147.0
3964.3289,148.0
3965.9146,180.0
3967.501,147.0
3969.088,160.0
3970.6755,127.0
3972.264,147.0
3973.8528,129.0
3975.4424,145.0
3977.0325,154.0
3978.6233,181.0
3980.2148,160.0
3981.807,158.0
3983.3997,160.0
3984.993,164.0
3986.587,164.0
3988.1816,153.0
3989.7769,162.0
3991.3728,164.0
3992.9692,166.0
3994.5664,192.0
3996.1643,163.0
3997.7627,147.0
3999.3618,165.0
4000.9617,160.0
4002.562,183.0
4004.163,172.0
4005.7646,169.0
4007.367,180.0
4008.97,166.0
4010.5735,191.0
4012.1777,158.0
4013.7827,143.0
4015.3882,160.0
4016.9944,174.0
4018.601,203.0
4020.2085,175.0
4021.8167,186.0
4023.4253,178.0
4025.0347,191.0
4026.6448,184.0
4028.2554,214.0
4029.8667,249.0
4031.4788,195.0
4033.0913,184.0
4034.7046,205.0
4036.3184,229.0
4037.9329,233.0
4039.548,227.0
4041.1638,222.0
4042.7803,278.0
4044.3975,236.0
4046.0151,217.0
4047.6335,189.0
4049.2527,198.0
4050.8723,300.0
4052.4927,289.0
4054.1138,255.0
4055.7354,244.0
4057.3577,206.0
4058.9807,339.0
4060.6042,488.0
4062.2285,385.0
4063.8535,272.0
4065.479,252.0
4067.1052,258.0
4068.7322,288.0
4070.3596,288.0
4071.9878,335.0
4073.6167,322.0
4075.246,253.0
4076.8762,288.0
4078.507,270.0
4080.1384,298.0
4081.7705,404.0
4083.4033,313.0
4085.0366,397.0
4086.6707,426.0
4088.3054,373.0
4089.9407,269.0
4091.5767,232.0
4093.2134,553.0
4094.8506,825.0
4096.489,557.0
4098.1274,309.0
4099.7666,219.0
4101.4067,603.0
4103.0474,1638.0
4104.6885,1343.0
4106.3306,531.0
4107.973,311.0
4109.616,253.0
4111.2603,222.0
4112.905,223.0
4114.55,264.0
4116.196,220.0
4117.8423,193.0
4119.4893,185.0
4121.137,194.0
4122.7856,183.0
4124.4346,167.0
4126.0845,176.0
4127.735,149.0
4129.3857,165.0
4131.0376,168.0
4132.69,208.0
4134.343,177.0
4135.9966,172.0
4137.651,187.0
4139.306,154.0
4140.962,181.0
4142.618,177.0
4144.2754,164.0
4145.933,202.0
4147.5913,172.0
4149.2505,185.0
4150.91,192.0
4152.5703,171.0
4154.2314,178.0
4155.893,186.0
4157.5557,183.0
4159.2188,189.0
4160.8823,181.0
4162.547,158.0
4164.212,175.0
4165.8774,180.0
4167.544,182.0
4169.211,197.0
4170.8784,188.0
4172.547,172.0
4174.216,194.0
4175.8857,237.0
4177.556,214.0
4179.227,191.0
4180.899,195.0
4182.5713,181.0
4184.244,212.0
4185.918,184.0
4187.5923,174.0
4189.267,209.0
4190.943,205.0
4192.619,182.0
4194.2964,174.0
4195.974,233.0
4197.6523,181.0
4199.3315,161.0
4201.011,174.0
4202.6914,175.0
4204.3726,206.0
4206.054,199.0
4207.737,213.0
4209.42,199.0
4211.1035,184.0
4212.788,159.0
4214.473,188.0
4216.1587,179.0
4217.845,199.0
4219.532,172.0
4221.22,176.0
4222.9087,193.0
4224.5977,160.0
4226.2876,164.0
4227.978,171.0
4229.6694,195.0
4231.3613,183.0
4233.0537,199.0
4234.747,190.0
4236.441,176.0
4238.1353,189.0
4239.8306,171.0
4241.5264,172.0
4243.223,185.0
4244.9204,206.0
4246.618,172.0
4248.317,190.0
4250.016,198.0
4251.7163,199.0
4253.417,174.0
4255.118,187.0
4256.8203,211.0
4258.523,184.0
4260.2266,201.0
4261.9307,206.0
4263.6353,194.0
4265.341,218.0
4267.047,224.0
4268.754,274.0
4270.4614,225.0
4272.1694,216.0
4273.8784,198.0
4275.588,226.0
4277.2983,303.0
4279.0093,263.0
4280.7207,213.0
4282.433,173.0
4284.146,266.0
4285.86,466.0
4287.574,381.0
4289.289,241.0
4291.005,191.0
4292.721,212.0
4294.4385,158.0
4296.1562,189.0
4297.8745,193.0
4299.5938,213.0
4301.3135,211.0
4303.034,193.0
4304.7554,197.0
4306.477,197.0
4308.1997,202.0
4309.923,185.0
4311.647,183.0
4313.3716,178.0
4315.097,158.0
4316.823,181.0
4318.55,205.0
4320.2773,169.0
4322.0054,169.0
4323.7344,192.0
4325.464,140.0
4327.194,173.0
4328.925,203.0
4330.6562,166.0
4332.3887,194.0
4334.1216,186.0
4335.8555,176.0
4337.59,168.0
4339.3247,175.0
4341.0605,165.0
4342.797,150.0
4344.534,173.0
4346.272,195.0
4348.0103,163.0
4349.7495,165.0
4351.4893,130.0
4353.23,164.0
4354.971,169.0
4356.7134,172.0
4358.456,199.0
4360.199,166.0
4361.9434,184.0
4363.688,169.0
4365.4336,161.0
4367.1797,207.0
4368.927,195.0
4370.6743,189.0
4372.4224,183.0
4374.1714,177.0
4375.921,185.0
4377.6714,164.0
4379.4224,188.0
4381.1743,175.0
4382.927,194.0
4384.6797,181.0
4386.4336,204.0
4388.188,158.0
4389.9434,200.0
4391.699,218.0
4393.456,177.0
4395.2134,186.0
4396.9717,187.0
4398.7305,176.0
4400.4897,226.0
4402.25,184.0
4404.0107,222.0
4405.7725,196.0
4407.5347,231.0
4409.298,238.0
4411.0615,221.0
4412.826,187.0
4414.5913,180.0
4416.357,238.0
4418.1235,278.0
4419.8906,241.0
4421.6587,266.0
4423.4272,214.0
4425.197,221.0
4426.967,229.0
4428.738,204.0
4430.5093,244.0
4432.2812,185.0
4434.054,214.0
4435.8276,221.0
4437.602,210.0
4439.377,259.0
4441.153,242.0
4442.929,200.0
4444.7065,234.0
4446.4844,226.0
4448.263,213.0
4450.0425,249.0
4451.8223,212.0
4453.603,215.0
4455.3843,238.0
4457.1665,208.0
4458.949,235.0
4460.733,260.0
4462.517,211.0
4464.3022,218.0
4466.088,260.0
4467.8745,299.0
4469.6616,287.0
4471.4497,276.0
4473.2383,236.0
4475.0273,236.0
4476.8174,234.0
4478.608,196.0
4480.3994,241.0
4482.1914,270.0
4483.9844,259.0
4485.778,236.0
4487.5723,244.0
4489.367,292.0
4491.163,274.0
4492.9595,239.0
4494.757,227.0
4496.5547,195.0
4498.3535,264.0
4500.153,292.0
4501.953,255.0
4503.754,261.0
4505.555,266.0
4507.3574,242.0
4509.16,245.0
4510.964,237.0
4512.768,241.0
4514.573,281.0
4516.379,273.0
4518.1855,224.0
4519.9927,261.0
4521.801,317.0
4523.6094,315.0
4525.419,211.0
4527.229,201.0
4529.04,272.0
4530.8516,398.0
4532.664,356.0
4534.477,240.0
4536.291,223.0
4538.1055,242.0
4539.921,269.0
4541.737,199.0
4543.5537,191.0
4545.371,203.0
4547.1895,190.0
4549.0083,225.0
4550.828,201.0
4552.6484,188.0
4554.4697,196.0
4556.2915,162.0
4558.1143,154.0
4559.9375,197.0
4561.7617,204.0
4563.5864,193.0
4565.4116,178.0
4567.238,230.0
4569.0645,185.0
4570.892,247.0
4572.72,159.0
4574.5493,175.0
4576.379,179.0
4578.2095,199.0
4580.0405,200.0
4581.8726,200.0
4583.705,222.0
4585.5386,194.0
4587.3726,198.0
4589.2075,197.0
4591.043,232.0
4592.8794,205.0
4594.7163,217.0
4596.554,183.0
4598.3926,207.0
4600.232,208.0
4602.0723,195.0
4603.913,231.0
4605.755,209.0
4607.597,178.0
4609.4404,201.0
4611.284,227.0
4613.129,242.0
4614.974,214.0
4616.8203,202.0
4618.667,200.0
4620.5146,206.0
4622.363,209.0
4624.212,237.0
4626.0615,210.0
4627.912,208.0
4629.763,206.0
4631.615,185.0
4633.468,197.0
4635.3213,204.0
4637.1753,206.0
4639.0303,192.0
4640.8857,200.0
4642.742,166.0
4644.599,224.0
4646.457,209.0
4648.3154,215.0
4650.175,204.0
4652.0347,203.0
4653.8955,177.0
4655.757,192.0
4657.619,223.0
4659.4824,203.0
4661.346,192.0
4663.211,219.0
4665.076,230.0
4666.9424,224.0
4668.809,219.0
4670.677,208.0
4672.545,211.0
4674.414,213.0
4676.2837,204.0
4678.1543,202.0
4680.0254,228.0
4681.8975,220.0
4683.77,207.0
4685.6436,197.0
4687.5176,223.0
4689.3926,223.0
4691.2686,196.0
4693.145,205.0
4695.0225,238.0
4696.9004,237.0
4698.7793,214.0
4700.6587,217.0
4702.539,219.0
4704.42,211.0
4706.302,229.0
4708.184,226.0
4710.0674,255.0
4711.951,231.0
4713.836,227.0
4715.7217,208.0
4717.608,203.0
4719.495,199.0
4721.383,216.0
4723.2715,202.0
4725.1606,207.0
4727.051,208.0
4728.9414,203.0
4730.833,224.0
4732.725,227.0
4734.618,204.0
4736.512,198.0
4738.4067,180.0
4740.3022,195.0
4742.198,179.0
4744.095,217.0
4745.9927,197.0
4747.891,215.0
4749.79,182.0
4751.69,188.0
4753.591,210.0
4755.492,211.0
4757.3945,184.0
4759.2974,192.0
4761.201,185.0
4763.1055,200.0
4765.0107,173.0
4766.9165,202.0
4768.823,199.0
4770.731,182.0
4772.639,184.0
4774.5483,186.0
4776.458,177.0
4778.3687,193.0
4780.28,178.0
4782.192,170.0
4784.105,166.0
4786.0186,188.0
4787.933,159.0
4789.848,183.0
4791.764,165.0
4793.6807,167.0
4795.598,172.0
4797.5166,178.0
4799.4355,170.0
4801.3555,151.0
4803.276,155.0
4805.1973,171.0
4807.119,141.0
4809.042,179.0
4810.966,177.0
4812.89,167.0
4814.8154,158.0
4816.741,175.0
4818.668,155.0
4820.595,147.0
4822.5234,170.0
4824.4526,173.0
4826.3823,142.0
4828.313,182.0
4830.244,193.0
4832.1763,179.0
4834.1094,166.0
4836.043,176.0
4837.9775,160.0
4839.9126,180.0
4841.8486,179.0
4843.785,175.0
4845.7227,152.0
4847.661,177.0
4849.6,190.0
4851.54,166.0
4853.4805,172.0
4855.422,155.0
4857.3643,151.0
4859.307,166.0
4861.251,183.0
4863.1953,164.0
4865.1406,172.0
4867.087,166.0
4869.0337,184.0
4870.9814,164.0
4872.9297,134.0
4874.879,166.0
4876.829,171.0
4878.78,167.0
4880.7314,152.0
4882.6836,158.0
4884.6367,155.0
4886.5903,156.0
4888.545,138.0
4890.5005,163.0
4892.4565,150.0
4894.4136,154.0
4896.3716,171.0
4898.33,148.0
4900.2896,175.0
4902.2495,140.0
4904.2104,172.0
4906.1724,157.0
4908.135,140.0
4910.098,172.0
4912.062,153.0
4914.027,165.0
4915.9927,146.0
4917.959,151.0
4919.9263,164.0
4921.894,176.0
4923.863,172.0
4925.8325,173.0
4927.8027,184.0
4929.774,159.0
4931.7456,180.0
4933.7183,164.0
4935.692,153.0
4937.666,196.0
4939.641,159.0
4941.617,164.0
4943.5938,149.0
4945.5713,141.0
4947.5493,177.0
4949.5283,143.0
4951.5083,186.0
4953.489,176.0
4955.47,196.0
4957.4526,173.0
4959.4355,163.0
4961.4194,156.0
4963.404,172.0
4965.389,189.0
4967.3755,164.0
4969.3623,146.0
4971.35,172.0
4973.339,195.0
4975.328,163.0
4977.3184,177.0
4979.309,162.0
4981.301,171.0
4983.2935,187.0
4985.2866,175.0
4987.281,174.0
4989.276,160.0
4991.2715,189.0
4993.268,200.0
4995.265,181.0
4997.263,199.0
4999.262,182.0
5001.2617,177.0
5003.262,183.0
5005.2637,177.0
5007.2656,219.0
5009.2686,214.0
5011.2725,190.0
5013.277,182.0
5015.282,205.0
5017.2886,161.0
5019.2954,179.0
5021.303,191.0
5023.3115,194.0
5025.321,178.0
5027.331,182.0
5029.342,192.0
5031.3535,200.0
5033.366,199.0
5035.3794,166.0
5037.3936,160.0
5039.4087,169.0
5041.4243,180.0
5043.441,180.0
5045.4585,189.0
5047.4766,169.0
5049.4956,194.0
5051.5156,184.0
5053.536,201.0
5055.5576,178.0
5057.58,173.0
5059.603,180.0
5061.627,173.0
5063.6514,197.0
5065.677,179.0
5067.703,180.0
5069.73,170.0
5071.758,168.0
5073.7866,193.0
5075.816,158.0
5077.846,169.0
5079.8774,171.0
5081.909,161.0
5083.942,187.0
5085.9756,181.0
5088.01,168.0
5090.045,167.0
5092.081,195.0
5094.1177,186.0
5096.1553,172.0
5098.194,175.0
5100.233,172.0
5102.273,170.0
5104.314,180.0
5106.3555,185.0
5108.398,195.0
5110.4414,162.0
5112.4854,172.0
5114.5303,205.0
5116.576,179.0
5118.6226,190.0
5120.67,191.0
5122.7183,169.0
5124.7676,192.0
5126.8174,203.0
5128.868,215.0
5130.92,190.0
5132.972,170.0
5135.0254,184.0
5137.0796,169.0
5139.1343,171.0
5141.19,199.0
5143.2466,167.0
5145.3037,204.0
5147.362,184.0
5149.421,214.0
5151.4805,160.0
5153.541,153.0
5155.6025,190.0
5157.6646,198.0
5159.7275,180.0
5161.7915,174.0
5163.8564,191.0
5165.922,198.0
5167.9883,193.0
5170.0557,177.0
5172.1235,199.0
5174.1924,179.0
5176.262,177.0
5178.3325,186.0
5180.404,198.0
5182.476,185.0
5184.549,189.0
5186.6226,191.0
5188.6973,187.0
5190.773,171.0
5192.849,179.0
5194.9263,171.0
5197.0044,186.0
5199.083,178.0
5201.1626,192.0
5203.243,211.0
5205.324,180.0
5207.4062,221.0
5209.4893,181.0
5211.573,156.0
5213.6577,194.0
5215.743,196.0
5217.8296,188.0
5219.9165,215.0
5222.0044,205.0
5224.0933,216.0
5226.183,189.0
5228.2734,202.0
5230.3647,185.0
5232.457,183.0
5234.55,183.0
5236.6436,202.0
5238.7383,210.0
5240.834,207.0
5242.93,191.0
5245.0273,208.0
5247.1255,206.0
5249.224,204.0
5251.3237,190.0
5253.4243,188.0
5255.526,183.0
5257.628,234.0
5259.731,182.0
5261.835,170.0
5263.9395,187.0
5266.045,200.0
5268.1514,183.0
5270.259,203.0
5272.3667,200.0
5274.4756,213.0
5276.5854,202.0
5278.6963,188.0
5280.8076,201.0
5282.92,196.0
5285.033,171.0
5287.147,211.0
5289.2617,176.0
5291.3774,186.0
5293.494,154.0
5295.6113,168.0
5297.7295,184.0
5299.8486,246.0
5301.9688,241.0
5304.0894,221.0
5306.211,178.0
5308.3335,208.0
5310.457,198.0
5312.581,216.0
5314.706,217.0
5316.832,232.0
5318.959,249.0
5321.0864,202.0
5323.215,221.0
5325.344,205.0
5327.4746,187.0
5329.6055,205.0
5331.7373,186.0
5333.87,173.0
5336.004,219.0
5338.138,218.0
5340.2734,232.0
5342.4097,233.0
5344.547,225.0
5346.6846,223.0
5348.823,198.0
5350.963,204.0
5353.1035,233.0
5355.2446,181.0
5357.3867,217.0
5359.53,228.0
5361.674,224.0
5363.8184,223.0
5365.964,208.0
5368.1104,207.0
5370.258,219.0
5372.406,227.0
5374.5547,226.0
5376.7046,244.0
5378.8555,240.0
5381.007,231.0
5383.159,222.0
5385.3125,227.0
5387.467,210.0
5389.6216,238.0
5391.7773,245.0
5393.934,227.0
5396.092,219.0
5398.25,211.0
5400.409,213.0
5402.5693,197.0
5404.7305,210.0
5406.8926,226.0
5409.055,265.0
5411.2188,243.0
5413.3833,228.0
5415.549,220.0
5417.715,235.0
5419.882,207.0
5422.05,225.0
5424.2188,234.0
5426.3887,224.0
5428.559,239.0
5430.7305,224.0
5432.903,232.0
5435.076,228.0
5437.25,225.0
5439.425,246.0
5441.6006,253.0
5443.7773,247.0
5445.955,230.0
5448.1333,217.0
5450.3125,247.0
5452.4927,218.0
5454.674,213.0
5456.8555,216.0
5459.038,245.0
5461.2217,248.0
5463.4062,225.0
5465.592,203.0
5467.778,256.0
5469.965,237.0
5472.153,245.0
5474.342,247.0
5476.5317,246.0
5478.722,238.0
5480.9136,223.0
5483.106,232.0
5485.2993,222.0
5487.4937,273.0
5489.6885,241.0
5491.8843,231.0
5494.081,227.0
5496.279,246.0
5498.4775,228.0
5500.677,246.0
5502.877,245.0
5505.078,256.0
5507.2803,252.0
5509.4834,255.0
5511.687,251.0
5513.8916,227.0
5516.097,242.0
5518.3037,228.0
5520.511,231.0
5522.719,233.0
5524.928,240.0
5527.138,273.0
5529.349,252.0
5531.561,205.0
5533.7734,262.0
5535.987,267.0
5538.201,257.0
5540.4165,261.0
5542.633,268.0
5544.85,218.0
5547.068,234.0
5549.2866,259.0
5551.5063,245.0
5553.727,244.0
5555.9487,241.0
5558.171,254.0
5560.394,246.0
5562.618,226.0
5564.8433,252.0
5567.0693,269.0
5569.2964,265.0
5571.524,217.0
5573.7524,238.0
5575.982,224.0
5578.2124,227.0
5580.444,231.0
5582.676,270.0
5584.9087,246.0
5587.1426,225.0
5589.3774,209.0
5591.6133,183.0
5593.85,235.0
5596.0874,259.0
5598.3257,251.0
5600.565,260.0
5602.805,266.0
5605.0464,234.0
5607.2886,229.0
5609.5312,221.0
5611.775,233.0
5614.0195,211.0
5616.265,228.0
5618.5117,227.0
5620.7593,204.0
5623.008,198.0
5625.257,239.0
5627.507,224.0
5629.758,212.0
5632.01,218.0
5634.2627,233.0
5636.5166,192.0
5638.771,220.0
5641.0264,216.0
5643.2827,230.0
5645.54,219.0
5647.7983,234.0
5650.0576,230.0
5652.318,231.0
5654.5786,212.0
5656.8403,228.0
5659.103,240.0
5661.3667,258.0
5663.6313,214.0
5665.897,227.0
5668.1636,192.0
5670.4307,233.0
5672.6987,217.0
5674.968,243.0
5677.238,212.0
5679.509,248.0
5681.781,226.0
5684.0537,218.0
5686.327,220.0
5688.6016,212.0
5690.877,207.0
5693.1533,240.0
5695.4307,238.0
5697.709,223.0
5699.9883,218.0
5702.268,218.0
5704.549,241.0
5706.8306,235.0
5709.1133,244.0
5711.397,211.0
5713.6816,251.0
5715.9673,211.0
5718.254,214.0
5720.541,272.0
5722.829,258.0
5725.118,233.0
5727.408,243.0
5729.699,254.0
5731.991,218.0
5734.284,229.0
5736.578,266.0
5738.8726,271.0
5741.168,258.0
5743.4644,225.0
5745.7617,242.0
5748.06,204.0
5750.3594,259.0
5752.6597,251.0
5754.961,240.0
5757.2627,252.0
5759.5654,235.0
5761.869,242.0
5764.174,215.0
5766.4795,231.0
5768.786,243.0
5771.0938,240.0
5773.4023,268.0
5775.712,302.0
5778.022,277.0
5780.333,278.0
5782.645,212.0
5784.958,226.0
5787.272,261.0
5789.587,270.0
5791.903,272.0
5794.2197,254.0
5796.5376,287.0
5798.8564,266.0
5801.176,288.0
5803.496,273.0
5805.8174,276.0
5808.1396,308.0
5810.463,296.0
5812.787,296.0
5815.1123,322.0
5817.4385,244.0
5819.7656,299.0
5822.0938,299.0
5824.4224,280.0
5826.752,303.0
5829.0825,285.0
5831.414,329.0
5833.7466,308.0
5836.08,292.0
5838.4146,347.0
5840.75,364.0
5843.0864,315.0
5845.424,293.0
5847.762,370.0
5850.101,295.0
5852.441,291.0
5854.7817,297.0
5857.1235,261.0
5859.4663,286.0
5861.81,285.0
5864.155,292.0
5866.5005,289.0
5868.847,310.0
5871.195,323.0
5873.5435,314.0
5875.893,295.0
5878.2437,289.0
5880.5947,289.0
5882.947,317.0
5885.3,296.0
5887.654,318.0
5890.009,312.0
5892.3647,315.0
5894.7217,305.0
5897.0796,290.0
5899.4385,318.0
5901.7983,336.0
5904.159,313.0
5906.521,353.0
5908.884,333.0
5911.2476,321.0
5913.612,354.0
5915.977,334.0
5918.3433,356.0
5920.7104,322.0
5923.0786,349.0
5925.4478,314.0
5927.818,343.0
5930.189,358.0
5932.561,353.0
5934.934,357.0
5937.308,291.0
5939.683,334.0
5942.059,332.0
5944.436,320.0
5946.814,341.0
5949.193,343.0
5951.5728,323.0
5953.9536,359.0
5956.335,345.0
5958.7173,344.0
5961.1006,400.0
5963.485,363.0
5965.87,332.0
5968.2563,347.0
5970.6436,338.0
5973.0317,342.0
5975.421,347.0
5977.811,408.0
5980.202,360.0
5982.594,341.0
5984.9873,350.0
5987.3813,380.0
5989.7764,368.0
5992.1724,385.0
5994.5693,366.0
5996.9673,329.0
5999.366,357.0
6001.766,381.0
6004.167,471.0
6006.569,378.0
6008.9717,367.0
6011.3755,423.0
6013.7803,360.0
6016.1855,363.0
6018.592,396.0
6020.999,355.0
6023.407,355.0
6025.8164,376.0
6028.2266,357.0
6030.6377,371.0
6033.05,362.0
6035.463,379.0
6037.877,373.0
6040.292,328.0
6042.708,369.0
6045.125,384.0
6047.543,371.0
6049.962,343.0
6052.382,312.0
6054.8027,344.0
6057.2246,350.0
6059.6475,355.0
6062.0713,377.0
6064.496,401.0
6066.922,386.0
6069.3486,351.0
6071.7764,383.0
6074.205,392.0
6076.635,309.0
6079.0654,337.0
6081.497,337.0
6083.9297,371.0
6086.3633,343.0
6088.798,362.0
6091.2334,375.0
6093.67,357.0
6096.1074,356.0
6098.546,369.0
6100.9854,396.0
6103.426,404.0
6105.867,408.0
6108.3096,407.0
6110.753,383.0
6113.1973,378.0
6115.6426,427.0
6118.089,433.0
6120.536,405.0
6122.9844,430.0
6125.4336,389.0
6127.884,425.0
6130.335,433.0
6132.787,504.0
6135.24,461.0
6137.6943,481.0
6140.1494,440.0
6142.6055,397.0
6145.0625,430.0
6147.5205,493.0
6149.9795,503.0
6152.4395,474.0
6154.9004,470.0
6157.3623,523.0
6159.825,506.0
6162.289,456.0
6164.754,423.0
6167.2197,409.0
6169.6865,442.0
6172.1543,529.0
6174.623,741.0
6177.093,692.0
6179.5635,519.0
6182.035,479.0
6184.508,478.0
6186.9814,491.0
6189.456,544.0
6191.9316,730.0
6194.408,770.0
6196.8857,607.0
6199.3643,611.0
6201.844,563.0
6204.325,523.0
6206.807,447.0
6209.29,400.0
6211.774,456.0
6214.259,550.0
6216.7446,611.0
6219.2314,558.0
6221.719,506.0
6224.208,418.0
6226.6978,433.0
6229.1885,488.0
6231.68,645.0
6234.173,746.0
6236.6665,653.0
6239.161,493.0
6241.6567,448.0
6244.1533,425.0
6246.651,513.0
6249.1494,601.0
6251.649,532.0
6254.1494,489.0
6256.651,534.0
6259.1533,597.0
6261.6567,469.0
6264.1616,408.0
6266.6675,386.0
6269.1743,375.0
6271.682,574.0
6274.191,815.0
6276.7007,634.0
6279.2114,480.0
6281.723,416.0
6284.236,391.0
6286.7495,393.0
6289.264,748.0
6291.78,1018.0
6294.2964,778.0
6296.814,515.0
6299.3325,448.0
6301.852,397.0
6304.3726,396.0
6306.8945,377.0
6309.4175,366.0
6311.9414,388.0
6314.4663,411.0
6316.992,396.0
6319.519,365.0
6322.047,328.0
6324.5757,361.0
6327.1055,366.0
6329.636,385.0
6332.168,379.0
6334.7007,395.0
6337.2344,376.0
6339.769,381.0
6342.305,391.0
6344.8423,394.0
6347.3804,397.0
6349.9194,378.0
6352.4595,373.0
6355.0005,370.0
6357.5425,375.0
6360.0854,380.0
6362.6294,385.0
6365.1743,373.0
6367.72,402.0
6370.267,405.0
6372.8154,394.0
6375.3647,380.0
6377.915,412.0
6380.4663,434.0
6383.0186,386.0
6385.572,421.0
6388.126,428.0
6390.681,388.0
6393.2373,413.0
6395.7944,382.0
6398.3525,392.0
6400.912,392.0
6403.4727,431.0
6406.034,429.0
6408.5967,413.0
6411.16,401.0
6413.7246,389.0
6416.29,393.0
6418.8564,381.0
6421.424,402.0
6423.992,391.0
6426.562,409.0
6429.133,392.0
6431.7046,382.0
6434.2773,402.0
6436.851,429.0
6439.426,419.0
6442.0015,400.0
6444.578,409.0
6447.156,400.0
6449.735,385.0
6452.315,413.0
6454.896,442.0
6457.478,422.0
6460.061,399.0
6462.645,389.0
6465.23,357.0
6467.816,373.0
6470.403,366.0
6472.991,407.0
6475.5806,402.0
6478.171,392.0
6480.762,374.0
6483.3545,392.0
6485.9478,354.0
6488.542,426.0
6491.137,409.0
6493.734,386.0
6496.3315,396.0
6498.93,414.0
6501.53,361.0
6504.1304,393.0
6506.732,406.0
6509.3345,425.0
6511.938,400.0
6514.543,485.0
6517.149,452.0
6519.756,405.0
6522.364,422.0
6524.9727,422.0
6527.5825,439.0
6530.1934,454.0
6532.8057,405.0
6535.419,448.0
6538.033,435.0
6540.6484,457.0
6543.2646,435.0
6545.882,457.0
6548.5,497.0
6551.1196,468.0
6553.74,468.0
6556.362,467.0
6558.9844,502.0
6561.608,502.0
6564.2324,420.0
6566.858,442.0
6569.485,453.0
6572.113,454.0
6574.7417,536.0
6577.3716,529.0
6580.0024,470.0
6582.6343,445.0
6585.267,443.0
6587.9014,454.0
6590.5366,467.0
6593.173,545.0
6595.81,520.0
6598.448,479.0
6601.0874,440.0
6603.728,441.0
6606.3696,455.0
6609.012,425.0
6611.656,468.0
6614.3003,444.0
6616.946,463.0
6619.593,442.0
6622.2407,525.0
6624.8896,470.0
6627.5396,431.0
6630.1904,428.0
6632.8423,482.0
6635.4956,452.0
6638.15,524.0
6640.805,530.0
6643.4614,452.0
6646.1187,452.0
6648.7773,428.0
6651.437,422.0
6654.0977,439.0
6656.7593,507.0
6659.422,497.0
6662.0854,460.0
6664.7505,404.0
6667.4165,464.0
6670.0835,425.0
6672.7515,411.0
6675.4204,396.0
6678.091,433.0
6680.762,453.0
6683.4346,431.0
6686.108,403.0
6688.782,344.0
6691.4575,374.0
6694.1343,384.0
6696.812,488.0
6699.4907,475.0
6702.1704,388.0
6704.851,402.0
6707.533,388.0
6710.2163,454.0
6712.9004,417.0
6715.5854,452.0
6718.2715,442.0
6720.959,385.0
6723.6475,465.0
6726.337,457.0
6729.0273,426.0
6731.7188,404.0
6734.4116,393.0
6737.1055,432.0
6739.8003,500.0
6742.496,541.0
6745.193,480.0
6747.891,435.0
6750.5903,403.0
6753.2905,430.0
6755.9917,464.0
6758.6943,557.0
6761.398,558.0
6764.1025,491.0
6766.808,488.0
6769.5146,435.0
6772.2227,417.0
6774.9316,504.0
6777.6416,491.0
6780.3525,560.0
6783.0645,554.0
6785.778,507.0
6788.492,474.0
6791.2075,489.0
6793.924,503.0
6796.6416,444.0
6799.3604,473.0
6802.08,457.0
6804.801,533.0
6807.5225,638.0
6810.2456,685.0
6812.9697,537.0
6815.695,456.0
6818.421,414.0
6821.1484,567.0
6823.877,913.0
6826.6064,889.0
6829.337,588.0
6832.069,459.0
6834.802,391.0
6837.5356,470.0
6840.2705,553.0
6843.007,692.0
6845.744,630.0
6848.4824,404.0
6851.2217,435.0
6853.9624,636.0
6856.704,649.0
6859.447,555.0
6862.1904,532.0
6864.9355,391.0
6867.6816,404.0
6870.4287,405.0
6873.177,405.0
6875.9263,338.0
6878.677,391.0
6881.428,413.0
6884.1807,419.0
6886.9346,402.0
6889.6895,342.0
6892.4453,386.0
6895.202,398.0
6897.9604,396.0
6900.7197,385.0
6903.48,385.0
6906.241,353.0
6909.004,398.0
6911.7676,455.0
6914.532,452.0
6917.298,447.0
6920.065,448.0
6922.833,419.0
6925.602,412.0
6928.372,411.0
6931.1436,433.0
6933.916,415.0
6936.6895,396.0
6939.4644,386.0
6942.24,406.0
6945.017,423.0
6947.795,474.0
6950.574,436.0
6953.3545,443.0
6956.1357,423.0
6958.918,468.0
6961.7017,420.0
6964.4863,454.0
6967.272,493.0
6970.059,418.0
6972.847,472.0
6975.636,481.0
6978.4263,461.0
6981.218,502.0
6984.0103,440.0
6986.8037,495.0
6989.5986,512.0
6992.3945,564.0
6995.1914,511.0
6997.9893,548.0
7000.7886,563.0
7003.589,509.0
7006.39,486.0
7009.193,516.0
7011.9966,481.0
7014.8013,480.0
7017.6074,556.0
7020.4146,606.0
7023.2227,581.0
7026.0317,673.0
7028.8423,589.0
7031.654,460.0
7034.4663,379.0
7037.2803,433.0
7040.095,513.0
7042.911,730.0
7045.7285,673.0
7048.547,506.0
7051.366,469.0
7054.1865,422.0
7057.0083,522.0
7059.831,941.0
7062.655,892.0
7065.48,559.0
7068.306,426.0
7071.1333,428.0
7073.962,450.0
7076.7915,415.0
7079.622,476.0
7082.454,457.0
7085.287,457.0
7088.121,400.0
7090.9565,433.0
7093.793,455.0
7096.6304,475.0
7099.469,470.0
7102.309,434.0
7105.15,446.0
7107.992,454.0
7110.8354,517.0
7113.6797,515.0
7116.5254,530.0
7119.372,504.0
7122.2197,548.0
7125.069,582.0
7127.919,585.0
7130.77,523.0
7133.6226,463.0
7136.476,516.0
7139.3306,619.0
7142.1865,684.0
7145.0435,567.0
7147.9014,565.0
7150.7607,578.0
7153.621,592.0
7156.4824,794.0
7159.345,833.0
7162.209,674.0
7165.0737,608.0
7167.94,619.0
7170.807,694.0
7173.6753,755.0
7176.545,616.0
7179.4155,588.0
7182.287,649.0
7185.16,576.0
7188.034,640.0
7190.909,675.0
7193.7856,594.0
7196.663,771.0
7199.542,785.0
7202.422,673.0
7205.3027,507.0
7208.185,412.0
7211.0684,553.0
7213.9526,917.0
7216.8384,985.0
7219.725,675.0
7222.613,481.0
7225.502,450.0
7228.392,556.0
7231.283,1288.0
7234.176,1396.0
7237.0693,853.0
7239.9644,561.0
7242.8604,431.0
7245.7573,443.0
7248.656,408.0
7251.555,437.0
7254.4556,402.0
7257.3574,416.0
7260.2603,404.0
7263.1646,419.0
7266.07,402.0
7268.976,443.0
7271.884,437.0
7274.7925,405.0
7277.7026,409.0
7280.614,422.0
7283.526,451.0
7286.4395,452.0
7289.354,426.0
7292.2695,412.0
7295.1865,476.0
7298.1045,472.0
7301.024,411.0
7303.9443,428.0
7306.8657,404.0
7309.7886,464.0
7312.7124,612.0
7315.6377,611.0
7318.564,443.0
7321.491,384.0
7324.42,387.0
7327.3496,453.0
7330.281,702.0
7333.213,581.0
7336.146,477.0
7339.0806,393.0
7342.016,388.0
7344.953,404.0
7347.891,475.0
7350.83,457.0
7353.7705,415.0
7356.712,458.0
7359.655,424.0
7362.5986,417.0
7365.5435,405.0
7368.4897,381.0
7371.437,416.0
7374.3857,398.0
7377.3354,451.0
7380.2866,437.0
7383.239,481.0
7386.192,406.0
7389.1465,435.0
7392.102,389.0
7395.059,409.0
7398.017,485.0
7400.976,493.0
7403.9365,521.0
7406.898,451.0
7409.861,464.0
7412.8247,447.0
7415.79,483.0
7418.7563,484.0
7421.7236,488.0
7424.6924,453.0
7427.662,376.0
7430.6333,376.0
7433.6055,461.0
7436.579,470.0
7439.5537,441.0
7442.5293,428.0
7445.5063,414.0
7448.4844,413.0
7451.464,412.0
7454.4443,413.0
7457.4263,360.0
7460.409,324.0
7463.3936,308.0
7466.379,400.0
7469.365,429.0
7472.353,424.0
7475.342,365.0
7478.332,331.0
7481.323,361.0
7484.316,531.0
7487.3096,589.0
7490.3047,455.0
7493.301,312.0
7496.2983,331.0
7499.297,358.0
7502.2964,347.0
7505.2974,367.0
7508.2993,312.0
7511.3027,301.0
7514.307,308.0
7517.313,308.0
7520.32,302.0
7523.328,323.0
7526.3374,327.0
7529.348,329.0
7532.36,319.0
7535.373,279.0
7538.387,308.0
7541.4023,335.0
7544.419,330.0
7547.4365,416.0
7550.4556,327.0
7553.4756,334.0
7556.497,324.0
7559.5195,287.0
7562.5435,385.0
7565.5684,415.0
7568.5947,330.0
7571.622,348.0
7574.651,308.0
7577.6807,293.0
7580.712,278.0
7583.744,368.0
7586.778,342.0
7589.8125,280.0
7592.8486,291.0
7595.8857,306.0
7598.9243,347.0
7601.964,347.0
7605.005,317.0
7608.047,298.0
7611.0903,283.0
7614.135,341.0
7617.18,405.0
7620.227,356.0
7623.275,321.0
7626.324,293.0
7629.3745,295.0
7632.4263,318.0
7635.479,327.0
7638.533,312.0
7641.5884,319.0
7644.645,308.0
7647.7026,328.0
7650.7617,303.0
7653.8223,278.0
7656.884,294.0
7659.947,312.0
7663.0107,297.0
7666.076,303.0
7669.1426,338.0
7672.2104,316.0
7675.2793,323.0
7678.3496,312.0
7681.421,346.0
7684.4937,328.0
7687.5674,354.0
7690.6426,309.0
7693.7188,327.0
7696.7964,338.0
7699.875,313.0
7702.955,342.0
7706.036,356.0
7709.1187,371.0
7712.202,351.0
7715.287,330.0
7718.373,354.0
7721.4604,363.0
7724.549,382.0
7727.6387,385.0
7730.7295,406.0
7733.822,352.0
7736.9155,410.0
7740.0103,414.0
7743.1064,411.0
7746.2036,391.0
7749.3022,379.0
7752.402,417.0
7755.503,402.0
7758.605,416.0
7761.7085,403.0
7764.813,345.0
7767.919,409.0
7771.026,473.0
7774.1343,462.0
7777.244,411.0
7780.355,387.0
7783.4673,413.0
7786.5806,555.0
7789.6953,562.0
7792.811,460.0
7795.928,449.0
7799.0464,378.0
7802.166,383.0
7805.287,437.0
7808.409,462.0
7811.5327,490.0
7814.657,451.0
7817.783,430.0
7820.91,415.0
7824.0386,404.0
7827.168,542.0
7830.299,557.0
7833.431,476.0
7836.5645,435.0
7839.699,433.0
7842.835,461.0
7845.972,530.0
7849.1104,522.0
7852.25,516.0
7855.391,451.0
7858.533,470.0
7861.677,464.0
7864.8213,470.0
7867.9673,472.0
7871.1143,489.0
7874.2627,480.0
7877.4126,482.0
7880.5635,534.0
7883.716,514.0
7886.869,502.0
7890.024,515.0
7893.18,488.0
7896.3374,515.0
7899.496,621.0
7902.656,628.0
7905.817,581.0
7908.979,534.0
7912.1426,491.0
7915.3076,583.0
7918.4736,741.0
7921.641,752.0
7924.8096,638.0
7927.9795,617.0
7931.151,558.0
7934.323,594.0
7937.497,639.0
7940.672,652.0
7943.848,662.0
7947.026,650.0
7950.2046,659.0
7953.385,740.0
7956.566,725.0
7959.7485,770.0
7962.9326,752.0
7966.1177,797.0
7969.304,838.0
7972.4917,854.0
7975.6807,853.0
7978.871,823.0
7982.0625,912.0
7985.2554,1007.0
7988.4497,1001.0
7991.645,1000.0
7994.842,970.0
7998.0396,1025.0
8001.239,1071.0
8004.4395,1127.0
8007.641,1280.0
8010.844,1199.0
8014.0483,1203.0
8017.254,1261.0
8020.461,1319.0
8023.669,1317.0
8026.8784,1264.0
8030.0894,1363.0
8033.3013,1370.0
8036.5146,1670.0
8039.7295,1904.0
8042.9453,1622.0
8046.1626,1479.0
8049.381,1518.0
8052.6006,1922.0
8055.822,2325.0
8059.044,2269.0
8062.2676,1825.0
8065.4927,1964.0
8068.7188,2246.0
8071.9463,2368.0
8075.1753,2755.0
8078.4053,2577.0
8081.6367,2683.0
8084.869,3203.0
8088.103,2901.0
8091.3384,2176.0
8094.5747,1965.0
8097.8125,2654.0
8101.052,4413.0
8104.292,4001.0
8107.5337,2924.0
8110.777,2540.0
8114.021,2609.0
8117.2666,5261.0
8120.5137,6748.0
8123.7617,5003.0
8127.011,3973.0
8130.262,3281.0
8133.514,3438.0
8136.7676,4003.0
8140.0225,4000.0
8143.2783,5034.0
8146.5356,4770.0
8149.7944,3579.0
8153.054,4338.0
8156.3154,4075.0
8159.578,4410.0
8162.842,5214.0
8166.107,4876.0
8169.3735,7299.0
8172.641,7569.0
8175.91,4476.0
8179.1807,2426.0
8182.452,2702.0
8185.725,10268.0
8188.9995,14192.0
8192.275,6845.0
8195.553,2866.0
8198.831,2186.0
8202.11,9628.0
8205.392,25557.0
8208.674,16525.0
8211.957,5608.0
8215.242,2365.0
8218.528,1805.0
8221.815,1511.0
8225.1045,1772.0
8228.395,2081.0
8231.686,1720.0
8234.979,1138.0
8238.272,980.0
8241.567,922.0
8244.864,1082.0
8248.162,1128.0
8251.461,954.0
8254.762,816.0
8258.063,833.0
8261.367,949.0
8264.672,1096.0
8267.978,943.0
8271.285,894.0
8274.594,833.0
8277.903,785.0
8281.215,765.0
8284.527,714.0
8287.841,922.0
8291.156,938.0
8294.473,777.0
8297.79,694.0
8301.109,709.0
8304.43,850.0
8307.751,903.0
8311.074,858.0
8314.398,863.0
8317.725,865.0
8321.052,836.0
8324.38,755.0
8327.71,853.0
8331.041,1144.0
8334.373,1028.0
8337.707,719.0
8341.042,757.0
8344.378,824.0
8347.716,1131.0
8351.055,1291.0
8354.3955,919.0
8357.737,901.0
8361.08,857.0
8364.425,673.0
8367.7705,634.0
8371.117,573.0
8374.466,863.0
8377.815,969.0
8381.167,763.0
8384.52,524.0
8387.873,600.0
8391.229,730.0
8394.585,825.0
8397.942,632.0
8401.302,590.0
8404.662,565.0
8408.024,630.0
8411.388,633.0
8414.752,545.0
8418.118,568.0
8421.485,465.0
8424.854,475.0
8428.224,454.0
8431.595,600.0
8434.968,548.0
8438.342,487.0
8441.717,541.0
8445.094,499.0
8448.472,598.0
8451.851,544.0
8455.231,554.0
8458.613,567.0
8461.997,581.0
8465.382,648.0
8468.768,640.0
8472.155,602.0
8475.544,634.0
8478.935,622.0
8482.326,624.0
8485.719,680.0
8489.113,759.0
8492.509,868.0
8495.906,794.0
8499.305,710.0
8502.704,743.0
8506.105,836.0
8509.508,1022.0
8512.911,898.0
8516.316,910.0
8519.723,1072.0
8523.131,982.0
8526.54,988.0
8529.95,1006.0
8533.362,1298.0
8536.775,1636.0
8540.19,1253.0
8543.606,707.0
8547.023,716.0
8550.442,1682.0
8553.862,2472.0
8557.284,1607.0
8560.707,897.0
8564.131,733.0
8567.557,1980.0
8570.983,3831.0
8574.412,2465.0
8577.842,1305.0
8581.272,844.0
8584.705,610.0
8588.139,563.0
8591.574,670.0
8595.011,965.0
8598.449,960.0
8601.889,609.0
8605.329,508.0
8608.771,461.0
8612.215,478.0
8615.66,467.0
8619.106,480.0
8622.554,459.0
8626.003,462.0
8629.453,431.0
8632.905,504.0
8636.358,501.0
8639.8125,502.0
8643.269,498.0
8646.726,441.0
8650.185,462.0
8653.645,482.0
8657.106,522.0
8660.569,476.0
8664.033,462.0
8667.499,503.0
8670.966,538.0
8674.435,558.0
8677.904,566.0
8681.375,559.0
8684.848,540.0
8688.321,618.0
8691.797,563.0
8695.273,677.0
8698.752,716.0
8702.231,603.0
8705.712,643.0
8709.194,647.0
8712.678,693.0
8716.163,810.0
8719.649,764.0
8723.138,694.0
8726.627,693.0
8730.117,681.0
8733.609,754.0
8737.103,778.0
8740.598,800.0
8744.094,753.0
8747.592,776.0
8751.091,811.0
8754.591,890.0
8758.093,905.0
8761.596,798.0
8765.101,882.0
8768.606,889.0
8772.114,1093.0
8775.623,1057.0
8779.133,964.0
8782.645,1145.0
8786.157,1006.0
8789.672,1082.0
8793.1875,1062.0
8796.705,1296.0
8800.224,1415.0
8803.744,1165.0
8807.266,987.0
8810.788,1040.0
8814.3125,1753.0
8817.838,1883.0
8821.365,1418.0
8824.894,1112.0
8828.424,1176.0
8831.955,2086.0
8835.488,2285.0
8839.022,1585.0
8842.558,1348.0
8846.095,1210.0
8849.633,1087.0
8853.173,1107.0
8856.714,1455.0
8860.257,1719.0
8863.801,1442.0
8867.347,1247.0
8870.894,1217.0
8874.442,1666.0
8877.992,2243.0
8881.543,1805.0
8885.096,1412.0
8888.649,1332.0
8892.205,1285.0
8895.762,1296.0
8899.32,1469.0
8902.88,1595.0
8906.441,1384.0
8910.004,1222.0
8913.568,1407.0
8917.134,1837.0
8920.7,1760.0
8924.269,1432.0
8927.838,1396.0
8931.409,1503.0
8934.981,1947.0
8938.556,1860.0
8942.131,1571.0
8945.708,1510.0
8949.286,1302.0
8952.866,1224.0
8956.447,1253.0
8960.03,1589.0
8963.614,1616.0
8967.199,1331.0
8970.786,1075.0
8974.374,1297.0
8977.964,1514.0
8981.555,1392.0
8985.147,1177.0
8988.741,1175.0
8992.337,1390.0
8995.934,1598.0
8999.532,1329.0
9003.132,1116.0
9006.733,1261.0
9010.336,1432.0
9013.94,1263.0
9017.546,1144.0
9021.153,1126.0
9024.762,1417.0
9028.372,1504.0
9031.983,1175.0
9035.597,929.0
9039.211,1064.0
9042.826,1566.0
9046.443,1394.0
9050.062,913.0
9053.682,770.0
9057.303,1245.0
9060.926,2101.0
9064.55,1509.0
9068.176,867.0
9071.803,687.0
9075.432,991.0
9079.062,1165.0
9082.693,915.0
9086.326,713.0
9089.961,700.0
9093.597,719.0
9097.234,793.0
9100.873,722.0
9104.514,688.0
9108.155,588.0
9111.799,578.0
9115.443,545.0
9119.09,597.0
9122.737,717.0
9126.387,651.0
9130.037,554.0
9133.689,493.0
9137.343,646.0
9140.998,701.0
9144.654,658.0
9148.3125,594.0
9151.972,558.0
9155.633,619.0
9159.295,561.0
9162.959,667.0
9166.624,700.0
9170.291,603.0
9173.959,526.0
9177.629,541.0
9181.3,776.0
9184.973,837.0
9188.646,672.0
9192.322,482.0
9195.999,588.0
9199.678,751.0
9203.357,677.0
9207.039,577.0
9210.722,493.0
9214.406,424.0
9218.092,409.0
9221.779,508.0
9225.468,601.0
9229.158,472.0
9232.85,406.0
9236.543,359.0
9240.237,518.0
9243.934,602.0
9247.631,502.0
9251.33,459.0
9255.03,359.0
9258.732,293.0
9262.436,296.0
9266.141,392.0
9269.847,349.0
9273.555,296.0
9277.264,252.0
9280.975,306.0
9284.687,335.0
9288.4,315.0
9292.116,281.0
9295.833,270.0
9299.552,283.0
9303.271,285.0
9306.993,293.0
9310.716,255.0
9314.44,271.0
9318.166,248.0
9321.894,236.0
9325.622,276.0
9329.353,256.0
9333.084,250.0
9336.817,238.0
9340.552,230.0
9344.288,239.0
9348.025,274.0
9351.765,224.0
9355.505,248.0
9359.247,236.0
9362.991,238.0
9366.736,241.0
9370.483,258.0
9374.231,215.0
9377.981,238.0
9381.732,219.0
9385.485,227.0
9389.239,243.0
9392.995,222.0
9396.752,229.0
9400.511,224.0
9404.2705,196.0
9408.032,230.0
9411.796,214.0
9415.561,213.0
9419.327,210.0
9423.095,205.0
9426.864,207.0
9430.635,205.0
9434.407,186.0
9438.181,217.0
9441.956,254.0
9445.732,218.0
9449.511,185.0
9453.291,199.0
9457.072,210.0
9460.855,213.0
9464.64,229.0
9468.426,224.0
9472.213,222.0
9476.002,187.0
9479.792,195.0
9483.584,184.0
9487.377,208.0
9491.172,233.0
9494.969,177.0
9498.767,171.0
9502.566,210.0
9506.367,213.0
9510.17,206.0
9513.974,201.0
9517.779,185.0
9521.586,203.0
9525.395,181.0
9529.205,181.0
9533.017,206.0
9536.83,170.0
9540.645,143.0
9544.461,200.0
9548.278,208.0
9552.098,235.0
9555.919,212.0
9559.741,149.0
9563.565,154.0
9567.391,159.0
9571.218,192.0
9575.046,187.0
9578.876,168.0
9582.708,156.0
9586.541,160.0
9590.376,154.0
9594.212,175.0
9598.05,132.0
9601.889,158.0
9605.7295,182.0
9609.572,179.0
9613.416,165.0
9617.262,130.0
9621.108,163.0
9624.957,171.0
9628.807,161.0
9632.658,140.0
9636.512,178.0
9640.366,154.0
9644.223,164.0
9648.08,161.0
9651.939,170.0
9655.8,143.0
9659.662,140.0
9663.526,153.0
9667.392,135.0
9671.259,157.0
9675.127,147.0
9678.997,183.0
9682.869,142.0
9686.742,164.0
9690.617,136.0
9694.493,130.0
9698.371,131.0
9702.25,154.0
9706.131,144.0
9710.014,151.0
9713.897,128.0
9717.783,147.0
9721.67,129.0
9725.559,149.0
9729.449,119.0
9733.341,119.0
9737.234,144.0
9741.129,143.0
9745.025,147.0
9748.924,151.0
9752.823,132.0
9756.725,175.0
9760.627,143.0
9764.531,152.0
9768.4375,137.0
9772.345,165.0
9776.254,152.0
9780.164,128.0
9784.076,157.0
9787.99,142.0
9791.905,146.0
9795.822,131.0
9799.74,161.0
9803.66,154.0
9807.582,135.0
9811.505,161.0
9815.43,148.0
9819.355,149.0
9823.283,148.0
9827.213,170.0
9831.144,155.0
9835.076,158.0
9839.01,126.0
9842.945,149.0
9846.883,173.0
9850.821,190.0
9854.762,153.0
9858.704,160.0
9862.647,152.0
9866.593,146.0
9870.539,145.0
9874.487,123.0
9878.4375,118.0
9882.389,149.0
9886.342,130.0
9890.296,132.0
9894.252,135.0
9898.21,133.0
9902.169,147.0
9906.13,152.0
9910.093,154.0
9914.057,157.0
9918.022,152.0
9921.989,157.0
9925.958,155.0
9929.929,129.0
9933.9,123.0
9937.874,153.0
9941.85,153.0
9945.826,121.0
9949.805,122.0
9953.784,148.0
9957.766,145.0
9961.749,148.0
9965.733,116.0
9969.72,166.0
9973.708,135.0
9977.697,113.0
9981.688,118.0
9985.681,131.0
9989.675,149.0
9993.671,121.0
9997.668,130.0
10001.667,130.0
10005.668,173.0
10009.67,135.0
10013.674,133.0
10017.68,143.0
10021.687,151.0
10025.695,150.0
10029.706,139.0
10033.718,134.0
10037.731,132.0
10041.746,125.0
10045.763,131.0
10049.781,144.0
10053.801,117.0
10057.822,141.0
10061.846,153.0
10065.87,138.0
10069.896,135.0
10073.925,130.0
10077.954,125.0
10081.985,131.0
10086.019,119.0
10090.053,133.0
10094.089,135.0
10098.127,156.0
10102.166,118.0
10106.207,140.0
10110.25,144.0
10114.294,143.0
10118.34,140.0
10122.387,135.0
10126.436,136.0
10130.486,153.0
10134.538,136.0
10138.592,137.0
10142.647,148.0
10146.704,160.0
10150.763,132.0
10154.823,136.0
10158.885,149.0
10162.948,153.0
10167.014,151.0
10171.08,127.0
10175.148,131.0
10179.219,143.0
10183.29,137.0
10187.363,125.0
10191.438,155.0
10195.515,152.0
10199.593,169.0
10203.673,154.0
10207.754,156.0
10211.837,153.0
10215.922,150.0
10220.008,154.0
10224.096,155.0
10228.186,162.0
10232.276,134.0
10236.369,139.0
10240.464,142.0
10244.56,152.0
10248.657,127.0
10252.757,149.0
10256.858,161.0
10260.961,144.0
10265.065,141.0
10269.172,134.0
10273.279,159.0
10277.389,153.0
10281.5,157.0
10285.612,130.0
10289.727,141.0
10293.843,146.0
10297.96,146.0
10302.079,178.0
10306.2,147.0
10310.322,150.0
10314.446,143.0
10318.572,141.0
10322.699,153.0
10326.828,153.0
10330.959,153.0
10335.092,163.0
10339.226,168.0
10343.361,163.0
10347.499,148.0
10351.638,153.0
10355.778,146.0
10359.921,151.0
10364.064,165.0
10368.21,150.0
10372.357,158.0
10376.507,168.0
10380.657,145.0
10384.81,158.0
10388.964,160.0
10393.119,149.0
10397.276,168.0
10401.436,151.0
10405.596,131.0
10409.758,123.0
10413.922,138.0
10418.088,142.0
10422.255,147.0
10426.424,131.0
10430.595,170.0
10434.767,176.0
10438.94,134.0
10443.116,155.0
10447.294,144.0
10451.473,121.0
10455.653,138.0
10459.836,138.0
10464.02,151.0
10468.205,150.0
10472.393,147.0
10476.581,153.0
10480.771,142.0
10484.964,169.0
10489.158,156.0
10493.354,164.0
10497.551,137.0
10501.75,146.0
10505.951,146.0
10510.153,140.0
10514.357,155.0
10518.563,184.0
10522.7705,134.0
10526.9795,143.0
10531.19,160.0
10535.403,158.0
10539.617,146.0
10543.833,147.0
10548.051,127.0
10552.27,148.0
10556.49,157.0
10560.713,158.0
10564.9375,157.0
10569.163,131.0
10573.391,167.0
10577.62,148.0
10581.852,180.0
10586.084,138.0
10590.318,143.0
10594.555,153.0
10598.793,147.0
10603.032,149.0
10607.273,176.0
10611.517,144.0
10615.761,182.0
10620.007,159.0
10624.255,166.0
10628.505,153.0
10632.756,170.0
10637.009,180.0
10641.264,173.0
10645.5205,146.0
10649.778,156.0
10654.038,174.0
10658.3,179.0
10662.563,172.0
10666.828,172.0
10671.095,156.0
10675.363,176.0
10679.634,169.0
10683.905,162.0
10688.179,162.0
10692.454,144.0
10696.731,157.0
10701.01,169.0
10705.29,157.0
10709.572,150.0
10713.856,163.0
10718.142,159.0
10722.429,159.0
10726.718,187.0
10731.009,170.0
10735.301,154.0
10739.595,192.0
10743.891,165.0
10748.188,170.0
10752.487,172.0
10756.788,177.0
10761.091,181.0
10765.3955,166.0
10769.702,148.0
10774.01,171.0
10778.319,165.0
10782.631,165.0
10786.944,169.0
10791.259,162.0
10795.575,161.0
10799.894,160.0
10804.214,182.0
10808.535,160.0
10812.858,160.0
10817.184,134.0
10821.511,163.0
10825.839,169.0
10830.169,174.0
10834.501,169.0
10838.835,159.0
10843.171,145.0
10847.508,163.0
10851.847,168.0
10856.1875,136.0
10860.53,179.0
10864.874,161.0
10869.22,162.0
10873.567,167.0
10877.917,144.0
10882.269,181.0
10886.621,170.0
10890.976,159.0
10895.332,177.0
10899.69,161.0
10904.051,168.0
10908.412,171.0
10912.775,180.0
10917.141,186.0
10921.508,148.0
10925.876,168.0
10930.246,184.0
10934.618,162.0
10938.992,170.0
10943.368,172.0
10947.745,162.0
10952.124,177.0
10956.505,158.0
10960.888,163.0
10965.272,162.0
10969.658,182.0
10974.046,147.0
10978.436,177.0
10982.827,169.0
10987.221,173.0
10991.615,147.0
10996.012,175.0
11000.41,187.0
11004.811,198.0
11009.213,153.0
11013.616,172.0
11018.021,195.0
11022.429,163.0
11026.838,144.0
11031.249,164.0
11035.661,201.0
11040.075,185.0
11044.491,166.0
11048.909,189.0
11053.329,191.0
11057.75,181.0
11062.173,185.0
11066.598,177.0
11071.024,171.0
11075.453,177.0
11079.884,170.0
11084.315,183.0
11088.749,164.0
11093.185,183.0
11097.622,180.0
11102.062,192.0
11106.502,188.0
11110.944,181.0
11115.389,168.0
11119.835,180.0
11124.283,191.0
11128.733,209.0
11133.185,185.0
11137.638,187.0
11142.093,216.0
11146.55,195.0
11151.009,177.0
11155.469,166.0
11159.931,222.0
11164.395,177.0
11168.86,176.0
11173.328,189.0
11177.798,189.0
11182.269,198.0
11186.741,190.0
11191.216,208.0
11195.692,226.0
11200.171,223.0
11204.651,200.0
11209.133,181.0
11213.616,220.0
11218.102,198.0
11222.589,214.0
11227.078,233.0
11231.569,209.0
11236.062,224.0
11240.556,217.0
11245.052,219.0
11249.55,195.0
11254.05,195.0
11258.552,197.0
11263.056,204.0
11267.561,233.0
11272.067,233.0
11276.576,181.0
11281.087,225.0
11285.6,214.0
11290.114,226.0
11294.63,227.0
11299.147,211.0
11303.667,222.0
11308.188,236.0
11312.712,242.0
11317.237,261.0
11321.765,259.0
11326.293,244.0
11330.823,267.0
11335.355,233.0
11339.89,261.0
11344.426,280.0
11348.964,269.0
11353.504,280.0
11358.045,285.0
11362.588,276.0
11367.133,308.0
11371.68,314.0
11376.229,325.0
11380.779,300.0
11385.332,289.0
11389.886,318.0
11394.441,319.0
11398.999,366.0
11403.559,310.0
11408.12,346.0
11412.684,358.0
11417.249,370.0
11421.816,360.0
11426.385,364.0
11430.955,376.0
11435.527,407.0
11440.102,387.0
11444.678,433.0
11449.256,417.0
11453.836,395.0
11458.417,439.0
11463.0,440.0
11467.585,422.0
11472.172,475.0
11476.761,470.0
11481.352,474.0
11485.944,513.0
11490.539,505.0
11495.136,545.0
11499.733,543.0
11504.333,522.0
11508.935,552.0
11513.538,574.0
11518.144,572.0
11522.751,509.0
11527.36,651.0
11531.972,583.0
11536.584,572.0
11541.198,557.0
11545.814,647.0
11550.433,645.0
11555.053,532.0
11559.675,643.0
11564.299,659.0
11568.925,594.0
11573.553,626.0
11578.183,733.0
11582.813,648.0
11587.446,580.0
11592.081,662.0
11596.718,741.0
11601.356,642.0
11605.997,638.0
11610.64,740.0
11615.284,738.0
11619.931,603.0
11624.579,691.0
11629.229,755.0
11633.88,693.0
11638.533,681.0
11643.188,843.0
11647.846,705.0
11652.505,488.0
11657.166,684.0
11661.829,833.0
11666.494,585.0
11671.161,510.0
11675.83,944.0
11680.5,973.0
11685.172,602.0
11689.846,487.0
11694.521,575.0
11699.199,437.0
11703.879,388.0
11708.561,395.0
11713.244,364.0
11717.93,326.0
11722.617,349.0
11727.307,320.0
11731.998,296.0
11736.69,265.0
11741.385,334.0
11746.081,294.0
11750.779,259.0
11755.4795,271.0
11760.182,292.0
11764.886,269.0
11769.592,279.0
11774.3,297.0
11779.01,296.0
11783.722,312.0
11788.436,295.0
11793.151,307.0
11797.868,273.0
11802.587,269.0
11807.308,255.0
11812.03,232.0
11816.755,290.0
11821.481,287.0
11826.21,271.0
11830.94,259.0
11835.673,239.0
11840.407,247.0
11845.144,252.0
11849.882,252.0
11854.622,224.0
11859.364,188.0
11864.108,230.0
11868.8545,259.0
11873.602,211.0
11878.351,194.0
11883.102,232.0
11887.8545,181.0
11892.609,187.0
11897.366,223.0
11902.125,201.0
11906.886,203.0
11911.648,192.0
11916.413,191.0
11921.18,191.0
11925.948,179.0
11930.719,213.0
11935.491,192.0
11940.266,206.0
11945.042,186.0
11949.82,189.0
11954.601,201.0
11959.383,205.0
11964.167,177.0
11968.953,182.0
11973.74,201.0
11978.529,198.0
11983.32,224.0
11988.113,180.0
11992.908,146.0
