M/Z,Intensity
800.0,112.0
800.32,155.0
800.64014,53.0
800.9604,111.0
801.28076,268.0
801.60126,69.0
801.9219,81.0
802.2426,191.0
802.56354,86.0
802.8846,224.0
803.20575,193.0
803.52704,82.0
803.84845,78.0
804.17,188.0
804.49164,85.0
804.8134,45.0
805.1353,139.0
805.4574,109.0
805.7796,47.0
806.1019,152.0
806.4244,102.0
806.74695,58.0
807.06964,103.0
807.39246,141.0
807.7154,52.0
808.03845,106.0
808.3617,140.0
808.68506,47.0
809.00854,98.0
809.33215,194.0
809.6559,71.0
809.97974,87.0
810.3037,184.0
810.6278,63.0
810.9521,87.0
811.2765,147.0
811.601,67.0
811.92566,93.0
812.2504,170.0
812.5753,60.0
812.9003,76.0
813.22546,127.0
813.5508,65.0
813.8762,79.0
814.2018,147.0
814.52747,77.0
814.8533,62.0
815.1792,157.0
815.50525,110.0
815.8314,48.0
816.1578,127.0
816.48425,112.0
816.81085,102.0
817.1376,189.0
817.4644,125.0
817.7914,65.0
818.11847,182.0
818.44574,96.0
818.77313,66.0
819.10065,123.0
819.4283,100.0
819.75604,49.0
820.0839,122.0
820.412,123.0
820.7402,45.0
821.0685,121.0
821.3969,131.0
821.72546,53.0
822.05414,82.0
822.38293,113.0
822.7119,70.0
823.041,175.0
823.37024,113.0
823.6996,45.0
824.02905,131.0
824.35864,145.0
824.6884,154.0
825.0183,1430.0
825.3483,177.0
825.67847,61.0
826.0087,705.0
826.3391,149.0
826.6696,65.0
827.0003,254.0
827.3311,141.0
827.66205,44.0
827.9931,116.0
828.3243,115.0
828.65564,59.0
828.9871,93.0
829.3187,127.0
829.65045,55.0
829.9823,77.0
830.3143,164.0
830.6464,50.0
830.9787,99.0
831.3111,159.0
831.6436,42.0
831.97626,79.0
832.309,122.0
832.64197,50.0
832.97504,109.0
833.3082,137.0
833.64154,54.0
833.975,92.0
834.3086,150.0
834.64233,50.0
834.9762,121.0
835.3102,128.0
835.6443,51.0
835.9785,84.0
836.3129,149.0
836.64746,63.0
836.9821,139.0
837.3169,130.0
837.6518,45.0
837.9869,104.0
838.3221,148.0
838.6574,57.0
838.99286,383.0
839.3284,148.0
839.6642,56.0
840.00006,234.0
840.33606,169.0
840.6722,70.0
841.0084,372.0
841.34485,157.0
841.6814,57.0
842.01807,180.0
842.35486,172.0
842.6918,44.0
843.0289,181.0
843.3661,138.0
843.7034,47.0
844.0409,105.0
844.37854,126.0
844.7163,62.0
845.0542,272.0
845.3922,241.0
845.73035,56.0
846.06866,176.0
846.4071,162.0
846.74567,55.0
847.08435,137.0
847.42316,124.0
847.76215,67.0
848.10126,128.0
848.4405,104.0
848.77985,72.0
849.1194,127.0
849.45905,133.0
849.7988,65.0
850.13873,122.0
850.47876,108.0
850.819,48.0
851.1593,108.0
851.49976,88.0
851.84033,66.0
852.1811,123.0
852.522,87.0
852.863,72.0
853.2041,132.0
853.5454,82.0
853.88684,71.0
854.2284,124.0
854.57007,61.0
854.9119,281.0
855.2539,149.0
855.596,71.0
855.93823,177.0
856.2806,146.0
856.6231,57.0
856.96576,139.0
857.30853,164.0
857.6514,57.0
857.9945,100.0
858.3377,155.0
858.681,57.0
859.0245,114.0
859.3681,143.0
859.71185,57.0
860.0557,115.0
860.3997,138.0
860.7439,321.0
861.0882,643.0
861.4326,162.0
861.77716,234.0
862.1219,280.0
862.46674,123.0
862.8117,164.0
863.15686,140.0
863.50214,109.0
863.84753,110.0
864.19305,124.0
864.53876,73.0
864.8846,81.0
865.2305,164.0
865.5766,89.0
865.92285,75.0
866.2692,133.0
866.6157,66.0
866.96234,140.0
867.30914,138.0
867.65607,58.0
868.0031,106.0
868.35034,136.0
868.6977,58.0
869.04517,106.0
869.39276,110.0
869.74054,40.0
870.08844,86.0
870.43646,87.0
870.7846,65.0
871.13293,101.0
871.4814,68.0
871.82996,61.0
872.1787,117.0
872.5276,73.0
872.8766,103.0
873.2257,148.0
873.575,53.0
873.92444,74.0
874.274,137.0
874.6237,47.0
874.9736,89.0
875.32355,137.0
875.6737,43.0
876.024,96.0
876.3744,162.0
876.7249,127.0
877.0756,208.0
877.42645,162.0
877.7774,114.0
878.12854,130.0
878.4798,112.0
878.8312,108.0
879.18274,115.0
879.5344,87.0
879.8862,74.0
880.23816,145.0
880.5903,64.0
880.9425,83.0
881.29486,153.0
881.6474,43.0
882.00006,65.0
882.35284,121.0
882.7058,66.0
883.0589,122.0
883.4121,111.0
883.7655,63.0
884.119,95.0
884.47266,116.0
884.8264,61.0
885.18036,114.0
885.5344,82.0
885.8886,73.0
886.243,110.0
886.5975,55.0
886.9521,71.0
887.3069,139.0
887.6618,53.0
888.01685,98.0
888.3721,118.0
888.7274,62.0
889.0829,124.0
889.43854,182.0
889.7943,55.0
890.1502,118.0
890.5063,152.0
890.8625,76.0
891.2188,142.0
891.5753,75.0
891.93195,47.0
892.2887,158.0
892.6456,45.0
893.0027,90.0
893.35986,156.0
893.7172,65.0
894.0747,96.0
894.4323,118.0
894.7901,72.0
895.148,96.0
895.50604,91.0
895.86426,76.0
896.2226,112.0
896.58105,54.0
896.9397,72.0
897.29846,133.0
897.6574,41.0
898.0165,60.0
898.3757,127.0
898.73505,51.0
899.09454,107.0
899.45416,104.0
899.81396,59.0
900.1739,115.0
900.53394,75.0
900.89417,60.0
901.2545,123.0
901.615,57.0
901.97565,64.0
902.3364,126.0
902.6974,38.0
903.0585,95.0
903.4197,142.0
903.78107,81.0
904.1426,103.0
904.5042,133.0
904.866,82.0
905.22797,156.0
905.5901,79.0
905.95233,75.0
906.3147,147.0
906.67725,52.0
907.0399,85.0
907.4027,116.0
907.7657,46.0
908.1288,106.0
908.49207,101.0
908.85547,57.0
909.219,118.0
909.5827,79.0
909.94653,56.0
910.3105,120.0
910.6746,54.0
911.0389,91.0
911.4033,116.0
911.7679,41.0
912.13257,99.0
912.49744,96.0
912.8624,63.0
913.2276,96.0
913.5929,84.0
913.9583,60.0
914.3239,133.0
914.68964,44.0
915.05554,81.0
915.4216,111.0
915.7877,45.0
916.15405,81.0
916.5205,79.0
916.88715,67.0
917.2539,117.0
917.6208,57.0
917.98785,60.0
918.35504,130.0
918.7224,44.0
919.0899,93.0
919.4575,103.0
919.8253,58.0
920.19324,159.0
920.56134,78.0
920.92957,54.0
921.2979,148.0
921.66644,53.0
922.0351,72.0
922.40393,151.0
922.7729,47.0
923.14197,107.0
923.5112,117.0
923.8806,51.0
924.2502,102.0
924.6199,53.0
924.98975,62.0
925.35974,108.0
925.72986,60.0
926.10016,81.0
926.4706,93.0
926.8412,46.0
927.2119,91.0
927.5828,62.0
927.95386,71.0
928.325,95.0
928.69635,56.0
929.0678,79.0
929.43945,120.0
929.8112,56.0
930.18317,118.0
930.55524,94.0
930.9274,74.0
931.2998,127.0
931.6723,56.0
932.045,74.0
932.4178,99.0
932.7908,50.0
933.1639,107.0
933.5372,173.0
933.9106,57.0
934.2841,131.0
934.65784,53.0
935.0317,69.0
935.4057,106.0
935.77985,44.0
936.1542,100.0
936.5286,81.0
936.90326,60.0
937.278,131.0
937.65295,77.0
938.028,81.0
938.4032,105.0
938.77856,53.0
939.15405,85.0
939.5297,79.0
939.9055,55.0
940.2815,108.0
940.6576,53.0
941.0339,68.0
941.4103,83.0
941.78687,47.0
942.1636,101.0
942.54047,93.0
942.9175,65.0
943.2947,99.0
943.672,49.0
944.04944,75.0
944.42706,103.0
944.8048,56.0
945.18274,93.0
945.5608,75.0
945.939,75.0
946.3174,111.0
946.6959,44.0
947.0746,76.0
947.4534,101.0
947.8324,68.0
948.21155,113.0
948.5908,73.0
948.9703,81.0
949.34985,111.0
949.7296,48.0
950.1095,82.0
950.48956,90.0
950.86975,57.0
951.2501,128.0
951.6306,64.0
952.0113,63.0
952.3921,98.0
952.7731,49.0
953.1542,94.0
953.53546,87.0
953.9169,42.0
954.29846,154.0
954.6802,55.0
955.0621,68.0
955.4441,134.0
955.8263,44.0
956.2086,83.0
956.5911,62.0
956.97375,68.0
957.35657,132.0
957.7395,53.0
958.1226,94.0
958.50586,87.0
958.8893,63.0
959.2728,102.0
959.65656,56.0
960.0404,76.0
960.42444,107.0
960.8086,49.0
961.19293,90.0
961.5774,76.0
961.96204,80.0
962.3468,126.0
962.73175,39.0
963.1168,98.0
963.5021,104.0
963.88745,62.0
964.273,106.0
964.6587,52.0
965.04456,76.0
965.4306,121.0
965.8168,59.0
966.2031,111.0
966.5896,87.0
966.97626,70.0
967.36304,115.0
967.75,43.0
968.1371,97.0
968.52435,104.0
968.91174,60.0
969.2993,118.0
969.687,67.0
970.0749,107.0
970.4629,114.0
970.8511,65.0
971.23944,108.0
971.6279,63.0
972.0166,70.0
972.4054,102.0
972.7944,45.0
973.1835,98.0
973.57275,75.0
973.96216,54.0
974.35175,128.0
974.7415,48.0
975.1314,79.0
975.5215,107.0
975.9117,56.0
976.30206,117.0
976.69257,70.0
977.08325,72.0
977.47406,138.0
977.86505,53.0
978.2562,113.0
978.6475,65.0
979.039,63.0
979.4306,106.0
979.8224,45.0
980.2143,109.0
980.6064,65.0
980.99866,54.0
981.39105,114.0
981.7836,61.0
982.17633,119.0
982.5692,91.0
982.9622,91.0
983.3554,93.0
983.7488,63.0
984.1423,107.0
984.53595,88.0
984.92975,68.0
985.3237,102.0
985.71783,70.0
986.1121,110.0
986.5066,85.0
986.9012,72.0
987.29596,108.0
987.69086,49.0
988.08594,90.0
988.4812,94.0
988.8766,71.0
989.27216,100.0
989.66785,48.0
990.0637,84.0
990.4597,106.0
990.8559,52.0
991.25226,115.0
991.64874,59.0
992.0454,99.0
992.4422,109.0
992.8392,53.0
993.2363,102.0
993.6336,67.0
994.03107,91.0
994.42865,105.0
994.8264,71.0
995.22437,132.0
995.62244,78.0
996.0207,93.0
996.4191,104.0
996.8177,46.0
997.21643,109.0
997.6153,65.0
998.01434,60.0
998.4136,115.0
998.8129,48.0
999.21246,105.0
999.6121,66.0
1000.01196,87.0
1000.412,117.0
1000.81213,53.0
1001.21246,89.0
1001.613,76.0
1002.0136,99.0
1002.4144,97.0
1002.81537,54.0
1003.2165,119.0
1003.6178,71.0
1004.0192,67.0
1004.42084,133.0
1004.82263,56.0
1005.22455,109.0
1005.62665,85.0
1006.0289,129.0
1006.4313,109.0
1006.83386,81.0
1007.2366,109.0
1007.63947,84.0
1008.04254,149.0
1008.44574,110.0
1008.8491,82.0
1009.2527,117.0
1009.6564,95.0
1010.06024,94.0
1010.4643,124.0
1010.86847,58.0
1011.2728,104.0
1011.6773,56.0
1012.082,80.0
1012.4868,103.0
1012.8918,51.0
1013.29694,119.0
1013.7023,66.0
1014.1077,140.0
1014.51337,106.0
1014.9192,90.0
1015.32513,120.0
1015.73126,66.0
1016.1376,92.0
1016.544,77.0
1016.9506,78.0
1017.3574,128.0
1017.76434,62.0
1018.17145,105.0
1018.57874,86.0
1018.98615,71.0
1019.39374,112.0
1019.8015,55.0
1020.2094,92.0
1020.6175,76.0
1021.02576,76.0
1021.43414,141.0
1021.8427,77.0
1022.25146,130.0
1022.66034,80.0
1023.0694,75.0
1023.47864,106.0
1023.888,68.0
1024.2976,105.0
1024.7073,52.0
1025.1172,89.0
1025.5272,112.0
1025.9374,63.0
1026.3478,102.0
1026.7583,51.0
1027.169,72.0
1027.5798,83.0
1027.9908,114.0
1028.4021,109.0
1028.8135,71.0
1029.225,114.0
1029.6367,94.0
1030.0486,174.0
1030.4606,112.0
1030.8728,105.0
1031.2852,127.0
1031.6976,57.0
1032.1104,113.0
1032.5232,92.0
1032.9362,90.0
1033.3494,104.0
1033.7627,66.0
1034.1761,113.0
1034.5898,83.0
1035.0037,92.0
1035.4177,89.0
1035.8319,67.0
1036.2462,104.0
1036.6608,69.0
1037.0754,95.0
1037.4902,114.0
1037.9053,60.0
1038.3204,103.0
1038.7357,71.0
1039.1512,98.0
1039.5669,100.0
1039.9827,70.0
1040.3987,109.0
1040.8148,64.0
1041.2312,114.0
1041.6477,72.0
1042.0643,71.0
1042.4812,107.0
1042.8982,57.0
1043.3153,119.0
1043.7327,75.0
1044.1501,119.0
1044.5677,92.0
1044.9856,86.0
1045.4036,100.0
1045.8218,80.0
1046.2401,116.0
1046.6586,84.0
1047.0773,72.0
1047.4961,129.0
1047.915,74.0
1048.3342,136.0
1048.7535,55.0
1049.1731,106.0
1049.5928,113.0
1050.0126,195.0
1050.4326,107.0
1050.8528,131.0
1051.2731,108.0
1051.6936,66.0
1052.1143,117.0
1052.5352,84.0
1052.9562,62.0
1053.3773,154.0
1053.7987,93.0
1054.2202,126.0
1054.6418,97.0
1055.0637,83.0
1055.4857,94.0
1055.908,88.0
1056.3303,137.0
1056.7528,61.0
1057.1755,110.0
1057.5984,106.0
1058.0215,73.0
1058.4447,124.0
1058.868,56.0
1059.2916,122.0
1059.7153,91.0
1060.1392,126.0
1060.5632,122.0
1060.9874,77.0
1061.4119,130.0
1061.8364,73.0
1062.2611,107.0
1062.686,60.0
1063.1111,75.0
1063.5364,104.0
1063.9618,88.0
1064.3873,114.0
1064.8131,85.0
1065.239,115.0
1065.6652,136.0
1066.0914,176.0
1066.5178,131.0
1066.9445,168.0
1067.3712,119.0
1067.7982,124.0
1068.2253,109.0
1068.6526,78.0
1069.0801,94.0
1069.5077,119.0
1069.9355,89.0
1070.3635,123.0
1070.7916,76.0
1071.22,90.0
1071.6484,102.0
1072.0771,129.0
1072.506,113.0
1072.9349,107.0
1073.3641,146.0
1073.7935,74.0
1074.223,131.0
1074.6527,107.0
1075.0825,83.0
1075.5126,119.0
1075.9427,85.0
1076.3732,117.0
1076.8037,46.0
1077.2344,91.0
1077.6653,61.0
1078.0963,103.0
1078.5276,91.0
1078.959,75.0
1079.3906,104.0
1079.8224,70.0
1080.2543,103.0
1080.6864,77.0
1081.1187,92.0
1081.5511,95.0
1081.9838,103.0
1082.4165,94.0
1082.8495,80.0
1083.2826,110.0
1083.716,65.0
1084.1494,94.0
1084.5831,97.0
1085.017,79.0
1085.4509,132.0
1085.8851,75.0
1086.3195,105.0
1086.754,61.0
1087.1887,71.0
1087.6235,80.0
1088.0586,107.0
1088.4938,105.0
1088.9292,88.0
1089.3647,116.0
1089.8005,85.0
1090.2365,196.0
1090.6725,143.0
1091.1088,114.0
1091.5452,181.0
1091.9818,86.0
1092.4186,142.0
1092.8556,53.0
1093.2927,122.0
1093.7301,79.0
1094.1676,88.0
1094.6052,82.0
1095.0431,96.0
1095.4811,122.0
1095.9193,73.0
1096.3577,108.0
1096.7963,67.0
1097.235,106.0
1097.6738,99.0
1098.1129,80.0
1098.5521,119.0
1098.9916,68.0
1099.4312,109.0
1099.871,68.0
1100.3109,125.0
1100.751,77.0
1101.1913,86.0
1101.6317,85.0
1102.0724,75.0
1102.5132,99.0
1102.9542,76.0
1103.3954,122.0
1103.8368,83.0
1104.2783,95.0
1104.72,65.0
1105.1619,71.0
1105.6039,95.0
1106.0461,74.0
1106.4885,116.0
1106.9312,83.0
1107.3739,104.0
1107.8169,65.0
1108.26,102.0
1108.7034,74.0
1109.1469,92.0
1109.5905,107.0
1110.0343,57.0
1110.4783,113.0
1110.9225,69.0
1111.3668,125.0
1111.8114,77.0
1112.2561,130.0
1112.701,78.0
1113.1461,100.0
1113.5914,91.0
1114.0369,73.0
1114.4824,109.0
1114.9282,58.0
1115.3741,119.0
1115.8203,80.0
1116.2666,109.0
1116.7131,76.0
1117.1598,90.0
1117.6067,77.0
1118.0537,85.0
1118.501,120.0
1118.9484,65.0
1119.396,117.0
1119.8438,62.0
1120.2917,86.0
1120.7399,61.0
1121.1881,87.0
1121.6366,85.0
1122.0852,66.0
1122.534,98.0
1122.983,89.0
1123.4323,89.0
1123.8816,66.0
1124.3312,100.0
1124.7809,56.0
1125.2308,97.0
1125.6809,77.0
1126.1312,73.0
1126.5817,102.0
1127.0323,63.0
1127.4832,93.0
1127.9342,67.0
1128.3854,100.0
1128.8367,64.0
1129.2882,105.0
1129.7399,63.0
1130.1918,95.0
1130.6438,96.0
1131.0961,73.0
1131.5485,109.0
1132.0011,62.0
1132.4539,113.0
1132.9069,65.0
1133.36,114.0
1133.8134,72.0
1134.2668,105.0
1134.7206,79.0
1135.1744,75.0
1135.6285,107.0
1136.0828,62.0
1136.5372,93.0
1136.9918,72.0
1137.4467,108.0
1137.9016,59.0
1138.3568,102.0
1138.8121,66.0
1139.2677,88.0
1139.7234,62.0
1140.1793,104.0
1140.6354,70.0
1141.0917,88.0
1141.5481,127.0
1142.0048,78.0
1142.4615,121.0
1142.9186,64.0
1143.3757,106.0
1143.8331,55.0
1144.2906,111.0
1144.7484,48.0
1145.2063,88.0
1145.6644,71.0
1146.1227,78.0
1146.5812,80.0
1147.0398,79.0
1147.4987,87.0
1147.9576,77.0
1148.4169,129.0
1148.8762,62.0
1149.3358,134.0
1149.7955,59.0
1150.2555,88.0
1150.7156,80.0
1151.1759,85.0
1151.6364,97.0
1152.097,73.0
1152.5579,95.0
1153.0189,61.0
1153.4801,103.0
1153.9415,61.0
1154.4031,127.0
1154.8649,50.0
1155.3268,106.0
1155.789,75.0
1156.2512,99.0
1156.7137,78.0
1157.1764,73.0
1157.6393,92.0
1158.1023,74.0
1158.5656,94.0
1159.0289,68.0
1159.4926,120.0
1159.9563,68.0
1160.4203,120.0
1160.8844,53.0
1161.3488,82.0
1161.8134,46.0
1162.2781,101.0
1162.743,64.0
1163.2081,83.0
1163.6735,100.0
1164.1389,94.0
1164.6046,106.0
1165.0704,77.0
1165.5365,98.0
1166.0027,70.0
1166.4691,105.0
1166.9357,79.0
1167.4025,101.0
1167.8694,66.0
1168.3365,122.0
1168.8038,65.0
1169.2714,81.0
1169.739,101.0
1170.2069,94.0
1170.675,84.0
1171.1433,87.0
1171.6118,92.0
1172.0804,83.0
1172.5493,91.0
1173.0183,69.0
1173.4875,106.0
1173.9569,64.0
1174.4265,116.0
1174.8962,75.0
1175.3662,103.0
1175.8363,68.0
1176.3066,116.0
1176.7772,68.0
1177.2479,103.0
1177.7189,73.0
1178.19,78.0
1178.6613,67.0
1179.1327,76.0
1179.6044,84.0
1180.0762,77.0
1180.5482,102.0
1181.0204,64.0
1181.4928,93.0
1181.9655,71.0
1182.4382,103.0
1182.9113,85.0
1183.3844,115.0
1183.8578,65.0
1184.3313,95.0
1184.805,65.0
1185.2789,128.0
1185.753,87.0
1186.2273,98.0
1186.7018,91.0
1187.1765,75.0
1187.6514,95.0
1188.1265,80.0
1188.6017,108.0
1189.0771,79.0
1189.5527,101.0
1190.0286,70.0
1190.5045,107.0
1190.9807,59.0
1191.4572,120.0
1191.9337,57.0
1192.4105,119.0
1192.8875,44.0
1193.3646,113.0
1193.8419,57.0
1194.3195,115.0
1194.7972,71.0
1195.2751,87.0
1195.7533,77.0
1196.2316,80.0
1196.7101,70.0
1197.1887,96.0
1197.6676,85.0
1198.1467,87.0
1198.626,115.0
1199.1055,84.0
1199.5851,109.0
1200.065,61.0
1200.5449,118.0
1201.0251,72.0
1201.5056,95.0
1201.9862,57.0
1202.467,115.0
1202.948,70.0
1203.4292,97.0
1203.9105,65.0
1204.3921,104.0
1204.8739,65.0
1205.3558,113.0
1205.838,65.0
1206.3203,98.0
1206.8029,57.0
1207.2855,107.0
1207.7684,80.0
1208.2516,106.0
1208.7349,71.0
1209.2184,81.0
1209.702,72.0
1210.1859,78.0
1210.67,94.0
1211.1543,85.0
1211.6388,97.0
1212.1234,78.0
1212.6083,101.0
1213.0933,87.0
1213.5785,97.0
1214.064,80.0
1214.5496,101.0
1215.0354,62.0
1215.5214,93.0
1216.0076,73.0
1216.494,128.0
1216.9806,59.0
1217.4674,100.0
1217.9543,63.0
1218.4415,125.0
1218.929,89.0
1219.4165,113.0
1219.9043,66.0
1220.3922,95.0
1220.8804,58.0
1221.3688,108.0
1221.8573,60.0
1222.3461,89.0
1222.835,74.0
1223.3241,108.0
1223.8135,74.0
1224.303,98.0
1224.7927,65.0
1225.2826,111.0
1225.7727,68.0
1226.2631,76.0
1226.7535,73.0
1227.2443,104.0
1227.7351,93.0
1228.2262,91.0
1228.7175,74.0
1229.209,91.0
1229.7007,112.0
1230.1925,83.0
1230.6846,92.0
1231.1769,101.0
1231.6693,82.0
1232.162,77.0
1232.6549,100.0
1233.148,89.0
1233.6412,77.0
1234.1346,79.0
1234.6283,92.0
1235.1222,89.0
1235.6162,94.0
1236.1105,73.0
1236.6049,112.0
1237.0995,61.0
1237.5944,90.0
1238.0894,69.0
1238.5846,97.0
1239.0801,72.0
1239.5757,73.0
1240.0715,70.0
1240.5675,90.0
1241.0637,87.0
1241.5602,93.0
1242.0568,75.0
1242.5536,104.0
1243.0507,58.0
1243.5479,108.0
1244.0453,66.0
1244.5428,99.0
1245.0406,66.0
1245.5387,90.0
1246.0369,64.0
1246.5353,130.0
1247.0339,80.0
1247.5327,137.0
1248.0317,77.0
1248.531,120.0
1249.0304,62.0
1249.53,111.0
1250.0298,58.0
1250.5298,106.0
1251.03,82.0
1251.5304,104.0
1252.031,63.0
1252.5319,97.0
1253.0328,61.0
1253.534,114.0
1254.0355,75.0
1254.5371,103.0
1255.039,101.0
1255.541,108.0
1256.0432,80.0
1256.5457,112.0
1257.0482,72.0
1257.551,100.0
1258.0541,72.0
1258.5573,92.0
1259.0607,79.0
1259.5643,89.0
1260.0681,77.0
1260.5721,109.0
1261.0764,97.0
1261.5808,106.0
1262.0854,98.0
1262.5903,99.0
1263.0953,100.0
1263.6006,116.0
1264.1061,80.0
1264.6117,108.0
1265.1176,77.0
1265.6237,112.0
1266.1299,59.0
1266.6364,75.0
1267.1431,83.0
1267.6499,113.0
1268.157,103.0
1268.6642,82.0
1269.1716,71.0
1269.6793,111.0
1270.1871,70.0
1270.6952,109.0
1271.2035,76.0
1271.7119,98.0
1272.2206,92.0
1272.7295,83.0
1273.2385,76.0
1273.7478,85.0
1274.2573,85.0
1274.767,72.0
1275.2769,92.0
1275.787,72.0
1276.2972,91.0
1276.8077,127.0
1277.3185,100.0
1277.8295,100.0
1278.3406,93.0
1278.8519,85.0
1279.3635,120.0
1279.8752,62.0
1280.3872,110.0
1280.8994,70.0
1281.4117,85.0
1281.9243,66.0
1282.4371,90.0
1282.9501,74.0
1283.4633,92.0
1283.9767,74.0
1284.4902,112.0
1285.004,80.0
1285.5181,108.0
1286.0322,64.0
1286.5466,92.0
1287.0613,69.0
1287.576,106.0
1288.0911,64.0
1288.6063,125.0
1289.1218,76.0
1289.6375,108.0
1290.1533,94.0
1290.6694,97.0
1291.1857,75.0
1291.7021,83.0
1292.2189,77.0
1292.7357,101.0
1293.2528,98.0
1293.7701,101.0
1294.2876,76.0
1294.8053,63.0
1295.3232,86.0
1295.8414,59.0
1296.3597,105.0
1296.8783,48.0
1297.3971,94.0
1297.916,57.0
1298.4352,82.0
1298.9546,75.0
1299.4741,98.0
1299.9939,74.0
1300.5139,110.0
1301.0342,65.0
1301.5546,132.0
1302.0752,84.0
1302.5961,103.0
1303.1171,89.0
1303.6383,93.0
1304.1598,88.0
1304.6814,101.0
1305.2032,90.0
1305.7253,94.0
1306.2477,85.0
1306.7701,73.0
1307.2928,94.0
1307.8158,60.0
1308.3389,83.0
1308.8622,59.0
1309.3857,91.0
1309.9095,67.0
1310.4335,109.0
1310.9576,81.0
1311.482,80.0
1312.0066,55.0
1312.5314,95.0
1313.0564,56.0
1313.5817,99.0
1314.107,75.0
1314.6327,97.0
1315.1586,65.0
1315.6847,95.0
1316.2109,73.0
1316.7374,84.0
1317.2642,77.0
1317.791,67.0
1318.3181,77.0
1318.8455,58.0
1319.373,81.0
1319.9008,72.0
1320.4287,85.0
1320.9569,71.0
1321.4854,90.0
1322.0139,45.0
1322.5427,105.0
1323.0718,67.0
1323.601,107.0
1324.1304,78.0
1324.66,85.0
1325.19,72.0
1325.72,80.0
1326.2502,87.0
1326.7808,78.0
1327.3115,76.0
1327.8424,80.0
1328.3735,97.0
1328.9049,64.0
1329.4365,90.0
1329.9683,59.0
1330.5002,96.0
1331.0325,63.0
1331.565,103.0
1332.0975,53.0
1332.6304,111.0
1333.1635,76.0
1333.6968,111.0
1334.2302,78.0
1334.7639,86.0
1335.2979,93.0
1335.832,75.0
1336.3663,111.0
1336.9009,57.0
1337.4357,80.0
1337.9707,69.0
1338.5059,105.0
1339.0413,48.0
1339.5769,92.0
1340.1128,63.0
1340.6488,88.0
1341.185,69.0
1341.7216,85.0
1342.2583,61.0
1342.7952,65.0
1343.3323,89.0
1343.8696,67.0
1344.4072,104.0
1344.945,52.0
1345.4829,99.0
1346.0211,54.0
1346.5596,117.0
1347.0981,78.0
1347.637,80.0
1348.176,81.0
1348.7153,99.0
1349.2548,91.0
1349.7944,95.0
1350.3344,111.0
1350.8745,74.0
1351.4149,104.0
1351.9554,66.0
1352.4962,105.0
1353.0372,63.0
1353.5785,88.0
1354.1199,78.0
1354.6615,88.0
1355.2034,88.0
1355.7455,72.0
1356.2878,84.0
1356.8303,89.0
1357.373,104.0
1357.916,59.0
1358.4592,100.0
1359.0026,76.0
1359.5461,103.0
1360.09,61.0
1360.634,100.0
1361.1783,66.0
1361.7228,105.0
1362.2675,92.0
1362.8124,89.0
1363.3575,103.0
1363.9028,61.0
1364.4484,110.0
1364.9941,70.0
1365.5402,110.0
1366.0864,61.0
1366.6328,84.0
1367.1794,72.0
1367.7263,86.0
1368.2734,86.0
1368.8208,61.0
1369.3683,86.0
1369.916,64.0
1370.464,85.0
1371.0122,58.0
1371.5607,101.0
1372.1093,72.0
1372.6581,113.0
1373.2072,84.0
1373.7565,92.0
1374.306,103.0
1374.8557,64.0
1375.4056,121.0
1375.9558,62.0
1376.5062,109.0
1377.0569,69.0
1377.6077,117.0
1378.1587,70.0
1378.71,96.0
1379.2615,83.0
1379.8132,69.0
1380.3651,94.0
1380.9172,55.0
1381.4696,98.0
1382.0222,46.0
1382.5751,104.0
1383.128,62.0
1383.6813,118.0
1384.2347,90.0
1384.7885,101.0
1385.3424,92.0
1385.8965,66.0
1386.4508,106.0
1387.0054,76.0
1387.5602,100.0
1388.1152,71.0
1388.6705,81.0
1389.226,80.0
1389.7816,102.0
1390.3375,86.0
1390.8937,75.0
1391.4501,103.0
1392.0067,81.0
1392.5635,106.0
1393.1205,66.0
1393.6777,93.0
1394.2352,70.0
1394.793,74.0
1395.3508,89.0
1395.9089,73.0
1396.4673,105.0
1397.0259,79.0
1397.5847,76.0
1398.1438,77.0
1398.703,123.0
1399.2625,76.0
1399.8221,79.0
1400.3821,82.0
1400.9423,70.0
1401.5027,108.0
1402.0632,64.0
1402.624,88.0
1403.185,76.0
1403.7463,99.0
1404.3079,110.0
1404.8696,79.0
1405.4315,116.0
1405.9937,69.0
1406.556,136.0
1407.1187,86.0
1407.6815,111.0
1408.2446,84.0
1408.808,89.0
1409.3715,108.0
1409.9352,71.0
1410.4991,103.0
1411.0634,75.0
1411.6278,78.0
1412.1925,72.0
1412.7573,85.0
1413.3224,112.0
1413.8877,79.0
1414.4532,111.0
1415.019,75.0
1415.5851,112.0
1416.1514,74.0
1416.7178,103.0
1417.2844,103.0
1417.8513,93.0
1418.4185,107.0
1418.9858,71.0
1419.5535,132.0
1420.1213,63.0
1420.6893,103.0
1421.2576,85.0
1421.826,96.0
1422.3948,124.0
1422.9637,69.0
1423.533,117.0
1424.1024,84.0
1424.672,119.0
1425.2418,99.0
1425.8119,102.0
1426.3822,111.0
1426.9528,65.0
1427.5236,130.0
1428.0946,90.0
1428.6659,94.0
1429.2373,104.0
1429.809,91.0
1430.3809,101.0
1430.953,58.0
1431.5254,98.0
1432.098,75.0
1432.6709,107.0
1433.244,91.0
1433.8173,107.0
1434.3907,106.0
1434.9645,76.0
1435.5385,123.0
1436.1127,77.0
1436.6871,117.0
1437.2618,110.0
1437.8368,108.0
1438.412,113.0
1438.9873,63.0
1439.5629,101.0
1440.1387,80.0
1440.7147,114.0
1441.291,105.0
1441.8676,84.0
1442.4443,96.0
1443.0214,87.0
1443.5985,89.0
1444.1759,94.0
1444.7535,122.0
1445.3314,110.0
1445.9095,70.0
1446.4879,110.0
1447.0665,79.0
1447.6454,112.0
1448.2245,86.0
1448.8038,87.0
1449.3833,110.0
1449.963,95.0
1450.543,134.0
1451.1232,74.0
1451.7036,102.0
1452.2843,80.0
1452.8652,88.0
1453.4464,92.0
1454.0278,74.0
1454.6095,118.0
1455.1913,89.0
1455.7733,108.0
1456.3556,109.0
1456.9381,76.0
1457.5209,124.0
1458.1039,101.0
1458.6871,119.0
1459.2706,89.0
1459.8544,108.0
1460.4384,105.0
1461.0226,75.0
1461.6069,185.0
1462.1915,105.0
1462.7764,180.0
1463.3615,97.0
1463.9468,79.0
1464.5323,119.0
1465.1182,57.0
1465.7042,89.0
1466.2905,85.0
1466.8771,91.0
1467.4639,102.0
1468.0509,67.0
1468.6382,104.0
1469.2256,71.0
1469.8132,76.0
1470.4011,94.0
1470.9893,62.0
1471.5776,128.0
1472.1663,84.0
1472.7551,100.0
1473.3442,86.0
1473.9336,74.0
1474.5232,113.0
1475.113,84.0
1475.7031,118.0
1476.2935,97.0
1476.884,75.0
1477.4747,89.0
1478.0657,80.0
1478.6569,109.0
1479.2483,94.0
1479.84,91.0
1480.4319,91.0
1481.024,67.0
1481.6165,101.0
1482.2091,75.0
1482.802,92.0
1483.3951,88.0
1483.9885,87.0
1484.5822,126.0
1485.176,74.0
1485.7701,115.0
1486.3645,102.0
1486.9591,75.0
1487.5538,93.0
1488.1488,88.0
1488.744,86.0
1489.3395,98.0
1489.9352,61.0
1490.5311,86.0
1491.1273,78.0
1491.7238,103.0
1492.3204,92.0
1492.9174,59.0
1493.5145,105.0
1494.1119,87.0
1494.7096,105.0
1495.3075,121.0
1495.9056,133.0
1496.504,168.0
1497.1027,81.0
1497.7015,114.0
1498.3007,99.0
1498.9,86.0
1499.4996,90.0
1500.0995,79.0
1500.6996,93.0
1501.2998,100.0
1501.9003,70.0
1502.501,102.0
1503.1019,69.0
1503.7031,109.0
1504.3046,82.0
1504.9062,61.0
1505.5082,90.0
1506.1104,79.0
1506.7128,97.0
1507.3154,84.0
1507.9183,73.0
1508.5215,108.0
1509.1249,57.0
1509.7285,101.0
1510.3324,87.0
1510.9365,75.0
1511.5409,110.0
1512.1455,92.0
1512.7504,482.0
1513.3555,329.0
1513.9608,245.0
1514.5664,299.0
1515.1722,83.0
1515.7783,145.0
1516.3846,113.0
1516.9912,99.0
1517.598,102.0
1518.2051,74.0
1518.8124,90.0
1519.4199,104.0
1520.0277,74.0
1520.6357,94.0
1521.244,57.0
1521.8525,83.0
1522.4613,75.0
1523.0703,70.0
1523.6796,104.0
1524.2891,83.0
1524.8988,71.0
1525.5088,110.0
1526.119,67.0
1526.7295,103.0
1527.3402,75.0
1527.9512,60.0
1528.5624,129.0
1529.1738,81.0
1529.7855,103.0
1530.3975,97.0
1531.0096,79.0
1531.6221,91.0
1532.2347,83.0
1532.8477,81.0
1533.4608,80.0
1534.0742,71.0
1534.6879,98.0
1535.3018,82.0
1535.9159,95.0
1536.5303,113.0
1537.1449,73.0
1537.7598,82.0
1538.3749,73.0
1538.9902,61.0
1539.6058,98.0
1540.2217,77.0
1540.8378,63.0
1541.4541,88.0
1542.0707,67.0
1542.6875,80.0
1543.3046,78.0
1543.9219,83.0
1544.5394,113.0
1545.1572,99.0
1545.7753,97.0
1546.3936,112.0
1547.0121,59.0
1547.6309,84.0
1548.2499,85.0
1548.8691,60.0
1549.4886,99.0
1550.1084,58.0
1550.7284,76.0
1551.3486,89.0
1551.9691,72.0
1552.5898,97.0
1553.2109,66.0
1553.8323,85.0
1554.4539,98.0
1555.0757,69.0
1555.6978,84.0
1556.3201,89.0
1556.9426,70.0
1557.5654,96.0
1558.1885,73.0
1558.8118,117.0
1559.4353,97.0
1560.0591,75.0
1560.6831,99.0
1561.3074,71.0
1561.9319,78.0
1562.5566,107.0
1563.1816,55.0
1563.8069,91.0
1564.4324,93.0
1565.0581,73.0
1565.6841,86.0
1566.3103,56.0
1566.9368,70.0
1567.5636,84.0
1568.1907,65.0
1568.818,74.0
1569.4456,92.0
1570.0734,63.0
1570.7014,122.0
1571.3297,88.0
1571.9583,92.0
1572.587,100.0
1573.2161,62.0
1573.8453,91.0
1574.4749,97.0
1575.1046,59.0
1575.7346,115.0
1576.3649,94.0
1576.9954,65.0
1577.6261,88.0
1578.2572,84.0
1578.8885,74.0
1579.5201,101.0
1580.152,73.0
1580.784,94.0
1581.4164,90.0
1582.049,86.0
1582.6818,94.0
1583.3148,94.0
1583.9481,74.0
1584.5817,94.0
1585.2155,85.0
1585.8495,88.0
1586.4839,93.0
1587.1185,85.0
1587.7534,97.0
1588.3885,87.0
1589.0239,78.0
1589.6595,113.0
1590.2954,96.0
1590.9315,73.0
1591.5679,96.0
1592.2045,75.0
1592.8413,65.0
1593.4784,82.0
1594.1158,59.0
1594.7535,71.0
1595.3915,102.0
1596.0297,82.0
1596.6681,108.0
1597.3068,78.0
1597.9457,77.0
1598.5848,90.0
1599.2242,74.0
1599.8639,86.0
1600.5038,98.0
1601.144,68.0
1601.7845,88.0
1602.4253,92.0
1603.0663,94.0
1603.7075,121.0
1604.349,89.0
1604.9907,89.0
1605.6327,105.0
1606.2749,85.0
1606.9174,78.0
1607.5602,105.0
1608.2032,65.0
1608.8466,101.0
1609.4901,88.0
1610.1339,69.0
1610.778,90.0
1611.4222,88.0
1612.0668,81.0
1612.7115,91.0
1613.3567,104.0
1614.0021,80.0
1614.6477,84.0
1615.2936,66.0
1615.9397,85.0
1616.586,97.0
1617.2327,69.0
1617.8795,95.0
1618.5266,107.0
1619.1741,80.0
1619.8218,85.0
1620.4697,91.0
1621.1179,82.0
1621.7664,95.0
1622.415,104.0
1623.064,75.0
1623.7131,92.0
1624.3627,78.0
1625.0125,81.0
1625.6625,97.0
1626.3127,91.0
1626.9633,64.0
1627.614,110.0
1628.265,76.0
1628.9163,81.0
1629.5679,94.0
1630.2197,71.0
1630.8718,110.0
1631.5242,121.0
1632.1768,65.0
1632.8296,83.0
1633.4827,92.0
1634.1361,65.0
1634.7898,76.0
1635.4437,88.0
1636.0979,75.0
1636.7523,82.0
1637.407,71.0
1638.0619,55.0
1638.7172,82.0
1639.3727,82.0
1640.0284,94.0
1640.6844,116.0
1641.3407,103.0
1641.9972,74.0
1642.6539,108.0
1643.311,75.0
1643.9684,77.0
1644.626,196.0
1645.2838,153.0
1645.9419,110.0
1646.6002,169.0
1647.2589,100.0
1647.9178,111.0
1648.577,105.0
1649.2365,88.0
1649.8961,82.0
1650.556,99.0
1651.2163,69.0
1651.8768,105.0
1652.5376,95.0
1653.1986,68.0
1653.8599,92.0
1654.5214,80.0
1655.1832,64.0
1655.8453,95.0
1656.5077,101.0
1657.1703,67.0
1657.8331,95.0
1658.4962,105.0
1659.1597,72.0
1659.8234,78.0
1660.4873,95.0
1661.1515,70.0
1661.8159,73.0
1662.4806,97.0
1663.1456,67.0
1663.8109,94.0
1664.4764,88.0
1665.1422,86.0
1665.8082,80.0
1666.4746,119.0
1667.1412,76.0
1667.8081,103.0
1668.4752,93.0
1669.1426,76.0
1669.8102,84.0
1670.4781,79.0
1671.1464,55.0
1671.8148,98.0
1672.4835,81.0
1673.1525,72.0
1673.8218,106.0
1674.4913,70.0
1675.1611,66.0
1675.8312,77.0
1676.5015,95.0
1677.1721,72.0
1677.843,90.0
1678.5142,94.0
1679.1855,63.0
1679.8572,82.0
1680.5292,81.0
1681.2014,69.0
1681.8739,89.0
1682.5466,101.0
1683.2196,74.0
1683.893,100.0
1684.5665,111.0
1685.2404,65.0
1685.9144,78.0
1686.5887,83.0
1687.2634,65.0
1687.9384,79.0
1688.6135,100.0
1689.289,91.0
1689.9646,73.0
1690.6406,105.0
1691.3169,74.0
1691.9934,79.0
1692.6702,92.0
1693.3473,65.0
1694.0247,67.0
1694.7023,80.0
1695.3801,82.0
1696.0582,70.0
1696.7367,92.0
1697.4154,94.0
1698.0944,65.0
1698.7736,89.0
1699.4531,98.0
1700.1329,88.0
1700.813,107.0
1701.4933,123.0
1702.1738,87.0
1702.8547,103.0
1703.5359,93.0
1704.2173,72.0
1704.8989,87.0
1705.5809,112.0
1706.2632,74.0
1706.9457,89.0
1707.6284,95.0
1708.3115,78.0
1708.9949,65.0
1709.6785,82.0
1710.3623,83.0
1711.0465,67.0
1711.731,99.0
1712.4156,85.0
1713.1006,60.0
1713.7858,93.0
1714.4713,96.0
1715.1571,72.0
1715.8431,73.0
1716.5294,93.0
1717.2161,70.0
1717.903,86.0
1718.5901,84.0
1719.2775,74.0
1719.9652,71.0
1720.6532,88.0
1721.3414,78.0
1722.0299,97.0
1722.7188,95.0
1723.4078,97.0
1724.0972,64.0
1724.7869,90.0
1725.4768,83.0
1726.167,62.0
1726.8574,93.0
1727.5482,96.0
1728.2393,78.0
1728.9305,81.0
1729.6221,95.0
1730.314,65.0
1731.0061,66.0
1731.6985,107.0
1732.3911,83.0
1733.0841,63.0
1733.7773,82.0
1734.4708,94.0
1735.1647,65.0
1735.8588,79.0
1736.5531,84.0
1737.2477,72.0
1737.9426,82.0
1738.6378,85.0
1739.3333,67.0
1740.0289,64.0
1740.725,79.0
1741.4213,66.0
1742.1178,66.0
1742.8147,57.0
1743.5118,82.0
1744.2092,51.0
1744.9069,63.0
1745.6049,84.0
1746.3031,68.0
1747.0016,73.0
1747.7004,91.0
1748.3995,87.0
1749.0989,76.0
1749.7985,73.0
1750.4984,78.0
1751.1986,55.0
1751.899,64.0
1752.5999,76.0
1753.3009,71.0
1754.0022,71.0
1754.7039,70.0
1755.4058,80.0
1756.1079,74.0
1756.8103,79.0
1757.5131,83.0
1758.2161,68.0
1758.9193,83.0
1759.6229,93.0
1760.3268,64.0
1761.0309,68.0
1761.7354,89.0
1762.4401,87.0
1763.145,67.0
1763.8502,112.0
1764.5558,97.0
1765.2616,60.0
1765.9677,84.0
1766.6741,98.0
1767.3807,68.0
1768.0876,64.0
1768.7949,77.0
1769.5024,85.0
1770.2102,69.0
1770.9183,71.0
1771.6267,100.0
1772.3353,80.0
1773.0443,61.0
1773.7535,84.0
1774.463,76.0
1775.1729,63.0
1775.8829,76.0
1776.5933,61.0
1777.304,61.0
1778.0149,83.0
1778.7261,86.0
1779.4376,82.0
1780.1494,69.0
1780.8615,90.0
1781.5739,97.0
1782.2865,68.0
1782.9994,68.0
1783.7126,102.0
1784.4261,76.0
1785.1399,59.0
1785.854,81.0
1786.5684,86.0
1787.283,59.0
1787.9979,74.0
1788.7131,121.0
1789.4286,124.0
1790.1444,64.0
1790.8605,74.0
1791.5768,91.0
1792.2935,74.0
1793.0104,87.0
1793.7275,87.0
1794.4451,94.0
1795.1628,73.0
1795.8809,84.0
1796.5992,96.0
1797.3179,81.0
1798.0367,64.0
1798.756,91.0
1799.4755,83.0
1800.1953,74.0
1800.9154,83.0
1801.6357,95.0
1802.3564,77.0
1803.0774,80.0
1803.7986,87.0
1804.5201,74.0
1805.242,105.0
1805.964,237.0
1806.6864,273.0
1807.409,150.0
1808.1321,111.0
1808.8553,118.0
1809.5789,128.0
1810.3027,83.0
1811.0269,97.0
1811.7512,109.0
1812.476,92.0
1813.2009,62.0
1813.9261,89.0
1814.6517,106.0
1815.3776,92.0
1816.1038,74.0
1816.8302,103.0
1817.5569,92.0
1818.2839,60.0
1819.0112,75.0
1819.7389,92.0
1820.4668,67.0
1821.195,57.0
1821.9235,84.0
1822.6522,80.0
1823.3812,60.0
1824.1106,79.0
1824.8402,96.0
1825.5702,79.0
1826.3004,41.0
1827.0309,86.0
1827.7617,106.0
1828.4928,81.0
1829.2242,83.0
1829.9559,111.0
1830.6879,90.0
1831.4202,94.0
1832.1527,69.0
1832.8856,78.0
1833.6188,86.0
1834.3522,74.0
1835.0859,72.0
1835.82,75.0
1836.5543,96.0
1837.289,76.0
1838.0238,87.0
1838.759,84.0
1839.4945,88.0
1840.2303,62.0
1840.9664,94.0
1841.7028,95.0
1842.4395,81.0
1843.1764,74.0
1843.9137,71.0
1844.6512,74.0
1845.3892,72.0
1846.1273,83.0
1846.8657,66.0
1847.6045,79.0
1848.3435,59.0
1849.0829,76.0
1849.8225,75.0
1850.5624,81.0
1851.3026,67.0
1852.0431,67.0
1852.7839,91.0
1853.525,91.0
1854.2665,61.0
1855.0082,70.0
1855.7501,81.0
1856.4924,97.0
1857.235,74.0
1857.9779,180.0
1858.7211,183.0
1859.4646,121.0
1860.2084,97.0
1860.9525,113.0
1861.6969,90.0
1862.4415,81.0
1863.1865,74.0
1863.9318,69.0
1864.6774,67.0
1865.4232,64.0
1866.1694,73.0
1866.9159,76.0
1867.6627,92.0
1868.4098,58.0
1869.1571,64.0
1869.9048,89.0
1870.6527,81.0
1871.401,75.0
1872.1495,67.0
1872.8984,83.0
1873.6476,117.0
1874.3971,93.0
1875.1469,97.0
1875.8969,114.0
1876.6472,124.0
1877.3978,91.0
1878.1488,72.0
1878.9,83.0
1879.6516,92.0
1880.4034,75.0
1881.1556,62.0
1881.9081,82.0
1882.6609,85.0
1883.414,78.0
1884.1674,78.0
1884.921,228.0
1885.675,256.0
1886.4293,123.0
1887.1838,109.0
1887.9387,107.0
1888.6938,102.0
1889.4493,78.0
1890.2051,64.0
1890.9612,71.0
1891.7175,70.0
1892.4742,79.0
1893.2312,49.0
1893.9885,82.0
1894.7461,93.0
1895.504,89.0
1896.2622,75.0
1897.0208,104.0
1897.7795,114.0
1898.5387,89.0
1899.2981,68.0
1900.0579,93.0
1900.8179,100.0
1901.5782,89.0
1902.3389,53.0
1903.0999,67.0
1903.8611,83.0
1904.6227,98.0
1905.3845,66.0
1906.1467,64.0
1906.9092,89.0
1907.672,82.0
1908.435,75.0
1909.1985,67.0
1909.9622,78.0
1910.7262,85.0
1911.4905,102.0
1912.2551,62.0
1913.02,98.0
1913.7853,342.0
1914.5508,271.0
1915.3167,214.0
1916.0828,219.0
1916.8492,149.0
1917.616,99.0
1918.383,69.0
1919.1504,69.0
1919.9181,69.0
1920.686,97.0
1921.4543,86.0
1922.2229,71.0
1922.9918,86.0
1923.761,84.0
1924.5305,91.0
1925.3003,75.0
1926.0704,67.0
1926.8408,70.0
1927.6116,85.0
1928.3826,82.0
1929.1539,71.0
1929.9255,74.0
1930.6975,78.0
1931.4698,89.0
1932.2424,69.0
1933.0154,70.0
1933.7886,70.0
1934.5621,78.0
1935.3359,77.0
1936.1101,82.0
1936.8845,105.0
1937.6593,92.0
1938.4343,81.0
1939.2097,68.0
1939.9854,89.0
1940.7614,87.0
1941.5376,74.0
1942.3142,65.0
1943.0912,70.0
1943.8684,65.0
1944.646,82.0
1945.4238,66.0
1946.202,55.0
1946.9805,58.0
1947.7593,70.0
1948.5383,67.0
1949.3177,63.0
1950.0975,65.0
1950.8776,79.0
1951.658,93.0
1952.4386,74.0
1953.2196,63.0
1954.0009,78.0
1954.7825,73.0
1955.5643,82.0
1956.3466,59.0
1957.1292,62.0
1957.912,76.0
1958.6952,82.0
1959.4786,62.0
1960.2625,70.0
1961.0465,65.0
1961.8309,68.0
1962.6157,64.0
1963.4008,61.0
1964.1862,56.0
1964.9718,66.0
1965.7578,84.0
1966.5441,68.0
1967.3307,73.0
1968.1177,79.0
1968.9049,80.0
1969.6925,85.0
1970.4803,88.0
1971.2686,64.0
1972.057,78.0
1972.8458,90.0
1973.635,80.0
1974.4244,79.0
1975.2142,60.0
1976.0043,89.0
1976.7947,72.0
1977.5854,78.0
1978.3765,64.0
1979.1678,61.0
1979.9595,83.0
1980.7515,87.0
1981.5438,66.0
1982.3364,63.0
1983.1294,75.0
1983.9226,78.0
1984.7162,88.0
1985.5101,76.0
1986.3043,64.0
1987.0989,71.0
1987.8937,76.0
1988.6888,75.0
1989.4844,74.0
1990.2802,53.0
1991.0763,72.0
1991.8727,70.0
1992.6694,86.0
1993.4666,94.0
1994.2639,78.0
1995.0616,90.0
1995.8596,120.0
1996.658,94.0
1997.4567,79.0
1998.2556,67.0
1999.0549,60.0
1999.8546,57.0
2000.6545,58.0
2001.4548,63.0
2002.2554,58.0
2003.0563,62.0
2003.8575,60.0
2004.659,92.0
2005.4609,64.0
2006.2631,65.0
2007.0656,58.0
2007.8684,67.0
2008.6715,84.0
2009.475,99.0
2010.2788,62.0
2011.0829,90.0
2011.8873,119.0
2012.6921,132.0
2013.4972,91.0
2014.3026,84.0
2015.1083,86.0
2015.9143,99.0
2016.7207,84.0
2017.5273,80.0
2018.3344,80.0
2019.1417,70.0
2019.9493,58.0
2020.7573,62.0
2021.5657,69.0
2022.3743,65.0
2023.1832,60.0
2023.9926,75.0
2024.8021,68.0
2025.612,84.0
2026.4224,72.0
2027.2329,89.0
2028.0438,68.0
2028.855,103.0
2029.6665,113.0
2030.4784,75.0
2031.2905,86.0
2032.103,65.0
2032.9159,90.0
2033.729,81.0
2034.5425,84.0
2035.3563,62.0
2036.1704,62.0
2036.9849,79.0
2037.7997,91.0
2038.6147,73.0
2039.4302,63.0
2040.246,77.0
2041.062,92.0
2041.8784,81.0
2042.6952,80.0
2043.5123,99.0
2044.3297,63.0
2045.1475,77.0
2045.9656,83.0
2046.7839,77.0
2047.6027,74.0
2048.4216,76.0
2049.241,71.0
2050.0605,78.0
2050.8806,83.0
2051.701,107.0
2052.5217,86.0
2053.3428,71.0
2054.164,80.0
2054.9858,84.0
2055.8079,90.0
2056.6301,81.0
2057.453,64.0
2058.276,60.0
2059.099,69.0
2059.9229,74.0
2060.7468,58.0
2061.571,75.0
2062.3958,69.0
2063.2207,70.0
2064.046,83.0
2064.8716,85.0
2065.6975,92.0
2066.5237,96.0
2067.3503,79.0
2068.1772,74.0
2069.0046,62.0
2069.8323,69.0
2070.6602,61.0
2071.4885,64.0
2072.3171,66.0
2073.146,54.0
2073.9753,75.0
2074.805,67.0
2075.6348,81.0
2076.465,75.0
2077.2957,47.0
2078.1265,62.0
2078.9578,76.0
2079.7893,74.0
2080.6213,77.0
2081.4536,65.0
2082.2861,79.0
2083.1191,113.0
2083.9524,120.0
2084.786,112.0
2085.6199,77.0
2086.454,77.0
2087.2886,67.0
2088.1235,59.0
2088.9587,71.0
2089.7944,58.0
2090.6304,71.0
2091.4666,64.0
2092.3032,63.0
2093.1401,67.0
2093.9773,64.0
2094.815,76.0
2095.6528,70.0
2096.4912,69.0
2097.3298,60.0
2098.1687,66.0
2099.008,81.0
2099.8477,66.0
2100.6875,60.0
2101.5278,66.0
2102.3684,52.0
2103.2095,79.0
2104.0508,85.0
2104.8923,84.0
2105.7344,81.0
2106.5767,72.0
2107.4192,77.0
2108.2622,66.0
2109.1055,75.0
2109.9492,67.0
2110.7932,82.0
2111.6375,69.0
2112.4822,83.0
2113.3271,56.0
2114.1724,72.0
2115.018,66.0
2115.864,57.0
2116.7104,74.0
2117.5571,78.0
2118.404,62.0
2119.2515,68.0
2120.099,81.0
2120.9473,75.0
2121.7957,91.0
2122.6443,78.0
2123.4934,67.0
2124.3428,79.0
2125.1926,82.0
2126.0427,79.0
2126.893,91.0
2127.744,75.0
2128.595,82.0
2129.4463,65.0
2130.298,63.0
2131.1501,75.0
2132.0027,66.0
2132.8555,70.0
2133.7085,69.0
2134.562,69.0
2135.4158,73.0
2136.27,76.0
2137.1245,73.0
2137.9792,83.0
2138.8345,69.0
2139.69,76.0
2140.546,70.0
2141.402,81.0
2142.2585,100.0
2143.1155,117.0
2143.9727,97.0
2144.8303,99.0
2145.6882,75.0
2146.5464,73.0
2147.405,76.0
2148.264,74.0
2149.1233,64.0
2149.983,72.0
2150.843,70.0
2151.7034,65.0
2152.564,73.0
2153.425,58.0
2154.2864,68.0
2155.1482,79.0
2156.0103,75.0
2156.8726,70.0
2157.7354,67.0
2158.5984,83.0
2159.462,74.0
2160.3257,77.0
2161.1897,74.0
2162.0542,75.0
2162.919,72.0
2163.7842,72.0
2164.6497,84.0
2165.5156,71.0
2166.3818,60.0
2167.2483,73.0
2168.1152,84.0
2168.9824,90.0
2169.85,104.0
2170.718,83.0
2171.5864,80.0
2172.455,74.0
2173.324,70.0
2174.1934,71.0
2175.063,71.0
2175.933,77.0
2176.8035,77.0
2177.674,70.0
2178.5452,88.0
2179.4165,78.0
2180.2883,82.0
2181.1604,71.0
2182.033,80.0
2182.9058,72.0
2183.7788,79.0
2184.6523,60.0
2185.5261,76.0
2186.4004,58.0
2187.275,65.0
2188.15,73.0
2189.0251,79.0
2189.9006,72.0
2190.7766,82.0
2191.6528,74.0
2192.5295,69.0
2193.4065,80.0
2194.284,68.0
2195.1616,100.0
2196.0398,110.0
2196.9182,82.0
2197.7969,99.0
2198.676,104.0
2199.5554,76.0
2200.4353,66.0
2201.3154,83.0
2202.196,68.0
2203.077,80.0
2203.9583,72.0
2204.8398,83.0
2205.7217,74.0
2206.604,59.0
2207.4866,66.0
2208.3696,61.0
2209.253,62.0
2210.1367,82.0
2211.0208,91.0
2211.9053,82.0
2212.79,91.0
2213.675,93.0
2214.5605,88.0
2215.4463,94.0
2216.3325,82.0
2217.219,76.0
2218.106,85.0
2218.9932,87.0
2219.8809,73.0
2220.7688,81.0
2221.6572,66.0
2222.546,57.0
2223.4348,84.0
2224.3242,83.0
2225.2139,90.0
2226.104,73.0
2226.9944,77.0
2227.8853,66.0
2228.7764,65.0
2229.668,76.0
2230.5598,60.0
2231.4521,71.0
2232.3447,73.0
2233.2375,70.0
2234.1309,84.0
2235.0244,84.0
2235.9185,86.0
2236.8127,86.0
2237.7075,90.0
2238.6025,71.0
2239.498,70.0
2240.3938,60.0
2241.29,63.0
2242.1865,65.0
2243.0835,82.0
2243.9807,87.0
2244.8784,87.0
2245.7764,67.0
2246.6746,74.0
2247.5732,55.0
2248.4722,78.0
2249.3716,59.0
2250.2712,71.0
2251.1714,74.0
2252.0718,75.0
2252.9727,79.0
2253.8738,62.0
2254.7754,80.0
2255.6772,60.0
2256.5796,69.0
2257.4822,81.0
2258.3853,74.0
2259.2886,79.0
2260.1924,89.0
2261.0964,70.0
2262.001,78.0
2262.9058,70.0
2263.811,100.0
2264.7166,64.0
2265.6226,78.0
2266.5288,88.0
2267.4353,76.0
2268.3423,69.0
2269.2495,64.0
2270.1572,80.0
2271.0652,84.0
2271.9736,78.0
2272.8823,77.0
2273.7915,87.0
2274.701,87.0
2275.6108,104.0
2276.521,102.0
2277.4316,104.0
2278.3425,97.0
2279.254,82.0
2280.1655,93.0
2281.0776,84.0
2281.99,86.0
2282.9028,86.0
2283.816,71.0
2284.7295,66.0
2285.6433,74.0
2286.5576,70.0
2287.4722,74.0
2288.3872,75.0
2289.3025,74.0
2290.2183,76.0
2291.1343,82.0
2292.0508,87.0
2292.9675,90.0
2293.8848,93.0
2294.8022,76.0
2295.7202,81.0
2296.6384,90.0
2297.5571,85.0
2298.476,83.0
2299.3955,81.0
2300.3152,72.0
2301.2354,68.0
2302.1558,83.0
2303.0767,86.0
2303.9978,90.0
2304.9194,91.0
2305.8413,73.0
2306.7637,78.0
2307.6863,81.0
2308.6094,65.0
2309.5327,73.0
2310.4565,85.0
2311.3806,68.0
2312.3052,70.0
2313.23,97.0
2314.1553,75.0
2315.081,69.0
2316.007,64.0
2316.9336,67.0
2317.8604,71.0
2318.7876,99.0
2319.715,104.0
2320.643,94.0
2321.5713,80.0
2322.5,78.0
2323.429,78.0
2324.3584,60.0
2325.288,75.0
2326.2183,73.0
2327.1487,70.0
2328.0796,86.0
2329.0107,81.0
2329.9424,100.0
2330.8743,79.0
2331.8066,79.0
2332.7393,77.0
2333.6724,77.0
2334.6057,95.0
2335.5396,83.0
2336.4739,75.0
2337.4084,71.0
2338.3435,79.0
2339.2788,67.0
2340.2146,77.0
2341.1506,77.0
2342.0872,73.0
2343.024,84.0
2343.9612,70.0
2344.8987,105.0
2345.8367,95.0
2346.775,103.0
2347.7136,86.0
2348.6526,85.0
2349.592,76.0
2350.532,83.0
2351.4722,96.0
2352.4128,84.0
2353.3538,79.0
2354.2952,90.0
2355.2368,80.0
2356.179,78.0
2357.1213,78.0
2358.0642,87.0
2359.0073,68.0
2359.951,80.0
2360.895,85.0
2361.8394,66.0
2362.7842,88.0
2363.7292,85.0
2364.6748,91.0
2365.6206,81.0
2366.567,99.0
2367.5134,70.0
2368.4604,72.0
2369.4077,85.0
2370.3555,72.0
2371.3037,73.0
2372.2522,78.0
2373.2012,87.0
2374.1504,60.0
2375.1,83.0
2376.05,75.0
2377.0005,64.0
2377.9512,95.0
2378.9023,82.0
2379.854,82.0
2380.806,78.0
2381.7583,93.0
2382.711,85.0
2383.664,66.0
2384.6174,86.0
2385.5713,85.0
2386.5256,98.0
2387.4802,94.0
2388.4353,78.0
2389.3906,108.0
2390.3464,75.0
2391.3025,82.0
2392.259,66.0
2393.2158,65.0
2394.173,81.0
2395.1309,79.0
2396.0889,75.0
2397.0474,83.0
2398.006,84.0
2398.9653,77.0
2399.9248,70.0
2400.8848,93.0
2401.8452,75.0
2402.806,81.0
2403.767,88.0
2404.7285,64.0
2405.6904,102.0
2406.6526,76.0
2407.6152,65.0
2408.5784,60.0
2409.5417,86.0
2410.5056,74.0
2411.4697,66.0
2412.4343,68.0
2413.3994,73.0
2414.3647,76.0
2415.3306,90.0
2416.2966,84.0
2417.2632,88.0
2418.23,74.0
2419.1973,64.0
2420.165,62.0
2421.133,74.0
2422.1016,69.0
2423.0703,76.0
2424.0396,69.0
2425.0093,82.0
2425.9792,86.0
2426.9497,79.0
2427.9204,80.0
2428.8916,69.0
2429.863,73.0
2430.835,83.0
2431.8074,95.0
2432.78,92.0
2433.7532,64.0
2434.7266,79.0
2435.7004,73.0
2436.6748,62.0
2437.6494,73.0
2438.6245,62.0
2439.5999,79.0
2440.5757,71.0
2441.552,64.0
2442.5286,79.0
2443.5056,77.0
2444.483,80.0
2445.4607,63.0
2446.439,70.0
2447.4175,89.0
2448.3965,81.0
2449.3757,69.0
2450.3555,79.0
2451.3357,84.0
2452.3162,69.0
2453.297,71.0
2454.2783,92.0
2455.26,79.0
2456.2422,76.0
2457.2246,73.0
2458.2075,78.0
2459.191,84.0
2460.1746,65.0
2461.1587,78.0
2462.143,63.0
2463.128,74.0
2464.1133,85.0
2465.0989,77.0
2466.085,84.0
2467.0713,102.0
2468.058,65.0
2469.0454,65.0
2470.033,76.0
2471.021,89.0
2472.0095,73.0
2472.9983,85.0
2473.9875,67.0
2474.977,71.0
2475.967,79.0
2476.9575,73.0
2477.9482,71.0
2478.9395,81.0
2479.931,71.0
2480.9229,76.0
2481.9153,73.0
2482.908,76.0
2483.9011,70.0
2484.8948,66.0
2485.8887,82.0
2486.883,78.0
2487.878,67.0
2488.873,80.0
2489.8687,80.0
2490.8645,86.0
2491.8608,72.0
2492.8577,81.0
2493.8547,66.0
2494.8523,75.0
2495.8503,75.0
2496.8486,84.0
2497.8474,71.0
2498.8464,93.0
2499.846,79.0
2500.846,75.0
2501.8462,65.0
2502.847,63.0
2503.8481,68.0
2504.8496,67.0
2505.8516,82.0
2506.854,72.0
2507.8567,70.0
2508.8599,68.0
2509.8635,82.0
2510.8674,69.0
2511.8718,63.0
2512.8765,85.0
2513.8816,75.0
2514.8872,60.0
2515.893,78.0
2516.8994,80.0
2517.9062,69.0
2518.9133,64.0
2519.921,97.0
2520.929,87.0
2521.9373,89.0
2522.946,78.0
2523.9553,76.0
2524.9648,78.0
2525.9749,81.0
2526.9854,70.0
2527.996,74.0
2529.0073,93.0
2530.019,78.0
2531.031,95.0
2532.0435,79.0
2533.0562,62.0
2534.0693,81.0
2535.083,71.0
2536.097,84.0
2537.1113,73.0
2538.1262,98.0
2539.1414,69.0
2540.157,68.0
2541.173,77.0
2542.1895,77.0
2543.2063,76.0
2544.2236,66.0
2545.2412,70.0
2546.2593,59.0
2547.2778,88.0
2548.2966,81.0
2549.316,77.0
2550.3357,65.0
2551.3557,83.0
2552.3762,73.0
2553.3972,79.0
2554.4185,95.0
2555.4402,93.0
2556.4624,70.0
2557.485,81.0
2558.508,68.0
2559.5315,85.0
2560.5554,77.0
2561.5796,81.0
2562.6042,92.0
2563.6294,95.0
2564.6548,81.0
2565.6807,68.0
2566.707,83.0
2567.7336,77.0
2568.7607,76.0
2569.7883,77.0
2570.8162,67.0
2571.8445,84.0
2572.8733,67.0
2573.9023,73.0
2574.932,85.0
2575.962,75.0
2576.9922,75.0
2578.023,79.0
2579.0542,82.0
2580.086,75.0
2581.118,95.0
2582.1504,74.0
2583.1833,74.0
2584.2166,87.0
2585.2502,65.0
2586.2844,87.0
2587.3188,57.0
2588.3538,83.0
2589.3892,77.0
2590.4248,76.0
2591.461,82.0
2592.4976,85.0
2593.5347,80.0
2594.572,96.0
2595.6099,92.0
2596.6482,87.0
2597.6868,76.0
2598.7258,80.0
2599.7654,73.0
2600.8052,86.0
2601.8455,75.0
2602.8862,70.0
2603.9275,78.0
2604.969,81.0
2606.011,88.0
2607.0535,89.0
2608.0962,71.0
2609.1394,109.0
2610.183,94.0
2611.2273,105.0
2612.2717,80.0
2613.3167,77.0
2614.362,78.0
2615.4077,69.0
2616.4539,97.0
2617.5005,89.0
2618.5476,111.0
2619.595,77.0
2620.6428,94.0
2621.6912,71.0
2622.7397,78.0
2623.7888,80.0
2624.8384,87.0
2625.8884,69.0
2626.9387,86.0
2627.9895,90.0
2629.0408,64.0
2630.0923,81.0
2631.1443,65.0
2632.1968,76.0
2633.2498,85.0
2634.303,91.0
2635.3567,58.0
2636.411,107.0
2637.4653,78.0
2638.5203,74.0
2639.5757,88.0
2640.6316,64.0
2641.6877,91.0
2642.7444,85.0
2643.8015,77.0
2644.8591,77.0
2645.917,80.0
2646.9753,80.0
2648.0342,94.0
2649.0935,85.0
2650.153,98.0
2651.2131,99.0
2652.2737,86.0
2653.3345,84.0
2654.3958,74.0
2655.4575,68.0
2656.5198,75.0
2657.5823,81.0
2658.6453,78.0
2659.7087,66.0
2660.7727,82.0
2661.837,104.0
2662.9016,83.0
2663.9668,87.0
2665.0325,110.0
2666.0984,101.0
2667.1648,102.0
2668.2317,91.0
2669.299,93.0
2670.3667,80.0
2671.4348,74.0
2672.5034,93.0
2673.5725,75.0
2674.6418,91.0
2675.7117,87.0
2676.782,103.0
2677.8528,98.0
2678.9238,74.0
2679.9954,95.0
2681.0674,85.0
2682.14,81.0
2683.2126,99.0
2684.286,81.0
2685.3596,77.0
2686.4338,87.0
2687.5083,83.0
2688.5833,87.0
2689.6587,73.0
2690.7346,73.0
2691.8108,91.0
2692.8875,83.0
2693.9646,91.0
2695.0422,81.0
2696.1204,90.0
2697.1987,90.0
2698.2776,93.0
2699.357,100.0
2700.4368,95.0
2701.5168,78.0
2702.5974,88.0
2703.6785,72.0
2704.76,88.0
2705.8418,96.0
2706.924,106.0
2708.0068,100.0
2709.09,75.0
2710.1738,72.0
2711.2578,90.0
2712.3423,100.0
2713.4272,79.0
2714.5127,74.0
2715.5984,90.0
2716.6846,81.0
2717.7712,75.0
2718.8584,89.0
2719.946,92.0
2721.034,85.0
2722.1223,96.0
2723.2112,113.0
2724.3005,115.0
2725.3901,113.0
2726.4802,76.0
2727.5708,108.0
2728.6619,89.0
2729.7534,116.0
2730.8452,102.0
2731.9375,85.0
2733.0303,90.0
2734.1235,102.0
2735.2173,151.0
2736.3113,140.0
2737.4058,129.0
2738.5007,102.0
2739.5962,81.0
2740.6921,102.0
2741.7883,86.0
2742.885,82.0
2743.9822,86.0
2745.0798,90.0
2746.178,82.0
2747.2764,95.0
2748.3752,69.0
2749.4746,82.0
2750.5745,91.0
2751.6748,90.0
2752.7754,96.0
2753.8765,70.0
2754.978,83.0
2756.08,96.0
2757.1826,82.0
2758.2854,65.0
2759.3887,78.0
2760.4924,82.0
2761.5967,90.0
2762.7014,92.0
2763.8064,103.0
2764.9119,72.0
2766.0178,88.0
2767.1243,78.0
2768.2312,85.0
2769.3384,79.0
2770.446,87.0
2771.5542,96.0
2772.6628,84.0
2773.772,73.0
2774.8816,78.0
2775.9915,82.0
2777.1018,95.0
2778.2126,106.0
2779.324,102.0
2780.4358,96.0
2781.5479,81.0
2782.6604,76.0
2783.7734,81.0
2784.887,82.0
2786.001,82.0
2787.1155,86.0
2788.2302,80.0
2789.3455,80.0
2790.4612,90.0
2791.5774,94.0
2792.694,112.0
2793.8113,136.0
2794.9287,185.0
2796.0466,178.0
2797.165,158.0
2798.284,183.0
2799.4033,163.0
2800.5232,121.0
2801.6433,148.0
2802.764,140.0
2803.885,145.0
2805.0066,131.0
2806.1287,114.0
2807.2512,198.0
2808.374,180.0
2809.4973,154.0
2810.621,145.0
2811.7454,158.0
2812.87,146.0
2813.9954,152.0
2815.1208,124.0
2816.2468,131.0
2817.3733,127.0
2818.5002,153.0
2819.6277,131.0
2820.7556,131.0
2821.884,105.0
2823.0127,141.0
2824.1418,119.0
2825.2715,120.0
2826.4016,115.0
2827.5322,126.0
2828.6633,128.0
2829.7947,143.0
2830.9265,132.0
2832.0588,113.0
2833.1917,129.0
2834.325,143.0
2835.4587,141.0
2836.593,143.0
2837.7275,148.0
2838.8625,127.0
2839.998,127.0
2841.134,113.0
2842.2705,133.0
2843.4075,107.0
2844.545,113.0
2845.6829,134.0
2846.821,165.0
2847.9597,135.0
2849.0989,132.0
2850.2385,145.0
2851.3787,134.0
2852.5193,139.0
2853.6604,145.0
2854.8018,126.0
2855.9436,121.0
2857.086,164.0
2858.2288,143.0
2859.372,139.0
2860.5159,134.0
2861.6602,131.0
2862.805,127.0
2863.95,144.0
2865.0955,141.0
2866.2415,161.0
2867.388,151.0
2868.535,149.0
2869.6824,124.0
2870.8303,136.0
2871.9788,163.0
2873.1274,159.0
2874.2766,134.0
2875.4263,131.0
2876.5764,140.0
2877.727,139.0
2878.8782,126.0
2880.0298,121.0
2881.182,135.0
2882.3345,123.0
2883.4873,143.0
2884.6406,125.0
2885.7944,122.0
2886.9487,120.0
2888.1035,139.0
2889.2588,154.0
2890.4146,165.0
2891.5708,167.0
2892.7275,161.0
2893.8845,137.0
2895.042,119.0
2896.2,153.0
2897.3584,141.0
2898.5173,141.0
2899.6768,132.0
2900.8367,128.0
2901.997,116.0
2903.158,129.0
2904.3193,130.0
2905.481,178.0
2906.643,170.0
2907.8057,194.0
2908.9688,176.0
2910.1323,159.0
2911.2964,158.0
2912.461,156.0
2913.626,147.0
2914.7915,125.0
2915.9575,118.0
2917.124,142.0
2918.2908,107.0
2919.458,128.0
2920.6257,157.0
2921.794,211.0
2922.9626,258.0
2924.1318,228.0
2925.3015,212.0
2926.4717,165.0
2927.6423,142.0
2928.8135,135.0
2929.985,130.0
2931.157,139.0
2932.3293,127.0
2933.5022,116.0
2934.6755,135.0
2935.8494,107.0
2937.0237,111.0
2938.1985,126.0
2939.3738,131.0
2940.5496,157.0
2941.7258,136.0
2942.9026,146.0
2944.0798,131.0
2945.2576,138.0
2946.4358,150.0
2947.6143,150.0
2948.7932,143.0
2949.9727,109.0
2951.1526,140.0
2952.333,145.0
2953.514,127.0
2954.6953,120.0
2955.8772,134.0
2957.0596,126.0
2958.2424,136.0
2959.4258,143.0
2960.6096,152.0
2961.794,122.0
2962.9788,120.0
2964.164,130.0
2965.3496,118.0
2966.5356,107.0
2967.7222,118.0
2968.9092,132.0
2970.0967,143.0
2971.2847,128.0
2972.4731,117.0
2973.662,125.0
2974.8516,125.0
2976.0415,124.0
2977.232,124.0
2978.4229,137.0
2979.6143,136.0
2980.8062,125.0
2981.9985,124.0
2983.1914,125.0
2984.3848,114.0
2985.5786,132.0
2986.773,139.0
2987.9678,120.0
2989.1628,109.0
2990.3584,123.0
2991.5544,132.0
2992.751,118.0
2993.948,133.0
2995.1455,125.0
2996.3435,153.0
2997.542,127.0
2998.741,132.0
2999.9404,112.0
3001.1404,122.0
3002.3408,130.0
3003.5417,139.0
3004.7432,152.0
3005.945,146.0
3007.1475,132.0
3008.3503,124.0
3009.5537,156.0
3010.7576,157.0
3011.962,133.0
3013.1667,119.0
3014.372,122.0
3015.578,148.0
3016.7842,159.0
3017.991,111.0
3019.1982,109.0
3020.406,138.0
3021.6143,145.0
3022.823,139.0
3024.0322,123.0
3025.242,115.0
3026.4521,127.0
3027.6628,139.0
3028.874,121.0
3030.0857,116.0
3031.2976,133.0
3032.51,134.0
3033.723,140.0
3034.9363,107.0
3036.1501,122.0
3037.3645,131.0
3038.5793,123.0
3039.7947,118.0
3041.0105,125.0
3042.2268,151.0
3043.4436,151.0
3044.661,127.0
3045.8787,130.0
3047.097,122.0
3048.3157,148.0
3049.535,112.0
3050.7546,129.0
3051.9749,117.0
3053.1956,122.0
3054.4167,149.0
3055.6384,160.0
3056.8606,140.0
3058.0833,126.0
3059.3064,102.0
3060.53,155.0
3061.7542,119.0
3062.9788,129.0
3064.2039,112.0
3065.4294,130.0
3066.6555,132.0
3067.882,126.0
3069.1091,140.0
3070.3367,147.0
3071.5647,136.0
3072.7932,118.0
3074.0222,127.0
3075.2517,143.0
3076.4817,135.0
3077.7124,127.0
3078.9436,127.0
3080.1753,148.0
3081.4075,111.0
3082.6401,134.0
3083.8733,115.0
3085.107,106.0
3086.341,137.0
3087.5757,167.0
3088.8108,126.0
3090.0464,133.0
3091.2825,130.0
3092.519,134.0
3093.756,122.0
3094.9937,124.0
3096.2317,146.0
3097.4702,157.0
3098.7092,138.0
3099.9487,130.0
3101.1887,106.0
3102.4292,113.0
3103.6702,140.0
3104.9116,137.0
3106.1536,128.0
3107.396,125.0
3108.639,135.0
3109.8823,136.0
3111.1262,133.0
3112.3706,141.0
3113.6155,135.0
3114.8608,125.0
3116.1067,126.0
3117.353,133.0
3118.5999,141.0
3119.8474,128.0
3121.0955,120.0
3122.344,117.0
3123.593,145.0
3124.8425,128.0
3126.0925,134.0
3127.343,137.0
3128.594,150.0
3129.8455,121.0
3131.0974,102.0
3132.3499,135.0
3133.6028,118.0
3134.8562,115.0
3136.11,125.0
3137.3645,137.0
3138.6194,131.0
3139.8748,136.0
3141.1306,128.0
3142.387,124.0
3143.6438,135.0
3144.9014,137.0
3146.1594,135.0
3147.418,148.0
3148.677,142.0
3149.9365,138.0
3151.1965,144.0
3152.457,143.0
3153.718,144.0
3154.9795,133.0
3156.2415,138.0
3157.504,139.0
3158.7668,131.0
3160.0303,129.0
3161.2942,127.0
3162.5586,131.0
3163.8237,113.0
3165.0894,128.0
3166.3555,113.0
3167.622,129.0
3168.8892,119.0
3170.1567,129.0
3171.4248,142.0
3172.6934,155.0
3173.9624,140.0
3175.232,128.0
3176.502,132.0
3177.7725,141.0
3179.0435,126.0
3180.3152,121.0
3181.5874,159.0
3182.86,140.0
3184.1333,118.0
3185.407,124.0
3186.6812,154.0
3187.9558,143.0
3189.231,135.0
3190.5066,133.0
3191.7827,137.0
3193.0593,129.0
3194.3367,156.0
3195.6145,134.0
3196.8928,123.0
3198.1716,133.0
3199.451,137.0
3200.7307,141.0
3202.011,139.0
3203.2917,136.0
3204.573,150.0
3205.8547,144.0
3207.137,123.0
3208.42,119.0
3209.7034,151.0
3210.9873,128.0
3212.2717,133.0
3213.5566,143.0
3214.842,120.0
3216.128,156.0
3217.4143,156.0
3218.7012,139.0
3219.9888,129.0
3221.2769,123.0
3222.5654,146.0
3223.8545,144.0
3225.144,156.0
3226.434,142.0
3227.7246,138.0
3229.0156,136.0
3230.3071,119.0
3231.5994,135.0
3232.892,120.0
3234.1853,120.0
3235.479,132.0
3236.7732,148.0
3238.0679,156.0
3239.363,129.0
3240.6587,152.0
3241.9548,127.0
3243.2517,123.0
3244.549,131.0
3245.847,152.0
3247.1453,123.0
3248.444,137.0
3249.7434,136.0
3251.0432,117.0
3252.3438,124.0
3253.6448,142.0
3254.9463,144.0
3256.2483,130.0
3257.5508,127.0
3258.8538,136.0
3260.1572,124.0
3261.4612,151.0
3262.7659,150.0
3264.071,117.0
3265.3767,126.0
3266.6829,146.0
3267.9895,146.0
3269.2966,142.0
3270.6042,156.0
3271.9126,128.0
3273.2214,133.0
3274.5308,164.0
3275.8406,145.0
3277.151,131.0
3278.4617,114.0
3279.773,137.0
3281.085,127.0
3282.3975,129.0
3283.7104,141.0
3285.024,127.0
3286.338,134.0
3287.6523,136.0
3288.9673,131.0
3290.283,137.0
3291.599,143.0
3292.9158,170.0
3294.233,147.0
3295.5505,130.0
3296.8687,137.0
3298.1875,118.0
3299.5068,148.0
3300.8267,156.0
3302.147,128.0
3303.4678,129.0
3304.789,128.0
3306.111,154.0
3307.4336,141.0
3308.7566,132.0
3310.08,149.0
3311.404,117.0
3312.7285,132.0
3314.0537,130.0
3315.3794,147.0
3316.7056,152.0
3318.0322,132.0
3319.3594,154.0
3320.687,153.0
3322.0154,147.0
3323.3442,144.0
3324.6736,142.0
3326.0034,130.0
3327.3337,160.0
3328.6648,152.0
3329.9963,143.0
3331.3284,127.0
3332.661,142.0
3333.994,127.0
3335.3274,128.0
3336.6616,164.0
3337.9963,141.0
3339.3315,131.0
3340.6672,145.0
3342.0034,141.0
3343.3403,140.0
3344.6777,150.0
3346.0156,154.0
3347.354,133.0
3348.6929,118.0
3350.0322,151.0
3351.3723,150.0
3352.713,143.0
3354.054,152.0
3355.3955,130.0
3356.7375,158.0
3358.0803,114.0
3359.4236,142.0
3360.7673,154.0
3362.1116,140.0
3363.4563,135.0
3364.8018,151.0
3366.1477,137.0
3367.4941,158.0
3368.841,148.0
3370.1887,136.0
3371.5369,153.0
3372.8855,140.0
3374.2346,149.0
3375.5842,141.0
3376.9346,136.0
3378.2854,139.0
3379.6367,156.0
3380.9885,144.0
3382.3408,183.0
3383.6938,153.0
3385.0474,161.0
3386.4014,142.0
3387.7559,177.0
3389.1108,144.0
3390.4666,147.0
3391.8228,131.0
3393.1794,151.0
3394.5366,122.0
3395.8945,134.0
3397.253,131.0
3398.6118,158.0
3399.9712,145.0
3401.3313,168.0
3402.692,148.0
3404.053,169.0
3405.4146,151.0
3406.7766,162.0
3408.1394,140.0
3409.5027,140.0
3410.8665,146.0
3412.2307,160.0
3413.5957,171.0
3414.9612,137.0
3416.3271,140.0
3417.6936,166.0
3419.0608,179.0
3420.4285,161.0
3421.7966,164.0
3423.1653,158.0
3424.5347,140.0
3425.9045,125.0
3427.275,138.0
3428.6458,147.0
3430.017,161.0
3431.3892,135.0
3432.7617,155.0
3434.1348,126.0
3435.5083,153.0
3436.8826,157.0
3438.2573,121.0
3439.6326,135.0
3441.0083,132.0
3442.3848,130.0
3443.7617,138.0
3445.1392,127.0
3446.5173,140.0
3447.896,134.0
3449.2751,114.0
3450.6548,143.0
3452.0352,140.0
3453.416,153.0
3454.7974,137.0
3456.1792,156.0
3457.5618,157.0
3458.9448,144.0
3460.3284,113.0
3461.7124,127.0
3463.0972,147.0
3464.4824,132.0
3465.8682,157.0
3467.2544,128.0
3468.6414,128.0
3470.0288,139.0
3471.4167,155.0
3472.8054,153.0
3474.1946,165.0
3475.5842,170.0
3476.9744,138.0
3478.3652,141.0
3479.7566,168.0
3481.1484,146.0
3482.541,147.0
3483.934,144.0
3485.3276,144.0
3486.7217,158.0
3488.1165,150.0
3489.5117,163.0
3490.9075,165.0
3492.304,139.0
3493.701,152.0
3495.0984,137.0
3496.4963,150.0
3497.895,139.0
3499.2942,163.0
3500.6938,177.0
3502.0942,163.0
3503.495,151.0
3504.8965,167.0
3506.2983,139.0
3507.701,166.0
3509.104,183.0
3510.5076,170.0
3511.9119,163.0
3513.3167,174.0
3514.722,184.0
3516.128,140.0
3517.5344,155.0
3518.9414,148.0
3520.3489,157.0
3521.757,195.0
3523.1658,196.0
3524.575,178.0
3525.9849,151.0
3527.3953,173.0
3528.8062,171.0
3530.2178,211.0
3531.63,226.0
3533.0425,186.0
3534.4558,191.0
3535.8696,156.0
3537.284,136.0
3538.6987,154.0
3540.1143,114.0
3541.5303,161.0
3542.9468,165.0
3544.364,150.0
3545.7817,169.0
3547.2,142.0
3548.619,203.0
3550.0383,152.0
3551.4583,150.0
3552.879,156.0
3554.3,161.0
3555.7217,194.0
3557.144,165.0
3558.567,166.0
3559.9902,159.0
3561.4143,160.0
3562.8389,141.0
3564.264,164.0
3565.6897,177.0
3567.116,148.0
3568.5427,179.0
3569.9702,183.0
3571.3982,191.0
3572.8267,185.0
3574.2559,149.0
3575.6855,178.0
3577.1157,157.0
3578.5466,208.0
3579.978,186.0
3581.41,175.0
3582.8425,178.0
3584.2756,182.0
3585.7092,191.0
3587.1436,173.0
3588.5784,200.0
3590.014,185.0
3591.45,196.0
3592.8865,210.0
3594.3237,188.0
3595.7615,208.0
3597.1997,185.0
3598.6387,211.0
3600.0781,228.0
3601.518,181.0
3602.9587,198.0
3604.4,159.0
3605.8416,186.0
3607.284,221.0
3608.7268,288.0
3610.1704,223.0
3611.6145,178.0
3613.059,166.0
3614.5044,191.0
3615.9502,259.0
3617.3965,387.0
3618.8435,260.0
3620.291,199.0
3621.739,190.0
3623.1877,169.0
3624.637,188.0
3626.087,175.0
3627.5374,203.0
3628.9883,180.0
3630.44,178.0
3631.892,181.0
3633.3447,175.0
3634.798,180.0
3636.252,187.0
3637.7065,192.0
3639.1616,160.0
3640.6172,176.0
3642.0735,191.0
3643.5303,197.0
3644.9878,206.0
3646.4458,203.0
3647.9043,187.0
3649.3635,183.0
3650.8232,177.0
3652.2837,166.0
3653.7446,193.0
3655.206,192.0
3656.6682,190.0
3658.1309,191.0
3659.594,165.0
3661.0579,186.0
3662.5222,185.0
3663.9873,207.0
3665.453,188.0
3666.919,213.0
3668.3857,209.0
3669.853,187.0
3671.321,176.0
3672.7896,178.0
3674.2585,182.0
3675.7283,199.0
3677.1985,226.0
3678.6694,231.0
3680.1409,254.0
3681.613,197.0
3683.0857,171.0
3684.5588,162.0
3686.0327,193.0
3687.507,197.0
3688.9822,186.0
3690.4578,175.0
3691.9338,190.0
3693.4106,176.0
3694.888,211.0
3696.366,172.0
3697.8445,203.0
3699.3237,173.0
3700.8035,187.0
3702.2837,191.0
3703.7646,168.0
3705.246,184.0
3706.7283,203.0
3708.211,243.0
3709.6943,260.0
3711.1782,272.0
3712.6626,221.0
3714.1477,227.0
3715.6333,188.0
3717.1196,201.0
3718.6064,215.0
3720.094,204.0
3721.582,194.0
3723.0706,184.0
3724.5598,205.0
3726.0496,169.0
3727.54,236.0
3729.031,196.0
3730.5227,187.0
3732.015,210.0
3733.5078,278.0
3735.0012,308.0
3736.495,263.0
3737.9897,241.0
3739.4849,198.0
3740.9807,206.0
3742.477,229.0
3743.974,233.0
3745.4717,207.0
3746.97,198.0
3748.4688,194.0
3749.968,409.0
3751.468,726.0
3752.9685,893.0
3754.4697,511.0
3755.9714,385.0
3757.4739,264.0
3758.9768,229.0
3760.4805,230.0
3761.9846,219.0
3763.4895,225.0
3764.9949,253.0
3766.501,247.0
3768.0076,275.0
3769.515,228.0
3771.0227,244.0
3772.531,219.0
3774.04,278.0
3775.5496,234.0
3777.0598,250.0
3778.5706,220.0
3780.082,222.0
3781.594,210.0
3783.1067,261.0
3784.6199,285.0
3786.1338,278.0
3787.6482,251.0
3789.1633,256.0
3790.679,193.0
3792.1953,205.0
3793.7122,210.0
3795.2297,212.0
3796.7478,244.0
3798.2666,249.0
3799.786,239.0
3801.306,212.0
3802.8264,224.0
3804.3477,214.0
3805.8694,228.0
3807.3918,214.0
3808.9148,235.0
3810.4385,228.0
3811.9626,215.0
3813.4875,248.0
3815.013,313.0
3816.539,288.0
3818.0657,238.0
3819.593,214.0
3821.1208,226.0
3822.6494,208.0
3824.1785,210.0
3825.7083,189.0
3827.2385,199.0
3828.7695,228.0
3830.301,243.0
3831.8333,265.0
3833.366,226.0
3834.8994,236.0
3836.4333,208.0
3837.968,218.0
3839.5032,205.0
3841.039,238.0
3842.5754,212.0
3844.1125,246.0
3845.6501,228.0
3847.1885,303.0
3848.7273,325.0
3850.2668,345.0
3851.807,265.0
3853.3477,221.0
3854.889,205.0
3856.431,212.0
3857.9734,239.0
3859.5166,241.0
3861.0603,205.0
3862.6047,213.0
3864.1497,230.0
3865.6953,260.0
3867.2417,255.0
3868.7886,257.0
3870.3362,243.0
3871.8843,236.0
3873.433,261.0
3874.9824,266.0
3876.5325,220.0
3878.083,221.0
3879.6343,241.0
3881.186,264.0
3882.7385,290.0
3884.2915,257.0
3885.8452,284.0
3887.3997,210.0
3888.9546,219.0
3890.5103,212.0
3892.0664,202.0
3893.6233,213.0
3895.1807,209.0
3896.7388,230.0
3898.2974,253.0
3899.8567,274.0
3901.4167,284.0
3902.9773,259.0
3904.5386,266.0
3906.1003,263.0
3907.6628,237.0
3909.2258,211.0
3910.7896,191.0
3912.3538,201.0
3913.9187,226.0
3915.4844,241.0
3917.0505,256.0
3918.6174,233.0
3920.1848,228.0
3921.753,211.0
3923.3215,192.0
3924.8909,215.0
3926.461,207.0
3928.0315,228.0
3929.6028,228.0
3931.1746,238.0
3932.747,214.0
3934.32,207.0
3935.8938,202.0
3937.4683,201.0
3939.0432,195.0
3940.619,230.0
3942.195,227.0
3943.772,194.0
3945.3494,217.0
3946.9275,215.0
3948.5063,228.0
3950.0857,213.0
3951.6658,209.0
3953.2463,212.0
3954.8276,190.0
3956.4097,178.0
3957.9922,236.0
3959.5754,205.0
3961.1592,236.0
3962.7437,198.0
3964.3289,197.0
3965.9146,206.0
3967.501,181.0
3969.088,187.0
3970.6755,188.0
3972.264,166.0
3973.8528,185.0
3975.4424,183.0
3977.0325,192.0
3978.6233,201.0
3980.2148,228.0
3981.807,198.0
3983.3997,200.0
3984.993,233.0
3986.587,205.0
3988.1816,164.0
3989.7769,198.0
3991.3728,241.0
3992.9692,250.0
3994.5664,250.0
3996.1643,213.0
3997.7627,235.0
3999.3618,192.0
4000.9617,173.0
4002.562,226.0
4004.163,222.0
4005.7646,252.0
4007.367,198.0
4008.97,217.0
4010.5735,219.0
4012.1777,239.0
4013.7827,236.0
4015.3882,229.0
4016.9944,212.0
4018.601,218.0
4020.2085,245.0
4021.8167,259.0
4023.4253,207.0
4025.0347,234.0
4026.6448,257.0
4028.2554,242.0
4029.8667,279.0
4031.4788,228.0
4033.0913,272.0
4034.7046,258.0
4036.3184,280.0
4037.9329,334.0
4039.548,309.0
4041.1638,291.0
4042.7803,337.0
4044.3975,342.0
4046.0151,303.0
4047.6335,245.0
4049.2527,321.0
4050.8723,431.0
4052.4927,416.0
4054.1138,393.0
4055.7354,329.0
4057.3577,341.0
4058.9807,462.0
4060.6042,628.0
4062.2285,469.0
4063.8535,410.0
4065.479,380.0
4067.1052,407.0
4068.7322,397.0
4070.3596,397.0
4071.9878,531.0
4073.6167,579.0
4075.246,448.0
4076.8762,468.0
4078.507,455.0
4080.1384,463.0
4081.7705,641.0
4083.4033,599.0
4085.0366,768.0
4086.6707,811.0
4088.3054,567.0
4089.9407,463.0
4091.5767,369.0
4093.2134,1062.0
4094.8506,1800.0
4096.489,1078.0
4098.1274,468.0
4099.7666,383.0
4101.4067,1071.0
4103.0474,3279.0
4104.6885,2521.0
4106.3306,1023.0
4107.973,500.0
4109.616,376.0
4111.2603,354.0
4112.905,380.0
4114.55,426.0
4116.196,430.0
4117.8423,317.0
4119.4893,249.0
4121.137,271.0
4122.7856,285.0
4124.4346,277.0
4126.0845,244.0
4127.735,247.0
4129.3857,211.0
4131.0376,201.0
4132.69,232.0
4134.343,259.0
4135.9966,225.0
4137.651,219.0
4139.306,220.0
4140.962,222.0
4142.618,186.0
4144.2754,227.0
4145.933,250.0
4147.5913,227.0
4149.2505,200.0
4150.91,245.0
4152.5703,244.0
4154.2314,235.0
4155.893,247.0
4157.5557,242.0
4159.2188,247.0
4160.8823,220.0
4162.547,231.0
4164.212,226.0
4165.8774,267.0
4167.544,286.0
4169.211,238.0
4170.8784,266.0
4172.547,236.0
4174.216,285.0
4175.8857,323.0
4177.556,268.0
4179.227,278.0
4180.899,262.0
4182.5713,266.0
4184.244,248.0
4185.918,239.0
4187.5923,295.0
4189.267,302.0
4190.943,271.0
4192.619,249.0
4194.2964,244.0
4195.974,269.0
4197.6523,336.0
4199.3315,322.0
4201.011,266.0
4202.6914,248.0
4204.3726,250.0
4206.054,266.0
4207.737,242.0
4209.42,210.0
4211.1035,204.0
4212.788,270.0
4214.473,246.0
4216.1587,252.0
4217.845,243.0
4219.532,218.0
4221.22,240.0
4222.9087,235.0
4224.5977,253.0
4226.2876,263.0
4227.978,260.0
4229.6694,250.0
4231.3613,237.0
4233.0537,264.0
4234.747,272.0
4236.441,242.0
4238.1353,251.0
4239.8306,239.0
4241.5264,270.0
4243.223,262.0
4244.9204,263.0
4246.618,254.0
4248.317,279.0
4250.016,267.0
4251.7163,275.0
4253.417,263.0
4255.118,314.0
4256.8203,296.0
4258.523,301.0
4260.2266,321.0
4261.9307,283.0
4263.6353,290.0
4265.341,315.0
4267.047,329.0
4268.754,392.0
4270.4614,335.0
4272.1694,282.0
4273.8784,282.0
4275.588,369.0
4277.2983,525.0
4279.0093,394.0
4280.7207,335.0
4282.433,306.0
4284.146,427.0
4285.86,760.0
4287.574,636.0
4289.289,372.0
4291.005,312.0
4292.721,268.0
4294.4385,270.0
4296.1562,280.0
4297.8745,338.0
4299.5938,303.0
4301.3135,270.0
4303.034,273.0
4304.7554,270.0
4306.477,242.0
4308.1997,268.0
4309.923,265.0
4311.647,254.0
4313.3716,268.0
4315.097,219.0
4316.823,233.0
4318.55,210.0
4320.2773,237.0
4322.0054,235.0
4323.7344,227.0
4325.464,234.0
4327.194,234.0
4328.925,221.0
4330.6562,236.0
4332.3887,254.0
4334.1216,252.0
4335.8555,241.0
4337.59,239.0
4339.3247,266.0
4341.0605,254.0
4342.797,255.0
4344.534,217.0
4346.272,193.0
4348.0103,213.0
4349.7495,249.0
4351.4893,236.0
4353.23,229.0
4354.971,252.0
4356.7134,280.0
4358.456,254.0
4360.199,255.0
4361.9434,257.0
4363.688,233.0
4365.4336,236.0
4367.1797,213.0
4368.927,243.0
4370.6743,252.0
4372.4224,253.0
4374.1714,232.0
4375.921,232.0
4377.6714,255.0
4379.4224,265.0
4381.1743,265.0
4382.927,283.0
4384.6797,241.0
4386.4336,266.0
4388.188,257.0
4389.9434,274.0
4391.699,270.0
4393.456,258.0
4395.2134,255.0
4396.9717,271.0
4398.7305,244.0
4400.4897,296.0
4402.25,263.0
4404.0107,284.0
4405.7725,279.0
4407.5347,311.0
4409.298,388.0
4411.0615,309.0
4412.826,276.0
4414.5913,285.0
4416.357,350.0
4418.1235,398.0
4419.8906,365.0
4421.6587,315.0
4423.4272,307.0
4425.197,254.0
4426.967,251.0
4428.738,306.0
4430.5093,353.0
4432.2812,322.0
4434.054,282.0
4435.8276,294.0
4437.602,334.0
4439.377,401.0
4441.153,316.0
4442.929,282.0
4444.7065,272.0
4446.4844,303.0
4448.263,300.0
4450.0425,313.0
4451.8223,303.0
4453.603,292.0
4455.3843,311.0
4457.1665,288.0
4458.949,325.0
4460.733,320.0
4462.517,292.0
4464.3022,287.0
4466.088,287.0
4467.8745,433.0
4469.6616,440.0
4471.4497,357.0
4473.2383,339.0
4475.0273,293.0
4476.8174,262.0
4478.608,303.0
4480.3994,325.0
4482.1914,339.0
4483.9844,329.0
4485.778,284.0
4487.5723,269.0
4489.367,354.0
4491.163,302.0
4492.9595,287.0
4494.757,268.0
4496.5547,318.0
4498.3535,348.0
4500.153,329.0
4501.953,312.0
4503.754,333.0
4505.555,317.0
4507.3574,357.0
4509.16,295.0
4510.964,287.0
4512.768,318.0
4514.573,328.0
4516.379,300.0
4518.1855,278.0
4519.9927,290.0
4521.801,352.0
4523.6094,325.0
4525.419,288.0
4527.229,261.0
4529.04,316.0
4530.8516,383.0
4532.664,363.0
4534.477,312.0
4536.291,256.0
4538.1055,303.0
4539.921,277.0
4541.737,288.0
4543.5537,262.0
4545.371,259.0
4547.1895,276.0
4549.0083,261.0
4550.828,255.0
4552.6484,265.0
4554.4697,243.0
4556.2915,238.0
4558.1143,245.0
4559.9375,251.0
4561.7617,271.0
4563.5864,280.0
4565.4116,237.0
4567.238,244.0
4569.0645,242.0
4570.892,280.0
4572.72,254.0
4574.5493,235.0
4576.379,241.0
4578.2095,228.0
4580.0405,257.0
4581.8726,277.0
4583.705,282.0
4585.5386,267.0
4587.3726,222.0
4589.2075,208.0
4591.043,277.0
4592.8794,281.0
4594.7163,291.0
4596.554,248.0
4598.3926,244.0
4600.232,269.0
4602.0723,307.0
4603.913,254.0
4605.755,267.0
4607.597,266.0
4609.4404,230.0
4611.284,263.0
4613.129,301.0
4614.974,277.0
4616.8203,272.0
4618.667,225.0
4620.5146,271.0
4622.363,268.0
4624.212,283.0
4626.0615,259.0
4627.912,281.0
4629.763,273.0
4631.615,232.0
4633.468,260.0
4635.3213,239.0
4637.1753,272.0
4639.0303,255.0
4640.8857,226.0
4642.742,311.0
4644.599,256.0
4646.457,303.0
4648.3154,256.0
4650.175,242.0
4652.0347,228.0
4653.8955,269.0
4655.757,250.0
4657.619,256.0
4659.4824,254.0
4661.346,251.0
4663.211,250.0
4665.076,294.0
4666.9424,263.0
4668.809,251.0
4670.677,300.0
4672.545,235.0
4674.414,248.0
4676.2837,253.0
4678.1543,252.0
4680.0254,285.0
4681.8975,296.0
4683.77,262.0
4685.6436,258.0
4687.5176,246.0
4689.3926,272.0
4691.2686,255.0
4693.145,274.0
4695.0225,301.0
4696.9004,269.0
4698.7793,258.0
4700.6587,247.0
4702.539,248.0
4704.42,231.0
4706.302,253.0
4708.184,286.0
4710.0674,262.0
4711.951,266.0
4713.836,290.0
4715.7217,289.0
4717.608,243.0
4719.495,221.0
4721.383,257.0
4723.2715,258.0
4725.1606,244.0
4727.051,297.0
4728.9414,261.0
4730.833,294.0
4732.725,234.0
4734.618,230.0
4736.512,248.0
4738.4067,228.0
4740.3022,244.0
4742.198,225.0
4744.095,241.0
4745.9927,264.0
4747.891,253.0
4749.79,237.0
4751.69,202.0
4753.591,246.0
4755.492,229.0
4757.3945,210.0
4759.2974,236.0
4761.201,220.0
4763.1055,256.0
4765.0107,270.0
4766.9165,202.0
4768.823,234.0
4770.731,215.0
4772.639,240.0
4774.5483,217.0
4776.458,221.0
4778.3687,237.0
4780.28,229.0
4782.192,187.0
4784.105,224.0
4786.0186,208.0
4787.933,213.0
4789.848,237.0
4791.764,232.0
4793.6807,218.0
4795.598,236.0
4797.5166,232.0
4799.4355,231.0
4801.3555,215.0
4803.276,203.0
4805.1973,212.0
4807.119,242.0
4809.042,223.0
4810.966,211.0
4812.89,232.0
4814.8154,201.0
4816.741,218.0
4818.668,205.0
4820.595,197.0
4822.5234,204.0
4824.4526,197.0
4826.3823,205.0
4828.313,213.0
4830.244,236.0
4832.1763,240.0
4834.1094,200.0
4836.043,220.0
4837.9775,204.0
4839.9126,258.0
4841.8486,204.0
4843.785,222.0
4845.7227,237.0
4847.661,236.0
4849.6,246.0
4851.54,213.0
4853.4805,197.0
4855.422,224.0
4857.3643,195.0
4859.307,205.0
4861.251,206.0
4863.1953,186.0
4865.1406,211.0
4867.087,201.0
4869.0337,246.0
4870.9814,213.0
4872.9297,254.0
4874.879,233.0
4876.829,222.0
4878.78,202.0
4880.7314,223.0
4882.6836,223.0
4884.6367,202.0
4886.5903,211.0
4888.545,203.0
4890.5005,198.0
4892.4565,247.0
4894.4136,199.0
4896.3716,226.0
4898.33,209.0
4900.2896,231.0
4902.2495,233.0
4904.2104,254.0
4906.1724,210.0
4908.135,223.0
4910.098,238.0
4912.062,232.0
4914.027,215.0
4915.9927,244.0
4917.959,225.0
4919.9263,230.0
4921.894,228.0
4923.863,246.0
4925.8325,209.0
4927.8027,196.0
4929.774,240.0
4931.7456,232.0
4933.7183,227.0
4935.692,219.0
4937.666,245.0
4939.641,229.0
4941.617,233.0
4943.5938,251.0
4945.5713,203.0
4947.5493,255.0
4949.5283,222.0
4951.5083,235.0
4953.489,246.0
4955.47,252.0
4957.4526,253.0
4959.4355,225.0
4961.4194,237.0
4963.404,229.0
4965.389,260.0
4967.3755,248.0
4969.3623,224.0
4971.35,225.0
4973.339,237.0
4975.328,277.0
4977.3184,279.0
4979.309,252.0
4981.301,224.0
4983.2935,242.0
4985.2866,257.0
4987.281,266.0
4989.276,288.0
4991.2715,239.0
4993.268,246.0
4995.265,259.0
4997.263,243.0
4999.262,253.0
5001.2617,254.0
5003.262,227.0
5005.2637,267.0
5007.2656,236.0
5009.2686,241.0
5011.2725,262.0
5013.277,235.0
5015.282,222.0
5017.2886,247.0
5019.2954,221.0
5021.303,252.0
5023.3115,269.0
5025.321,286.0
5027.331,261.0
5029.342,279.0
5031.3535,267.0
5033.366,275.0
5035.3794,247.0
5037.3936,245.0
5039.4087,259.0
5041.4243,249.0
5043.441,281.0
5045.4585,290.0
5047.4766,260.0
5049.4956,246.0
5051.5156,248.0
5053.536,233.0
5055.5576,238.0
5057.58,258.0
5059.603,248.0
5061.627,222.0
5063.6514,244.0
5065.677,229.0
5067.703,249.0
5069.73,247.0
5071.758,239.0
5073.7866,298.0
5075.816,223.0
5077.846,209.0
5079.8774,240.0
5081.909,255.0
5083.942,212.0
5085.9756,235.0
5088.01,241.0
5090.045,242.0
5092.081,243.0
5094.1177,238.0
5096.1553,257.0
5098.194,241.0
5100.233,239.0
5102.273,263.0
5104.314,249.0
5106.3555,239.0
5108.398,265.0
5110.4414,284.0
5112.4854,279.0
5114.5303,261.0
5116.576,266.0
5118.6226,267.0
5120.67,240.0
5122.7183,255.0
5124.7676,229.0
5126.8174,257.0
5128.868,266.0
5130.92,308.0
5132.972,306.0
5135.0254,265.0
5137.0796,271.0
5139.1343,237.0
5141.19,255.0
5143.2466,266.0
5145.3037,315.0
5147.362,330.0
5149.421,286.0
5151.4805,272.0
5153.541,239.0
5155.6025,237.0
5157.6646,241.0
5159.7275,260.0
5161.7915,227.0
5163.8564,248.0
5165.922,219.0
5167.9883,273.0
5170.0557,269.0
5172.1235,276.0
5174.1924,246.0
5176.262,286.0
5178.3325,278.0
5180.404,269.0
5182.476,245.0
5184.549,263.0
5186.6226,284.0
5188.6973,284.0
5190.773,249.0
5192.849,253.0
5194.9263,241.0
5197.0044,246.0
5199.083,231.0
5201.1626,261.0
5203.243,265.0
5205.324,252.0
5207.4062,252.0
5209.4893,279.0
5211.573,272.0
5213.6577,251.0
5215.743,225.0
5217.8296,241.0
5219.9165,317.0
5222.0044,309.0
5224.0933,311.0
5226.183,277.0
5228.2734,264.0
5230.3647,280.0
5232.457,264.0
5234.55,249.0
5236.6436,266.0
5238.7383,247.0
5240.834,263.0
5242.93,294.0
5245.0273,309.0
5247.1255,287.0
5249.224,276.0
5251.3237,259.0
5253.4243,256.0
5255.526,276.0
5257.628,306.0
5259.731,300.0
5261.835,290.0
5263.9395,255.0
5266.045,268.0
5268.1514,272.0
5270.259,243.0
5272.3667,263.0
5274.4756,286.0
5276.5854,284.0
5278.6963,245.0
5280.8076,290.0
5282.92,272.0
5285.033,310.0
5287.147,288.0
5289.2617,252.0
5291.3774,227.0
5293.494,218.0
5295.6113,279.0
5297.7295,245.0
5299.8486,331.0
5301.9688,351.0
5304.0894,287.0
5306.211,271.0
5308.3335,257.0
5310.457,264.0
5312.581,259.0
5314.706,230.0
5316.832,325.0
5318.959,343.0
5321.0864,324.0
5323.215,292.0
5325.344,277.0
5327.4746,278.0
5329.6055,261.0
5331.7373,264.0
5333.87,267.0
5336.004,252.0
5338.138,270.0
5340.2734,255.0
5342.4097,267.0
5344.547,312.0
5346.6846,267.0
5348.823,262.0
5350.963,267.0
5353.1035,290.0
5355.2446,271.0
5357.3867,266.0
5359.53,271.0
5361.674,293.0
5363.8184,272.0
5365.964,289.0
5368.1104,269.0
5370.258,304.0
5372.406,267.0
5374.5547,323.0
5376.7046,321.0
5378.8555,336.0
5381.007,294.0
5383.159,308.0
5385.3125,246.0
5387.467,277.0
5389.6216,265.0
5391.7773,306.0
5393.934,286.0
5396.092,293.0
5398.25,299.0
5400.409,285.0
5402.5693,286.0
5404.7305,275.0
5406.8926,319.0
5409.055,342.0
5411.2188,335.0
5413.3833,331.0
5415.549,291.0
5417.715,296.0
5419.882,287.0
5422.05,300.0
5424.2188,292.0
5426.3887,321.0
5428.559,298.0
5430.7305,320.0
5432.903,276.0
5435.076,284.0
5437.25,263.0
5439.425,301.0
5441.6006,317.0
5443.7773,329.0
5445.955,317.0
5448.1333,301.0
5450.3125,260.0
5452.4927,278.0
5454.674,286.0
5456.8555,296.0
5459.038,312.0
5461.2217,270.0
5463.4062,277.0
5465.592,298.0
5467.778,301.0
5469.965,285.0
5472.153,306.0
5474.342,287.0
5476.5317,281.0
5478.722,312.0
5480.9136,312.0
5483.106,292.0
5485.2993,335.0
5487.4937,318.0
5489.6885,311.0
5491.8843,309.0
5494.081,290.0
5496.279,293.0
5498.4775,308.0
5500.677,311.0
5502.877,318.0
5505.078,336.0
5507.2803,332.0
5509.4834,302.0
5511.687,303.0
5513.8916,334.0
5516.097,293.0
5518.3037,316.0
5520.511,302.0
5522.719,342.0
5524.928,326.0
5527.138,312.0
5529.349,302.0
5531.561,316.0
5533.7734,290.0
5535.987,313.0
5538.201,342.0
5540.4165,315.0
5542.633,306.0
5544.85,275.0
5547.068,286.0
5549.2866,321.0
5551.5063,290.0
5553.727,284.0
5555.9487,303.0
5558.171,337.0
5560.394,294.0
5562.618,317.0
5564.8433,311.0
5567.0693,316.0
5569.2964,300.0
5571.524,317.0
5573.7524,282.0
5575.982,275.0
5578.2124,287.0
5580.444,315.0
5582.676,348.0
5584.9087,313.0
5587.1426,306.0
5589.3774,288.0
5591.6133,261.0
5593.85,266.0
5596.0874,282.0
5598.3257,295.0
5600.565,316.0
5602.805,298.0
5605.0464,320.0
5607.2886,279.0
5609.5312,284.0
5611.775,267.0
5614.0195,287.0
5616.265,273.0
5618.5117,301.0
5620.7593,309.0
5623.008,265.0
5625.257,326.0
5627.507,234.0
5629.758,265.0
5632.01,312.0
5634.2627,309.0
5636.5166,294.0
5638.771,271.0
5641.0264,274.0
5643.2827,284.0
5645.54,304.0
5647.7983,289.0
5650.0576,283.0
5652.318,277.0
5654.5786,288.0
5656.8403,248.0
5659.103,268.0
5661.3667,278.0
5663.6313,300.0
5665.897,324.0
5668.1636,288.0
5670.4307,304.0
5672.6987,279.0
5674.968,313.0
5677.238,297.0
5679.509,324.0
5681.781,311.0
5684.0537,297.0
5686.327,257.0
5688.6016,304.0
5690.877,289.0
5693.1533,286.0
5695.4307,286.0
5697.709,292.0
5699.9883,303.0
5702.268,319.0
5704.549,301.0
5706.8306,315.0
5709.1133,274.0
5711.397,297.0
5713.6816,300.0
5715.9673,280.0
5718.254,326.0
5720.541,297.0
5722.829,302.0
5725.118,343.0
5727.408,324.0
5729.699,290.0
5731.991,312.0
5734.284,333.0
5736.578,335.0
5738.8726,320.0
5741.168,334.0
5743.4644,292.0
5745.7617,298.0
5748.06,353.0
5750.3594,327.0
5752.6597,336.0
5754.961,363.0
5757.2627,315.0
5759.5654,355.0
5761.869,314.0
5764.174,349.0
5766.4795,310.0
5768.786,338.0
5771.0938,340.0
5773.4023,341.0
5775.712,352.0
5778.022,355.0
5780.333,349.0
5782.645,316.0
5784.958,342.0
5787.272,335.0
5789.587,339.0
5791.903,379.0
5794.2197,357.0
5796.5376,341.0
5798.8564,391.0
5801.176,385.0
5803.496,373.0
5805.8174,380.0
5808.1396,362.0
5810.463,385.0
5812.787,381.0
5815.1123,401.0
5817.4385,385.0
5819.7656,338.0
5822.0938,426.0
5824.4224,379.0
5826.752,363.0
5829.0825,402.0
5831.414,434.0
5833.7466,421.0
5836.08,386.0
5838.4146,454.0
5840.75,512.0
5843.0864,414.0
5845.424,395.0
5847.762,448.0
5850.101,419.0
5852.441,403.0
5854.7817,411.0
5857.1235,418.0
5859.4663,374.0
5861.81,422.0
5864.155,364.0
5866.5005,419.0
5868.847,408.0
5871.195,420.0
5873.5435,403.0
5875.893,378.0
5878.2437,391.0
5880.5947,369.0
5882.947,419.0
5885.3,417.0
5887.654,394.0
5890.009,423.0
5892.3647,407.0
5894.7217,399.0
5897.0796,409.0
5899.4385,422.0
5901.7983,474.0
5904.159,426.0
5906.521,458.0
5908.884,448.0
5911.2476,450.0
5913.612,434.0
5915.977,464.0
5918.3433,460.0
5920.7104,452.0
5923.0786,450.0
5925.4478,453.0
5927.818,417.0
5930.189,481.0
5932.561,477.0
5934.934,472.0
5937.308,441.0
5939.683,467.0
5942.059,491.0
5944.436,481.0
5946.814,467.0
5949.193,455.0
5951.5728,474.0
5953.9536,438.0
5956.335,454.0
5958.7173,509.0
5961.1006,556.0
5963.485,481.0
5965.87,521.0
5968.2563,478.0
5970.6436,516.0
5973.0317,548.0
5975.421,519.0
5977.811,564.0
5980.202,520.0
5982.594,477.0
5984.9873,534.0
5987.3813,543.0
5989.7764,504.0
5992.1724,518.0
5994.5693,547.0
5996.9673,517.0
5999.366,475.0
6001.766,575.0
6004.167,582.0
6006.569,492.0
6008.9717,525.0
6011.3755,611.0
6013.7803,531.0
6016.1855,507.0
6018.592,578.0
6020.999,570.0
6023.407,491.0
6025.8164,428.0
6028.2266,498.0
6030.6377,510.0
6033.05,514.0
6035.463,510.0
6037.877,471.0
6040.292,456.0
6042.708,444.0
6045.125,519.0
6047.543,486.0
6049.962,485.0
6052.382,433.0
6054.8027,428.0
6057.2246,447.0
6059.6475,447.0
6062.0713,514.0
6064.496,584.0
6066.922,583.0
6069.3486,452.0
6071.7764,450.0
6074.205,461.0
6076.635,460.0
6079.0654,460.0
6081.497,441.0
6083.9297,524.0
6086.3633,529.0
6088.798,490.0
6091.2334,471.0
6093.67,473.0
6096.1074,438.0
6098.546,459.0
6100.9854,517.0
6103.426,507.0
6105.867,529.0
6108.3096,456.0
6110.753,532.0
6113.1973,507.0
6115.6426,582.0
6118.089,596.0
6120.536,551.0
6122.9844,510.0
6125.4336,478.0
6127.884,521.0
6130.335,650.0
6132.787,619.0
6135.24,607.0
6137.6943,600.0
6140.1494,536.0
6142.6055,590.0
6145.0625,590.0
6147.5205,667.0
6149.9795,713.0
6152.4395,710.0
6154.9004,611.0
6157.3623,733.0
6159.825,753.0
6162.289,665.0
6164.754,575.0
6167.2197,583.0
6169.6865,558.0
6172.1543,688.0
6174.623,930.0
6177.093,927.0
6179.5635,775.0
6182.035,687.0
6184.508,659.0
6186.9814,683.0
6189.456,752.0
6191.9316,1050.0
6194.408,1062.0
6196.8857,915.0
6199.3643,779.0
6201.844,750.0
6204.325,727.0
6206.807,684.0
6209.29,551.0
6211.774,640.0
6214.259,686.0
6216.7446,821.0
6219.2314,751.0
6221.719,601.0
6224.208,578.0
6226.6978,617.0
6229.1885,748.0
6231.68,852.0
6234.173,888.0
6236.6665,776.0
6239.161,691.0
6241.6567,638.0
6244.1533,616.0
6246.651,800.0
6249.1494,853.0
6251.649,748.0
6254.1494,759.0
6256.651,805.0
6259.1533,738.0
6261.6567,656.0
6264.1616,625.0
6266.6675,599.0
6269.1743,556.0
6271.682,940.0
6274.191,1272.0
6276.7007,1101.0
6279.2114,649.0
6281.723,556.0
6284.236,504.0
6286.7495,556.0
6289.264,1127.0
6291.78,1766.0
6294.2964,1324.0
6296.814,787.0
6299.3325,627.0
6301.852,502.0
6304.3726,514.0
6306.8945,523.0
6309.4175,547.0
6311.9414,549.0
6314.4663,537.0
6316.992,520.0
6319.519,513.0
6322.047,462.0
6324.5757,491.0
6327.1055,497.0
6329.636,469.0
6332.168,492.0
6334.7007,517.0
6337.2344,470.0
6339.769,476.0
6342.305,455.0
6344.8423,497.0
6347.3804,533.0
6349.9194,521.0
6352.4595,465.0
6355.0005,478.0
6357.5425,522.0
6360.0854,523.0
6362.6294,523.0
6365.1743,517.0
6367.72,588.0
6370.267,521.0
6372.8154,518.0
6375.3647,524.0
6377.915,481.0
6380.4663,501.0
6383.0186,529.0
6385.572,529.0
6388.126,596.0
6390.681,521.0
6393.2373,560.0
6395.7944,528.0
6398.3525,545.0
6400.912,550.0
6403.4727,603.0
6406.034,603.0
6408.5967,536.0
6411.16,499.0
6413.7246,517.0
6416.29,485.0
6418.8564,536.0
6421.424,517.0
6423.992,543.0
6426.562,512.0
6429.133,538.0
6431.7046,518.0
6434.2773,498.0
6436.851,538.0
6439.426,490.0
6442.0015,494.0
6444.578,546.0
6447.156,564.0
6449.735,551.0
6452.315,517.0
6454.896,484.0
6457.478,553.0
6460.061,489.0
6462.645,500.0
6465.23,492.0
6467.816,521.0
6470.403,548.0
6472.991,551.0
6475.5806,518.0
6478.171,555.0
6480.762,543.0
6483.3545,537.0
6485.9478,544.0
6488.542,526.0
6491.137,531.0
6493.734,552.0
6496.3315,608.0
6498.93,578.0
6501.53,518.0
6504.1304,560.0
6506.732,577.0
6509.3345,550.0
6511.938,596.0
6514.543,617.0
6517.149,606.0
6519.756,594.0
6522.364,613.0
6524.9727,615.0
6527.5825,589.0
6530.1934,577.0
6532.8057,616.0
6535.419,514.0
6538.033,618.0
6540.6484,665.0
6543.2646,684.0
6545.882,592.0
6548.5,619.0
6551.1196,598.0
6553.74,634.0
6556.362,755.0
6558.9844,803.0
6561.608,697.0
6564.2324,636.0
6566.858,588.0
6569.485,645.0
6572.113,593.0
6574.7417,677.0
6577.3716,725.0
6580.0024,674.0
6582.6343,646.0
6585.267,715.0
6587.9014,627.0
6590.5366,664.0
6593.173,708.0
6595.81,717.0
6598.448,654.0
6601.0874,640.0
6603.728,665.0
6606.3696,651.0
6609.012,597.0
6611.656,708.0
6614.3003,677.0
6616.946,636.0
6619.593,647.0
6622.2407,671.0
6624.8896,701.0
6627.5396,642.0
6630.1904,652.0
6632.8423,621.0
6635.4956,599.0
6638.15,788.0
6640.805,755.0
6643.4614,715.0
6646.1187,672.0
6648.7773,639.0
6651.437,579.0
6654.0977,705.0
6656.7593,784.0
6659.422,741.0
6662.0854,638.0
6664.7505,585.0
6667.4165,565.0
6670.0835,566.0
6672.7515,566.0
6675.4204,590.0
6678.091,595.0
6680.762,661.0
6683.4346,620.0
6686.108,565.0
6688.782,494.0
6691.4575,579.0
6694.1343,603.0
6696.812,684.0
6699.4907,684.0
6702.1704,617.0
6704.851,599.0
6707.533,624.0
6710.2163,592.0
6712.9004,679.0
6715.5854,676.0
6718.2715,643.0
6720.959,615.0
6723.6475,765.0
6726.337,696.0
6729.0273,650.0
6731.7188,617.0
6734.4116,651.0
6737.1055,628.0
6739.8003,777.0
6742.496,850.0
6745.193,696.0
6747.891,655.0
6750.5903,655.0
6753.2905,647.0
6755.9917,727.0
6758.6943,889.0
6761.398,788.0
6764.1025,729.0
6766.808,708.0
6769.5146,672.0
6772.2227,672.0
6774.9316,718.0
6777.6416,745.0
6780.3525,798.0
6783.0645,822.0
6785.778,722.0
6788.492,780.0
6791.2075,796.0
6793.924,763.0
6796.6416,695.0
6799.3604,656.0
6802.08,718.0
6804.801,742.0
6807.5225,828.0
6810.2456,928.0
6812.9697,731.0
6815.695,636.0
6818.421,585.0
6821.1484,647.0
6823.877,915.0
6826.6064,977.0
6829.337,774.0
6832.069,631.0
6834.802,566.0
6837.5356,579.0
6840.2705,729.0
6843.007,1025.0
6845.744,871.0
6848.4824,697.0
6851.2217,581.0
6853.9624,594.0
6856.704,727.0
6859.447,715.0
6862.1904,727.0
6864.9355,587.0
6867.6816,598.0
6870.4287,617.0
6873.177,542.0
6875.9263,571.0
6878.677,581.0
6881.428,551.0
6884.1807,566.0
6886.9346,551.0
6889.6895,564.0
6892.4453,561.0
6895.202,598.0
6897.9604,562.0
6900.7197,577.0
6903.48,640.0
6906.241,619.0
6909.004,580.0
6911.7676,721.0
6914.532,614.0
6917.298,615.0
6920.065,653.0
6922.833,620.0
6925.602,597.0
6928.372,589.0
6931.1436,661.0
6933.916,624.0
6936.6895,599.0
6939.4644,625.0
6942.24,565.0
6945.017,644.0
6947.795,714.0
6950.574,647.0
6953.3545,664.0
6956.1357,689.0
6958.918,660.0
6961.7017,586.0
6964.4863,664.0
6967.272,708.0
6970.059,653.0
6972.847,684.0
6975.636,726.0
6978.4263,667.0
6981.218,712.0
6984.0103,742.0
6986.8037,661.0
6989.5986,707.0
6992.3945,757.0
6995.1914,739.0
6997.9893,853.0
7000.7886,864.0
7003.589,768.0
7006.39,751.0
7009.193,742.0
7011.9966,772.0
7014.8013,853.0
7017.6074,936.0
7020.4146,943.0
7023.2227,889.0
7026.0317,1057.0
7028.8423,956.0
7031.654,740.0
7034.4663,670.0
7037.2803,646.0
7040.095,841.0
7042.911,1207.0
7045.7285,1086.0
7048.547,825.0
7051.366,728.0
7054.1865,712.0
7057.0083,884.0
7059.831,1611.0
7062.655,1543.0
7065.48,1040.0
7068.306,760.0
7071.1333,691.0
7073.962,734.0
7076.7915,695.0
7079.622,760.0
7082.454,810.0
7085.287,755.0
7088.121,754.0
7090.9565,709.0
7093.793,764.0
7096.6304,783.0
7099.469,759.0
7102.309,750.0
7105.15,751.0
7107.992,839.0
7110.8354,839.0
7113.6797,912.0
7116.5254,886.0
7119.372,837.0
7122.2197,938.0
7125.069,979.0
7127.919,982.0
7130.77,933.0
7133.6226,883.0
7136.476,926.0
7139.3306,1132.0
7142.1865,1182.0
7145.0435,1083.0
7147.9014,993.0
7150.7607,930.0
7153.621,977.0
7156.4824,1269.0
7159.345,1509.0
7162.209,1188.0
7165.0737,1104.0
7167.94,1082.0
7170.807,1171.0
7173.6753,1236.0
7176.545,1080.0
7179.4155,1198.0
7182.287,1182.0
7185.16,1018.0
7188.034,1172.0
7190.909,1248.0
7193.7856,1068.0
7196.663,1340.0
7199.542,1477.0
7202.422,1141.0
7205.3027,907.0
7208.185,808.0
7211.0684,889.0
7213.9526,1747.0
7216.8384,1841.0
7219.725,1172.0
7222.613,824.0
7225.502,781.0
7228.392,1027.0
7231.283,2310.0
7234.176,2569.0
7237.0693,1571.0
7239.9644,965.0
7242.8604,784.0
7245.7573,753.0
7248.656,741.0
7251.555,757.0
7254.4556,783.0
7257.3574,734.0
7260.2603,678.0
7263.1646,684.0
7266.07,722.0
7268.976,742.0
7271.884,676.0
7274.7925,687.0
7277.7026,639.0
7280.614,683.0
7283.526,737.0
7286.4395,757.0
7289.354,687.0
7292.2695,692.0
7295.1865,816.0
7298.1045,774.0
7301.024,684.0
7303.9443,666.0
7306.8657,606.0
7309.7886,729.0
7312.7124,966.0
7315.6377,897.0
7318.564,723.0
7321.491,598.0
7324.42,606.0
7327.3496,766.0
7330.281,1128.0
7333.213,1030.0
7336.146,731.0
7339.0806,620.0
7342.016,597.0
7344.953,646.0
7347.891,720.0
7350.83,709.0
7353.7705,674.0
7356.712,672.0
7359.655,623.0
7362.5986,534.0
7365.5435,562.0
7368.4897,634.0
7371.437,593.0
7374.3857,670.0
7377.3354,663.0
7380.2866,670.0
7383.239,724.0
7386.192,631.0
7389.1465,646.0
7392.102,640.0
7395.059,596.0
7398.017,672.0
7400.976,740.0
7403.9365,710.0
7406.898,613.0
7409.861,612.0
7412.8247,578.0
7415.79,670.0
7418.7563,732.0
7421.7236,766.0
7424.6924,666.0
7427.662,557.0
7430.6333,505.0
7433.6055,676.0
7436.579,745.0
7439.5537,621.0
7442.5293,649.0
7445.5063,546.0
7448.4844,504.0
7451.464,526.0
7454.4443,518.0
7457.4263,509.0
7460.409,484.0
7463.3936,475.0
7466.379,578.0
7469.365,566.0
7472.353,521.0
7475.342,493.0
7478.332,462.0
7481.323,498.0
7484.316,649.0
7487.3096,751.0
7490.3047,627.0
7493.301,502.0
7496.2983,506.0
7499.297,512.0
7502.2964,549.0
7505.2974,564.0
7508.2993,496.0
7511.3027,493.0
7514.307,501.0
7517.313,435.0
7520.32,527.0
7523.328,455.0
7526.3374,512.0
7529.348,499.0
7532.36,500.0
7535.373,498.0
7538.387,461.0
7541.4023,470.0
7544.419,523.0
7547.4365,553.0
7550.4556,482.0
7553.4756,444.0
7556.497,490.0
7559.5195,500.0
7562.5435,594.0
7565.5684,573.0
7568.5947,531.0
7571.622,489.0
7574.651,487.0
7577.6807,446.0
7580.712,488.0
7583.744,482.0
7586.778,480.0
7589.8125,446.0
7592.8486,407.0
7595.8857,414.0
7598.9243,531.0
7601.964,489.0
7605.005,462.0
7608.047,373.0
7611.0903,413.0
7614.135,476.0
7617.18,572.0
7620.227,527.0
7623.275,447.0
7626.324,412.0
7629.3745,416.0
7632.4263,440.0
7635.479,442.0
7638.533,396.0
7641.5884,433.0
7644.645,428.0
7647.7026,426.0
7650.7617,439.0
7653.8223,404.0
7656.884,427.0
7659.947,436.0
7663.0107,428.0
7666.076,455.0
7669.1426,391.0
7672.2104,457.0
7675.2793,468.0
7678.3496,461.0
7681.421,461.0
7684.4937,450.0
7687.5674,453.0
7690.6426,474.0
7693.7188,461.0
7696.7964,467.0
7699.875,480.0
7702.955,498.0
7706.036,518.0
7709.1187,483.0
7712.202,498.0
7715.287,520.0
7718.373,491.0
7721.4604,524.0
7724.549,557.0
7727.6387,584.0
7730.7295,584.0
7733.822,508.0
7736.9155,531.0
7740.0103,533.0
7743.1064,561.0
7746.2036,602.0
7749.3022,552.0
7752.402,598.0
7755.503,633.0
7758.605,574.0
7761.7085,564.0
7764.813,576.0
7767.919,590.0
7771.026,711.0
7774.1343,682.0
7777.244,571.0
7780.355,573.0
7783.4673,571.0
7786.5806,728.0
7789.6953,783.0
7792.811,730.0
7795.928,673.0
7799.0464,588.0
7802.166,588.0
7805.287,631.0
7808.409,688.0
7811.5327,750.0
7814.657,690.0
7817.783,615.0
7820.91,596.0
7824.0386,607.0
7827.168,803.0
7830.299,854.0
7833.431,684.0
7836.5645,631.0
7839.699,625.0
7842.835,673.0
7845.972,817.0
7849.1104,840.0
7852.25,751.0
7855.391,674.0
7858.533,746.0
7861.677,675.0
7864.8213,688.0
7867.9673,701.0
7871.1143,687.0
7874.2627,648.0
7877.4126,655.0
7880.5635,707.0
7883.716,852.0
7886.869,766.0
7890.024,690.0
7893.18,724.0
7896.3374,704.0
7899.496,896.0
7902.656,931.0
7905.817,770.0
7908.979,729.0
7912.1426,753.0
7915.3076,878.0
7918.4736,1104.0
7921.641,989.0
7924.8096,862.0
7927.9795,798.0
7931.151,780.0
7934.323,858.0
7937.497,934.0
7940.672,943.0
7943.848,920.0
7947.026,932.0
7950.2046,909.0
7953.385,1029.0
7956.566,1016.0
7959.7485,1026.0
7962.9326,1003.0
7966.1177,1050.0
7969.304,1225.0
7972.4917,1204.0
7975.6807,1220.0
7978.871,1176.0
7982.0625,1237.0
7985.2554,1377.0
7988.4497,1410.0
7991.645,1404.0
7994.842,1395.0
7998.0396,1333.0
8001.239,1329.0
8004.4395,1641.0
8007.641,1816.0
8010.844,1670.0
8014.0483,1636.0
8017.254,1646.0
8020.461,1768.0
8023.669,1811.0
8026.8784,1786.0
8030.0894,1840.0
8033.3013,1995.0
8036.5146,2182.0
8039.7295,2477.0
8042.9453,2260.0
8046.1626,2026.0
8049.381,2188.0
8052.6006,2644.0
8055.822,3004.0
8059.044,3078.0
8062.2676,2748.0
8065.4927,2827.0
8068.7188,3118.0
8071.9463,3308.0
8075.1753,3328.0
8078.4053,3422.0
8081.6367,3898.0
8084.869,4486.0
8088.103,4055.0
8091.3384,3343.0
8094.5747,3253.0
8097.8125,4221.0
8101.052,6131.0
8104.292,5627.0
8107.5337,4659.0
8110.777,4361.0
8114.021,4068.0
8117.2666,6362.0
8120.5137,8061.0
8123.7617,7181.0
8127.011,6984.0
8130.262,5602.0
8133.514,5371.0
8136.7676,6117.0
8140.0225,7020.0
8143.2783,9389.0
8146.5356,8946.0
8149.7944,6764.0
8153.054,8150.0
8156.3154,7467.0
8159.578,8324.0
8162.842,10155.0
8166.107,9133.0
8169.3735,14255.0
8172.641,14282.0
8175.91,8310.0
8179.1807,4771.0
8182.452,5083.0
8185.725,20023.0
8188.9995,27929.0
8192.275,13212.0
8195.553,5614.0
8198.831,4178.0
8202.11,17354.0
8205.392,46290.0
8208.674,29824.0
8211.957,10557.0
8215.242,4497.0
8218.528,3140.0
8221.815,2890.0
8225.1045,3858.0
8228.395,4912.0
8231.686,3821.0
8234.979,2221.0
8238.272,1588.0
8241.567,1720.0
8244.864,1993.0
8248.162,1960.0
8251.461,1792.0
8254.762,1471.0
8258.063,1304.0
8261.367,1401.0
8264.672,1472.0
8267.978,1426.0
8271.285,1408.0
8274.594,1368.0
8277.903,1189.0
8281.215,1067.0
8284.527,1194.0
8287.841,1453.0
8291.156,1411.0
8294.473,1265.0
8297.79,1244.0
8301.109,1292.0
8304.43,1321.0
8307.751,1495.0
8311.074,1396.0
8314.398,1471.0
8317.725,1443.0
8321.052,1291.0
8324.38,1248.0
8327.71,1301.0
8331.041,1755.0
8334.373,1692.0
8337.707,1358.0
8341.042,1226.0
8344.378,1277.0
8347.716,1821.0
8351.055,2087.0
8354.3955,1620.0
8357.737,1526.0
8361.08,1438.0
8364.425,1182.0
8367.7705,1066.0
8371.117,1158.0
8374.466,1593.0
8377.815,1734.0
8381.167,1209.0
8384.52,910.0
8387.873,958.0
8391.229,1381.0
8394.585,1968.0
8397.942,1473.0
8401.302,1060.0
8404.662,967.0
8408.024,1059.0
8411.388,1003.0
8414.752,985.0
8418.118,968.0
8421.485,843.0
8424.854,828.0
8428.224,808.0
8431.595,920.0
8434.968,964.0
8438.342,859.0
8441.717,831.0
8445.094,931.0
8448.472,965.0
8451.851,900.0
8455.231,941.0
8458.613,926.0
8461.997,973.0
8465.382,1042.0
8468.768,1093.0
8472.155,1101.0
8475.544,1139.0
8478.935,1052.0
8482.326,1111.0
8485.719,1337.0
8489.113,1348.0
8492.509,1556.0
8495.906,1416.0
8499.305,1310.0
8502.704,1422.0
8506.105,1573.0
8509.508,1912.0
8512.911,1688.0
8516.316,1759.0
8519.723,2048.0
8523.131,1730.0
8526.54,1942.0
8529.95,1925.0
8533.362,2592.0
8536.775,3382.0
8540.19,2412.0
8543.606,1445.0
8547.023,1315.0
8550.442,3204.0
8553.862,4888.0
8557.284,2961.0
8560.707,1680.0
8564.131,1440.0
8567.557,3662.0
8570.983,7098.0
8574.412,4670.0
8577.842,2380.0
8581.272,1668.0
8584.705,1178.0
8588.139,1035.0
8591.574,1424.0
8595.011,1867.0
8598.449,1647.0
8601.889,1117.0
8605.329,810.0
8608.771,792.0
8612.215,835.0
8615.66,857.0
8619.106,804.0
8622.554,777.0
8626.003,738.0
8629.453,734.0
8632.905,735.0
8636.358,780.0
8639.8125,784.0
8643.269,709.0
8646.726,667.0
8650.185,683.0
8653.645,771.0
8657.106,734.0
8660.569,741.0
8664.033,767.0
8667.499,790.0
8670.966,760.0
8674.435,876.0
8677.904,825.0
8681.375,807.0
8684.848,790.0
8688.321,765.0
8691.797,775.0
8695.273,1004.0
8698.752,1007.0
8702.231,910.0
8705.712,972.0
8709.194,1008.0
8712.678,1025.0
8716.163,1104.0
8719.649,1026.0
8723.138,1119.0
8726.627,1095.0
8730.117,1122.0
8733.609,1022.0
8737.103,1214.0
8740.598,1263.0
8744.094,1204.0
8747.592,1144.0
8751.091,1345.0
8754.591,1514.0
8758.093,1491.0
8761.596,1387.0
8765.101,1431.0
8768.606,1457.0
8772.114,1795.0
8775.623,1751.0
8779.133,1659.0
8782.645,1689.0
8786.157,1563.0
8789.672,1655.0
8793.1875,1791.0
8796.705,2303.0
8800.224,2441.0
8803.744,1965.0
8807.266,1548.0
8810.788,1648.0
8814.3125,2965.0
8817.838,3452.0
8821.365,2267.0
8824.894,1741.0
8828.424,1873.0
8831.955,3278.0
8835.488,3819.0
8839.022,2665.0
8842.558,2307.0
8846.095,1744.0
8849.633,1625.0
8853.173,1660.0
8856.714,2421.0
8860.257,2762.0
8863.801,2125.0
8867.347,1761.0
8870.894,1830.0
8874.442,2653.0
8877.992,3357.0
8881.543,2720.0
8885.096,2045.0
8888.649,1804.0
8892.205,1722.0
8895.762,1787.0
8899.32,2198.0
8902.88,2478.0
8906.441,1894.0
8910.004,1615.0
8913.568,1794.0
8917.134,2643.0
8920.7,2627.0
8924.269,2000.0
8927.838,1832.0
8931.409,1916.0
8934.981,2881.0
8938.556,2790.0
8942.131,2184.0
8945.708,2050.0
8949.286,1629.0
8952.866,1549.0
8956.447,1540.0
8960.03,1960.0
8963.614,1967.0
8967.199,1526.0
8970.786,1351.0
8974.374,1534.0
8977.964,1820.0
8981.555,1659.0
8985.147,1502.0
8988.741,1400.0
8992.337,1590.0
8995.934,1593.0
8999.532,1587.0
9003.132,1394.0
9006.733,1461.0
9010.336,1542.0
9013.94,1375.0
9017.546,1368.0
9021.153,1400.0
9024.762,1580.0
9028.372,1616.0
9031.983,1334.0
9035.597,1135.0
9039.211,1274.0
9042.826,1690.0
9046.443,1643.0
9050.062,1119.0
9053.682,1064.0
9057.303,1364.0
9060.926,2010.0
9064.55,1750.0
9068.176,1101.0
9071.803,1034.0
9075.432,1238.0
9079.062,1510.0
9082.693,1255.0
9086.326,996.0
9089.961,930.0
9093.597,1110.0
9097.234,1139.0
9100.873,1060.0
9104.514,1068.0
9108.155,1016.0
9111.799,836.0
9115.443,814.0
9119.09,902.0
9122.737,1139.0
9126.387,904.0
9130.037,795.0
9133.689,823.0
9137.343,995.0
9140.998,1019.0
9144.654,968.0
9148.3125,959.0
9151.972,852.0
9155.633,805.0
9159.295,794.0
9162.959,1057.0
9166.624,1092.0
9170.291,868.0
9173.959,706.0
9177.629,855.0
9181.3,1285.0
9184.973,1254.0
9188.646,909.0
9192.322,692.0
9195.999,883.0
9199.678,1277.0
9203.357,996.0
9207.039,948.0
9210.722,795.0
9214.406,604.0
9218.092,569.0
9221.779,751.0
9225.468,946.0
9229.158,797.0
9232.85,558.0
9236.543,536.0
9240.237,733.0
9243.934,911.0
9247.631,793.0
9251.33,611.0
9255.03,497.0
9258.732,406.0
9262.436,474.0
9266.141,617.0
9269.847,529.0
9273.555,438.0
9277.264,406.0
9280.975,445.0
9284.687,478.0
9288.4,410.0
9292.116,398.0
9295.833,413.0
9299.552,372.0
9303.271,385.0
9306.993,379.0
9310.716,379.0
9314.44,355.0
9318.166,363.0
9321.894,352.0
9325.622,346.0
9329.353,372.0
9333.084,341.0
9336.817,357.0
9340.552,298.0
9344.288,315.0
9348.025,336.0
9351.765,334.0
9355.505,306.0
9359.247,305.0
9362.991,351.0
9366.736,335.0
9370.483,328.0
9374.231,311.0
9377.981,310.0
9381.732,337.0
9385.485,326.0
9389.239,307.0
9392.995,306.0
9396.752,322.0
9400.511,306.0
9404.2705,269.0
9408.032,297.0
9411.796,307.0
9415.561,288.0
9419.327,297.0
9423.095,315.0
9426.864,297.0
9430.635,303.0
9434.407,295.0
9438.181,287.0
9441.956,326.0
9445.732,350.0
9449.511,301.0
9453.291,271.0
9457.072,270.0
9460.855,323.0
9464.64,333.0
9468.426,286.0
9472.213,309.0
9476.002,261.0
9479.792,254.0
9483.584,268.0
9487.377,284.0
9491.172,264.0
9494.969,247.0
9498.767,213.0
9502.566,252.0
9506.367,299.0
9510.17,256.0
9513.974,264.0
9517.779,236.0
9521.586,235.0
9525.395,246.0
9529.205,234.0
9533.017,265.0
9536.83,214.0
9540.645,198.0
9544.461,252.0
9548.278,285.0
9552.098,306.0
9555.919,233.0
9559.741,213.0
9563.565,197.0
9567.391,206.0
9571.218,256.0
9575.046,243.0
9578.876,198.0
9582.708,196.0
9586.541,186.0
9590.376,213.0
9594.212,222.0
9598.05,216.0
9601.889,184.0
9605.7295,229.0
9609.572,187.0
9613.416,188.0
9617.262,192.0
9621.108,194.0
9624.957,182.0
9628.807,188.0
9632.658,201.0
9636.512,197.0
9640.366,169.0
9644.223,194.0
9648.08,204.0
9651.939,207.0
9655.8,197.0
9659.662,174.0
9663.526,210.0
9667.392,221.0
9671.259,209.0
9675.127,196.0
9678.997,235.0
9682.869,218.0
9686.742,218.0
9690.617,206.0
9694.493,197.0
9698.371,188.0
9702.25,165.0
9706.131,213.0
9710.014,181.0
9713.897,194.0
9717.783,196.0
9721.67,192.0
9725.559,148.0
9729.449,155.0
9733.341,155.0
9737.234,207.0
9741.129,194.0
9745.025,187.0
9748.924,198.0
9752.823,180.0
9756.725,181.0
9760.627,175.0
9764.531,186.0
9768.4375,204.0
9772.345,180.0
9776.254,188.0
9780.164,201.0
9784.076,201.0
9787.99,206.0
9791.905,186.0
9795.822,184.0
9799.74,212.0
9803.66,252.0
9807.582,220.0
9811.505,177.0
9815.43,196.0
9819.355,181.0
9823.283,198.0
9827.213,214.0
9831.144,266.0
9835.076,205.0
9839.01,178.0
9842.945,250.0
9846.883,289.0
9850.821,259.0
9854.762,203.0
9858.704,194.0
9862.647,168.0
9866.593,209.0
9870.539,192.0
9874.487,181.0
9878.4375,195.0
9882.389,195.0
9886.342,171.0
9890.296,176.0
9894.252,186.0
9898.21,176.0
9902.169,180.0
9906.13,191.0
9910.093,168.0
9914.057,155.0
9918.022,166.0
9921.989,165.0
9925.958,166.0
9929.929,199.0
9933.9,165.0
9937.874,186.0
9941.85,180.0
9945.826,175.0
9949.805,182.0
9953.784,182.0
9957.766,180.0
9961.749,155.0
9965.733,167.0
9969.72,175.0
9973.708,179.0
9977.697,171.0
9981.688,170.0
9985.681,176.0
9989.675,173.0
9993.671,178.0
9997.668,165.0
10001.667,169.0
10005.668,167.0
10009.67,177.0
10013.674,184.0
10017.68,183.0
10021.687,169.0
10025.695,205.0
10029.706,157.0
10033.718,150.0
10037.731,160.0
10041.746,172.0
10045.763,173.0
10049.781,155.0
10053.801,165.0
10057.822,175.0
10061.846,170.0
10065.87,158.0
10069.896,183.0
10073.925,173.0
10077.954,168.0
10081.985,143.0
10086.019,164.0
10090.053,183.0
10094.089,165.0
10098.127,146.0
10102.166,165.0
10106.207,181.0
10110.25,171.0
10114.294,171.0
10118.34,183.0
10122.387,182.0
10126.436,168.0
10130.486,188.0
10134.538,156.0
10138.592,190.0
10142.647,168.0
10146.704,139.0
10150.763,173.0
10154.823,176.0
10158.885,182.0
10162.948,178.0
10167.014,176.0
10171.08,153.0
10175.148,175.0
10179.219,161.0
10183.29,173.0
10187.363,156.0
10191.438,173.0
10195.515,161.0
10199.593,191.0
10203.673,211.0
10207.754,196.0
10211.837,191.0
10215.922,185.0
10220.008,168.0
10224.096,183.0
10228.186,171.0
10232.276,157.0
10236.369,165.0
10240.464,183.0
10244.56,192.0
10248.657,185.0
10252.757,211.0
10256.858,196.0
10260.961,184.0
10265.065,168.0
10269.172,186.0
10273.279,194.0
10277.389,196.0
10281.5,186.0
10285.612,197.0
10289.727,207.0
10293.843,191.0
10297.96,185.0
10302.079,171.0
10306.2,172.0
10310.322,203.0
10314.446,181.0
10318.572,186.0
10322.699,192.0
10326.828,186.0
10330.959,190.0
10335.092,182.0
10339.226,188.0
10343.361,189.0
10347.499,177.0
10351.638,206.0
10355.778,200.0
10359.921,209.0
10364.064,191.0
10368.21,193.0
10372.357,211.0
10376.507,244.0
10380.657,192.0
10384.81,168.0
10388.964,183.0
10393.119,224.0
10397.276,197.0
10401.436,199.0
10405.596,184.0
10409.758,168.0
10413.922,176.0
10418.088,183.0
10422.255,195.0
10426.424,171.0
10430.595,170.0
10434.767,178.0
10438.94,188.0
10443.116,183.0
10447.294,196.0
10451.473,192.0
10455.653,213.0
10459.836,188.0
10464.02,196.0
10468.205,179.0
10472.393,221.0
10476.581,178.0
10480.771,153.0
10484.964,184.0
10489.158,182.0
10493.354,213.0
10497.551,186.0
10501.75,209.0
10505.951,194.0
10510.153,177.0
10514.357,163.0
10518.563,184.0
10522.7705,201.0
10526.9795,189.0
10531.19,197.0
10535.403,199.0
10539.617,215.0
10543.833,202.0
10548.051,219.0
10552.27,200.0
10556.49,216.0
10560.713,204.0
10564.9375,188.0
10569.163,181.0
10573.391,194.0
10577.62,199.0
10581.852,190.0
10586.084,194.0
10590.318,208.0
10594.555,207.0
10598.793,192.0
10603.032,179.0
10607.273,206.0
10611.517,208.0
10615.761,165.0
10620.007,198.0
10624.255,204.0
10628.505,189.0
10632.756,193.0
10637.009,186.0
10641.264,196.0
10645.5205,161.0
10649.778,174.0
10654.038,213.0
10658.3,190.0
10662.563,207.0
10666.828,185.0
10671.095,189.0
10675.363,217.0
10679.634,208.0
10683.905,219.0
10688.179,206.0
10692.454,198.0
10696.731,229.0
10701.01,195.0
10705.29,195.0
10709.572,200.0
10713.856,209.0
10718.142,204.0
10722.429,236.0
10726.718,229.0
10731.009,188.0
10735.301,189.0
10739.595,243.0
10743.891,242.0
10748.188,214.0
10752.487,209.0
10756.788,244.0
10761.091,230.0
10765.3955,200.0
10769.702,203.0
10774.01,217.0
10778.319,211.0
10782.631,191.0
10786.944,185.0
10791.259,217.0
10795.575,202.0
10799.894,201.0
10804.214,203.0
10808.535,210.0
10812.858,187.0
10817.184,204.0
10821.511,216.0
10825.839,195.0
10830.169,198.0
10834.501,208.0
10838.835,190.0
10843.171,200.0
10847.508,214.0
10851.847,201.0
10856.1875,201.0
10860.53,206.0
10864.874,220.0
10869.22,237.0
10873.567,204.0
10877.917,193.0
10882.269,218.0
10886.621,223.0
10890.976,204.0
10895.332,222.0
10899.69,219.0
10904.051,205.0
10908.412,213.0
10912.775,214.0
10917.141,232.0
10921.508,216.0
10925.876,233.0
10930.246,215.0
10934.618,202.0
10938.992,208.0
10943.368,195.0
10947.745,220.0
10952.124,228.0
10956.505,220.0
10960.888,225.0
10965.272,195.0
10969.658,232.0
10974.046,221.0
10978.436,216.0
10982.827,250.0
10987.221,240.0
10991.615,204.0
10996.012,201.0
11000.41,232.0
11004.811,234.0
11009.213,247.0
11013.616,213.0
11018.021,232.0
11022.429,213.0
11026.838,244.0
11031.249,216.0
11035.661,253.0
11040.075,212.0
11044.491,262.0
11048.909,235.0
11053.329,242.0
11057.75,227.0
11062.173,258.0
11066.598,243.0
11071.024,245.0
11075.453,209.0
11079.884,260.0
11084.315,236.0
11088.749,261.0
11093.185,269.0
11097.622,244.0
11102.062,219.0
11106.502,216.0
11110.944,240.0
11115.389,267.0
11119.835,222.0
11124.283,244.0
11128.733,256.0
11133.185,235.0
11137.638,221.0
11142.093,252.0
11146.55,250.0
11151.009,252.0
11155.469,228.0
11159.931,234.0
11164.395,260.0
11168.86,256.0
11173.328,270.0
11177.798,244.0
11182.269,256.0
11186.741,248.0
11191.216,271.0
11195.692,267.0
11200.171,274.0
11204.651,277.0
11209.133,275.0
11213.616,256.0
11218.102,247.0
11222.589,265.0
11227.078,273.0
11231.569,254.0
11236.062,270.0
11240.556,261.0
11245.052,279.0
11249.55,262.0
11254.05,273.0
11258.552,274.0
11263.056,325.0
11267.561,261.0
11272.067,273.0
11276.576,314.0
11281.087,293.0
11285.6,329.0
11290.114,319.0
11294.63,300.0
11299.147,278.0
11303.667,341.0
11308.188,310.0
11312.712,282.0
11317.237,332.0
11321.765,323.0
11326.293,355.0
11330.823,344.0
11335.355,371.0
11339.89,324.0
11344.426,369.0
11348.964,394.0
11353.504,414.0
11358.045,379.0
11362.588,411.0
11367.133,412.0
11371.68,425.0
11376.229,438.0
11380.779,461.0
11385.332,450.0
11389.886,478.0
11394.441,419.0
11398.999,463.0
11403.559,456.0
11408.12,489.0
11412.684,489.0
11417.249,499.0
11421.816,518.0
11426.385,500.0
11430.955,547.0
11435.527,555.0
11440.102,521.0
11444.678,601.0
11449.256,545.0
11453.836,582.0
11458.417,573.0
11463.0,583.0
11467.585,619.0
11472.172,591.0
11476.761,659.0
11481.352,657.0
11485.944,623.0
11490.539,641.0
11495.136,692.0
11499.733,736.0
11504.333,681.0
11508.935,733.0
11513.538,759.0
11518.144,718.0
11522.751,677.0
11527.36,735.0
11531.972,808.0
11536.584,725.0
11541.198,770.0
11545.814,811.0
11550.433,787.0
11555.053,790.0
11559.675,827.0
11564.299,907.0
11568.925,741.0
11573.553,774.0
11578.183,887.0
11582.813,843.0
11587.446,765.0
11592.081,910.0
11596.718,880.0
11601.356,798.0
11605.997,738.0
11610.64,924.0
11615.284,910.0
11619.931,799.0
11624.579,877.0
11629.229,905.0
11633.88,801.0
11638.533,786.0
11643.188,957.0
11647.846,824.0
11652.505,673.0
11657.166,838.0
11661.829,947.0
11666.494,736.0
11671.161,693.0
11675.83,989.0
11680.5,1020.0
11685.172,668.0
11689.846,631.0
11694.521,766.0
11699.199,639.0
11703.879,550.0
11708.561,524.0
11713.244,517.0
11717.93,475.0
11722.617,492.0
11727.307,474.0
11731.998,397.0
11736.69,434.0
11741.385,425.0
11746.081,420.0
11750.779,373.0
11755.4795,376.0
11760.182,372.0
11764.886,377.0
11769.592,370.0
11774.3,343.0
11779.01,345.0
11783.722,344.0
11788.436,352.0
11793.151,336.0
11797.868,364.0
11802.587,292.0
11807.308,353.0
11812.03,333.0
11816.755,324.0
11821.481,310.0
11826.21,313.0
11830.94,312.0
11835.673,320.0
11840.407,305.0
11845.144,268.0
11849.882,295.0
11854.622,296.0
11859.364,284.0
11864.108,247.0
11868.8545,291.0
11873.602,259.0
11878.351,247.0
11883.102,264.0
11887.8545,239.0
11892.609,258.0
11897.366,249.0
11902.125,219.0
11906.886,237.0
11911.648,210.0
11916.413,254.0
11921.18,219.0
11925.948,212.0
11930.719,224.0
11935.491,223.0
11940.266,215.0
11945.042,225.0
11949.82,254.0
11954.601,228.0
11959.383,220.0
11964.167,228.0
11968.953,193.0
11973.74,201.0
11978.529,220.0
11983.32,196.0
11988.113,210.0
11992.908,228.0
