M/Z,Intensity
800.0,78.0
800.32,76.0
800.64014,27.0
800.9604,119.0
801.28076,165.0
801.60126,37.0
801.9219,63.0
802.2426,99.0
802.56354,38.0
802.8846,109.0
803.20575,91.0
803.52704,29.0
803.84845,57.0
804.17,73.0
804.49164,45.0
804.8134,40.0
805.1353,75.0
805.4574,53.0
805.7796,34.0
806.1019,72.0
806.4244,51.0
806.74695,33.0
807.06964,73.0
807.39246,79.0
807.7154,22.0
808.03845,64.0
808.3617,93.0
808.68506,25.0
809.00854,56.0
809.33215,104.0
809.6559,28.0
809.97974,68.0
810.3037,85.0
810.6278,33.0
810.9521,45.0
811.2765,74.0
811.601,37.0
811.92566,47.0
812.2504,79.0
812.5753,28.0
812.9003,54.0
813.22546,77.0
813.5508,38.0
813.8762,33.0
814.2018,89.0
814.52747,43.0
814.8533,53.0
815.1792,96.0
815.50525,52.0
815.8314,38.0
816.1578,86.0
816.48425,37.0
816.81085,65.0
817.1376,85.0
817.4644,47.0
817.7914,47.0
818.11847,89.0
818.44574,40.0
818.77313,40.0
819.10065,74.0
819.4283,50.0
819.75604,32.0
820.0839,62.0
820.412,70.0
820.7402,28.0
821.0685,69.0
821.3969,62.0
821.72546,24.0
822.05414,55.0
822.38293,61.0
822.7119,31.0
823.041,108.0
823.37024,74.0
823.6996,28.0
824.02905,94.0
824.35864,63.0
824.6884,123.0
825.0183,815.0
825.3483,75.0
825.67847,70.0
826.0087,422.0
826.3391,74.0
826.6696,44.0
827.0003,180.0
827.3311,63.0
827.66205,34.0
827.9931,64.0
828.3243,62.0
828.65564,36.0
828.9871,58.0
829.3187,73.0
829.65045,40.0
829.9823,50.0
830.3143,86.0
830.6464,25.0
830.9787,59.0
831.3111,73.0
831.6436,34.0
831.97626,58.0
832.309,66.0
832.64197,29.0
832.97504,58.0
833.3082,72.0
833.64154,26.0
833.975,57.0
834.3086,63.0
834.64233,24.0
834.9762,68.0
835.3102,73.0
835.6443,33.0
835.9785,56.0
836.3129,78.0
836.64746,29.0
836.9821,63.0
837.3169,65.0
837.6518,20.0
837.9869,80.0
838.3221,63.0
838.6574,39.0
838.99286,177.0
839.3284,78.0
839.6642,45.0
840.00006,99.0
840.33606,79.0
840.6722,55.0
841.0084,190.0
841.34485,71.0
841.6814,36.0
842.01807,116.0
842.35486,78.0
842.6918,42.0
843.0289,99.0
843.3661,73.0
843.7034,33.0
844.0409,72.0
844.37854,55.0
844.7163,58.0
845.0542,220.0
845.3922,113.0
845.73035,56.0
846.06866,132.0
846.4071,82.0
846.74567,45.0
847.08435,96.0
847.42316,50.0
847.76215,42.0
848.10126,74.0
848.4405,64.0
848.77985,33.0
849.1194,70.0
849.45905,55.0
849.7988,53.0
850.13873,67.0
850.47876,41.0
850.819,28.0
851.1593,60.0
851.49976,46.0
851.84033,34.0
852.1811,81.0
852.522,52.0
852.863,35.0
853.2041,70.0
853.5454,34.0
853.88684,39.0
854.2284,63.0
854.57007,43.0
854.9119,126.0
855.2539,54.0
855.596,27.0
855.93823,77.0
856.2806,68.0
856.6231,25.0
856.96576,107.0
857.30853,75.0
857.6514,30.0
857.9945,87.0
858.3377,74.0
858.681,32.0
859.0245,68.0
859.3681,84.0
859.71185,37.0
860.0557,71.0
860.3997,55.0
860.7439,263.0
861.0882,279.0
861.4326,74.0
861.77716,156.0
862.1219,127.0
862.46674,63.0
862.8117,99.0
863.15686,84.0
863.50214,39.0
863.84753,54.0
864.19305,65.0
864.53876,38.0
864.8846,63.0
865.2305,71.0
865.5766,46.0
865.92285,49.0
866.2692,78.0
866.6157,38.0
866.96234,125.0
867.30914,59.0
867.65607,29.0
868.0031,101.0
868.35034,59.0
868.6977,35.0
869.04517,53.0
869.39276,52.0
869.74054,37.0
870.08844,48.0
870.43646,40.0
870.7846,35.0
871.13293,57.0
871.4814,49.0
871.82996,40.0
872.1787,46.0
872.5276,40.0
872.8766,72.0
873.2257,76.0
873.575,30.0
873.92444,56.0
874.274,76.0
874.6237,24.0
874.9736,47.0
875.32355,78.0
875.6737,34.0
876.024,56.0
876.3744,86.0
876.7249,67.0
877.0756,83.0
877.42645,77.0
877.7774,51.0
878.12854,80.0
878.4798,59.0
878.8312,44.0
879.18274,70.0
879.5344,38.0
879.8862,47.0
880.23816,87.0
880.5903,26.0
880.9425,76.0
881.29486,73.0
881.6474,24.0
882.00006,55.0
882.35284,65.0
882.7058,33.0
883.0589,64.0
883.4121,58.0
883.7655,40.0
884.119,53.0
884.47266,59.0
884.8264,42.0
885.18036,68.0
885.5344,42.0
885.8886,40.0
886.243,67.0
886.5975,26.0
886.9521,46.0
887.3069,73.0
887.6618,30.0
888.01685,46.0
888.3721,64.0
888.7274,41.0
889.0829,81.0
889.43854,86.0
889.7943,39.0
890.1502,69.0
890.5063,66.0
890.8625,44.0
891.2188,77.0
891.5753,28.0
891.93195,39.0
892.2887,71.0
892.6456,36.0
893.0027,63.0
893.35986,82.0
893.7172,32.0
894.0747,66.0
894.4323,66.0
894.7901,54.0
895.148,65.0
895.50604,48.0
895.86426,46.0
896.2226,54.0
896.58105,34.0
896.9397,48.0
897.29846,54.0
897.6574,28.0
898.0165,51.0
898.3757,62.0
898.73505,22.0
899.09454,66.0
899.45416,43.0
899.81396,35.0
900.1739,61.0
900.53394,45.0
900.89417,44.0
901.2545,60.0
901.615,34.0
901.97565,41.0
902.3364,67.0
902.6974,24.0
903.0585,59.0
903.4197,67.0
903.78107,25.0
904.1426,47.0
904.5042,60.0
904.866,48.0
905.22797,93.0
905.5901,45.0
905.95233,51.0
906.3147,86.0
906.67725,21.0
907.0399,62.0
907.4027,56.0
907.7657,17.0
908.1288,71.0
908.49207,40.0
908.85547,27.0
909.219,68.0
909.5827,30.0
909.94653,49.0
910.3105,53.0
910.6746,32.0
911.0389,46.0
911.4033,54.0
911.7679,34.0
912.13257,54.0
912.49744,40.0
912.8624,37.0
913.2276,68.0
913.5929,39.0
913.9583,47.0
914.3239,54.0
914.68964,38.0
915.05554,63.0
915.4216,59.0
915.7877,29.0
916.15405,50.0
916.5205,47.0
916.88715,42.0
917.2539,76.0
917.6208,32.0
917.98785,43.0
918.35504,62.0
918.7224,26.0
919.0899,27.0
919.4575,44.0
919.8253,28.0
920.19324,100.0
920.56134,31.0
920.92957,40.0
921.2979,82.0
921.66644,38.0
922.0351,50.0
922.40393,55.0
922.7729,33.0
923.14197,60.0
923.5112,43.0
923.8806,37.0
924.2502,73.0
924.6199,36.0
924.98975,45.0
925.35974,61.0
925.72986,24.0
926.10016,62.0
926.4706,53.0
926.8412,42.0
927.2119,55.0
927.5828,39.0
927.95386,43.0
928.325,64.0
928.69635,29.0
929.0678,40.0
929.43945,68.0
929.8112,40.0
930.18317,73.0
930.55524,53.0
930.9274,38.0
931.2998,60.0
931.6723,34.0
932.045,45.0
932.4178,53.0
932.7908,41.0
933.1639,64.0
933.5372,50.0
933.9106,36.0
934.2841,90.0
934.65784,20.0
935.0317,45.0
935.4057,52.0
935.77985,22.0
936.1542,72.0
936.5286,34.0
936.90326,36.0
937.278,48.0
937.65295,34.0
938.028,43.0
938.4032,59.0
938.77856,36.0
939.15405,47.0
939.5297,36.0
939.9055,41.0
940.2815,63.0
940.6576,24.0
941.0339,58.0
941.4103,46.0
941.78687,36.0
942.1636,72.0
942.54047,35.0
942.9175,41.0
943.2947,73.0
943.672,36.0
944.04944,56.0
944.42706,57.0
944.8048,34.0
945.18274,70.0
945.5608,28.0
945.939,41.0
946.3174,61.0
946.6959,31.0
947.0746,66.0
947.4534,47.0
947.8324,40.0
948.21155,79.0
948.5908,30.0
948.9703,40.0
949.34985,50.0
949.7296,23.0
950.1095,45.0
950.48956,39.0
950.86975,23.0
951.2501,67.0
951.6306,40.0
952.0113,55.0
952.3921,68.0
952.7731,26.0
953.1542,63.0
953.53546,35.0
953.9169,38.0
954.29846,56.0
954.6802,26.0
955.0621,46.0
955.4441,60.0
955.8263,33.0
956.2086,64.0
956.5911,37.0
956.97375,34.0
957.35657,46.0
957.7395,19.0
958.1226,47.0
958.50586,45.0
958.8893,29.0
959.2728,65.0
959.65656,33.0
960.0404,40.0
960.42444,43.0
960.8086,31.0
961.19293,69.0
961.5774,43.0
961.96204,53.0
962.3468,68.0
962.73175,29.0
963.1168,67.0
963.5021,42.0
963.88745,28.0
964.273,51.0
964.6587,26.0
965.04456,57.0
965.4306,65.0
965.8168,38.0
966.2031,74.0
966.5896,42.0
966.97626,51.0
967.36304,65.0
967.75,44.0
968.1371,64.0
968.52435,50.0
968.91174,51.0
969.2993,65.0
969.687,40.0
970.0749,69.0
970.4629,60.0
970.8511,52.0
971.23944,56.0
971.6279,32.0
972.0166,43.0
972.4054,50.0
972.7944,32.0
973.1835,78.0
973.57275,29.0
973.96216,42.0
974.35175,74.0
974.7415,29.0
975.1314,45.0
975.5215,48.0
975.9117,25.0
976.30206,65.0
976.69257,33.0
977.08325,51.0
977.47406,57.0
977.86505,33.0
978.2562,52.0
978.6475,33.0
979.039,47.0
979.4306,59.0
979.8224,35.0
980.2143,59.0
980.6064,29.0
980.99866,38.0
981.39105,57.0
981.7836,37.0
982.17633,67.0
982.5692,31.0
982.9622,55.0
983.3554,52.0
983.7488,39.0
984.1423,59.0
984.53595,45.0
984.92975,51.0
985.3237,77.0
985.71783,30.0
986.1121,53.0
986.5066,56.0
986.9012,39.0
987.29596,67.0
987.69086,35.0
988.08594,58.0
988.4812,48.0
988.8766,36.0
989.27216,53.0
989.66785,30.0
990.0637,38.0
990.4597,55.0
990.8559,40.0
991.25226,66.0
991.64874,27.0
992.0454,64.0
992.4422,53.0
992.8392,38.0
993.2363,65.0
993.6336,33.0
994.03107,48.0
994.42865,53.0
994.8264,42.0
995.22437,54.0
995.62244,43.0
996.0207,56.0
996.4191,40.0
996.8177,39.0
997.21643,59.0
997.6153,31.0
998.01434,38.0
998.4136,54.0
998.8129,26.0
999.21246,51.0
999.6121,46.0
1000.01196,60.0
1000.412,70.0
1000.81213,33.0
1001.21246,67.0
1001.613,37.0
1002.0136,35.0
1002.4144,54.0
1002.81537,34.0
1003.2165,44.0
1003.6178,35.0
1004.0192,54.0
1004.42084,65.0
1004.82263,32.0
1005.22455,63.0
1005.62665,25.0
1006.0289,90.0
1006.4313,49.0
1006.83386,51.0
1007.2366,71.0
1007.63947,41.0
1008.04254,74.0
1008.44574,52.0
1008.8491,44.0
1009.2527,71.0
1009.6564,46.0
1010.06024,55.0
1010.4643,63.0
1010.86847,32.0
1011.2728,59.0
1011.6773,35.0
1012.082,52.0
1012.4868,36.0
1012.8918,51.0
1013.29694,63.0
1013.7023,70.0
1014.1077,105.0
1014.51337,65.0
1014.9192,89.0
1015.32513,70.0
1015.73126,39.0
1016.1376,58.0
1016.544,46.0
1016.9506,36.0
1017.3574,62.0
1017.76434,31.0
1018.17145,71.0
1018.57874,49.0
1018.98615,41.0
1019.39374,65.0
1019.8015,31.0
1020.2094,59.0
1020.6175,41.0
1021.02576,37.0
1021.43414,86.0
1021.8427,38.0
1022.25146,68.0
1022.66034,30.0
1023.0694,59.0
1023.47864,44.0
1023.888,43.0
1024.2976,67.0
1024.7073,39.0
1025.1172,51.0
1025.5272,48.0
1025.9374,44.0
1026.3478,58.0
1026.7583,27.0
1027.169,53.0
1027.5798,44.0
1027.9908,66.0
1028.4021,63.0
1028.8135,50.0
1029.225,53.0
1029.6367,50.0
1030.0486,80.0
1030.4606,53.0
1030.8728,60.0
1031.2852,43.0
1031.6976,46.0
1032.1104,46.0
1032.5232,53.0
1032.9362,45.0
1033.3494,52.0
1033.7627,70.0
1034.1761,54.0
1034.5898,51.0
1035.0037,67.0
1035.4177,61.0
1035.8319,52.0
1036.2462,70.0
1036.6608,52.0
1037.0754,49.0
1037.4902,68.0
1037.9053,53.0
1038.3204,61.0
1038.7357,37.0
1039.1512,54.0
1039.5669,56.0
1039.9827,43.0
1040.3987,60.0
1040.8148,28.0
1041.2312,51.0
1041.6477,50.0
1042.0643,45.0
1042.4812,44.0
1042.8982,35.0
1043.3153,59.0
1043.7327,58.0
1044.1501,60.0
1044.5677,44.0
1044.9856,41.0
1045.4036,57.0
1045.8218,47.0
1046.2401,68.0
1046.6586,40.0
1047.0773,60.0
1047.4961,60.0
1047.915,53.0
1048.3342,73.0
1048.7535,32.0
1049.1731,52.0
1049.5928,66.0
1050.0126,133.0
1050.4326,48.0
1050.8528,100.0
1051.2731,63.0
1051.6936,62.0
1052.1143,79.0
1052.5352,42.0
1052.9562,48.0
1053.3773,91.0
1053.7987,65.0
1054.2202,50.0
1054.6418,38.0
1055.0637,59.0
1055.4857,56.0
1055.908,58.0
1056.3303,60.0
1056.7528,40.0
1057.1755,63.0
1057.5984,54.0
1058.0215,56.0
1058.4447,61.0
1058.868,40.0
1059.2916,62.0
1059.7153,37.0
1060.1392,62.0
1060.5632,68.0
1060.9874,39.0
1061.4119,73.0
1061.8364,35.0
1062.2611,76.0
1062.686,37.0
1063.1111,56.0
1063.5364,56.0
1063.9618,41.0
1064.3873,52.0
1064.8131,34.0
1065.239,60.0
1065.6652,81.0
1066.0914,98.0
1066.5178,79.0
1066.9445,84.0
1067.3712,72.0
1067.7982,65.0
1068.2253,56.0
1068.6526,39.0
1069.0801,54.0
1069.5077,46.0
1069.9355,50.0
1070.3635,52.0
1070.7916,38.0
1071.22,63.0
1071.6484,48.0
1072.0771,68.0
1072.506,71.0
1072.9349,75.0
1073.3641,56.0
1073.7935,45.0
1074.223,82.0
1074.6527,48.0
1075.0825,50.0
1075.5126,49.0
1075.9427,38.0
1076.3732,59.0
1076.8037,39.0
1077.2344,51.0
1077.6653,53.0
1078.0963,68.0
1078.5276,44.0
1078.959,52.0
1079.3906,52.0
1079.8224,44.0
1080.2543,57.0
1080.6864,39.0
1081.1187,45.0
1081.5511,56.0
1081.9838,41.0
1082.4165,45.0
1082.8495,42.0
1083.2826,56.0
1083.716,45.0
1084.1494,49.0
1084.5831,47.0
1085.017,37.0
1085.4509,30.0
1085.8851,32.0
1086.3195,60.0
1086.754,25.0
1087.1887,46.0
1087.6235,51.0
1088.0586,60.0
1088.4938,63.0
1088.9292,40.0
1089.3647,55.0
1089.8005,41.0
1090.2365,74.0
1090.6725,37.0
1091.1088,59.0
1091.5452,60.0
1091.9818,51.0
1092.4186,66.0
1092.8556,39.0
1093.2927,80.0
1093.7301,38.0
1094.1676,42.0
1094.6052,51.0
1095.0431,48.0
1095.4811,44.0
1095.9193,38.0
1096.3577,57.0
1096.7963,35.0
1097.235,57.0
1097.6738,55.0
1098.1129,59.0
1098.5521,51.0
1098.9916,40.0
1099.4312,55.0
1099.871,51.0
1100.3109,64.0
1100.751,35.0
1101.1913,47.0
1101.6317,54.0
1102.0724,47.0
1102.5132,52.0
1102.9542,38.0
1103.3954,71.0
1103.8368,31.0
1104.2783,53.0
1104.72,30.0
1105.1619,48.0
1105.6039,38.0
1106.0461,25.0
1106.4885,69.0
1106.9312,38.0
1107.3739,57.0
1107.8169,37.0
1108.26,51.0
1108.7034,36.0
1109.1469,66.0
1109.5905,62.0
1110.0343,43.0
1110.4783,44.0
1110.9225,37.0
1111.3668,60.0
1111.8114,27.0
1112.2561,60.0
1112.701,36.0
1113.1461,52.0
1113.5914,38.0
1114.0369,34.0
1114.4824,56.0
1114.9282,38.0
1115.3741,50.0
1115.8203,34.0
1116.2666,56.0
1116.7131,39.0
1117.1598,51.0
1117.6067,41.0
1118.0537,39.0
1118.501,55.0
1118.9484,33.0
1119.396,57.0
1119.8438,29.0
1120.2917,63.0
1120.7399,35.0
1121.1881,55.0
1121.6366,50.0
1122.0852,41.0
1122.534,58.0
1122.983,49.0
1123.4323,47.0
1123.8816,35.0
1124.3312,52.0
1124.7809,27.0
1125.2308,39.0
1125.6809,43.0
1126.1312,48.0
1126.5817,49.0
1127.0323,47.0
1127.4832,53.0
1127.9342,32.0
1128.3854,69.0
1128.8367,41.0
1129.2882,61.0
1129.7399,27.0
1130.1918,53.0
1130.6438,42.0
1131.0961,51.0
1131.5485,55.0
1132.0011,43.0
1132.4539,61.0
1132.9069,30.0
1133.36,67.0
1133.8134,23.0
1134.2668,53.0
1134.7206,43.0
1135.1744,31.0
1135.6285,36.0
1136.0828,52.0
1136.5372,57.0
1136.9918,44.0
1137.4467,55.0
1137.9016,27.0
1138.3568,53.0
1138.8121,44.0
1139.2677,44.0
1139.7234,27.0
1140.1793,50.0
1140.6354,39.0
1141.0917,47.0
1141.5481,62.0
1142.0048,33.0
1142.4615,71.0
1142.9186,40.0
1143.3757,58.0
1143.8331,32.0
1144.2906,55.0
1144.7484,46.0
1145.2063,56.0
1145.6644,34.0
1146.1227,46.0
1146.5812,49.0
1147.0398,33.0
1147.4987,55.0
1147.9576,43.0
1148.4169,92.0
1148.8762,46.0
1149.3358,89.0
1149.7955,37.0
1150.2555,64.0
1150.7156,39.0
1151.1759,54.0
1151.6364,42.0
1152.097,43.0
1152.5579,44.0
1153.0189,40.0
1153.4801,55.0
1153.9415,32.0
1154.4031,61.0
1154.8649,33.0
1155.3268,56.0
1155.789,32.0
1156.2512,66.0
1156.7137,27.0
1157.1764,52.0
1157.6393,40.0
1158.1023,57.0
1158.5656,60.0
1159.0289,41.0
1159.4926,57.0
1159.9563,47.0
1160.4203,58.0
1160.8844,36.0
1161.3488,53.0
1161.8134,44.0
1162.2781,50.0
1162.743,31.0
1163.2081,53.0
1163.6735,36.0
1164.1389,39.0
1164.6046,48.0
1165.0704,40.0
1165.5365,54.0
1166.0027,46.0
1166.4691,55.0
1166.9357,37.0
1167.4025,42.0
1167.8694,36.0
1168.3365,63.0
1168.8038,38.0
1169.2714,59.0
1169.739,44.0
1170.2069,56.0
1170.675,35.0
1171.1433,48.0
1171.6118,44.0
1172.0804,36.0
1172.5493,49.0
1173.0183,39.0
1173.4875,68.0
1173.9569,47.0
1174.4265,73.0
1174.8962,49.0
1175.3662,62.0
1175.8363,34.0
1176.3066,59.0
1176.7772,49.0
1177.2479,56.0
1177.7189,40.0
1178.19,42.0
1178.6613,42.0
1179.1327,49.0
1179.6044,45.0
1180.0762,32.0
1180.5482,46.0
1181.0204,47.0
1181.4928,62.0
1181.9655,42.0
1182.4382,55.0
1182.9113,23.0
1183.3844,51.0
1183.8578,32.0
1184.3313,61.0
1184.805,31.0
1185.2789,81.0
1185.753,59.0
1186.2273,60.0
1186.7018,50.0
1187.1765,50.0
1187.6514,39.0
1188.1265,44.0
1188.6017,50.0
1189.0771,47.0
1189.5527,43.0
1190.0286,40.0
1190.5045,59.0
1190.9807,31.0
1191.4572,68.0
1191.9337,50.0
1192.4105,53.0
1192.8875,34.0
1193.3646,63.0
1193.8419,31.0
1194.3195,52.0
1194.7972,49.0
1195.2751,54.0
1195.7533,43.0
1196.2316,53.0
1196.7101,36.0
1197.1887,51.0
1197.6676,43.0
1198.1467,41.0
1198.626,38.0
1199.1055,50.0
1199.5851,47.0
1200.065,36.0
1200.5449,58.0
1201.0251,45.0
1201.5056,47.0
1201.9862,31.0
1202.467,43.0
1202.948,30.0
1203.4292,48.0
1203.9105,46.0
1204.3921,52.0
1204.8739,37.0
1205.3558,58.0
1205.838,48.0
1206.3203,55.0
1206.8029,37.0
1207.2855,66.0
1207.7684,41.0
1208.2516,45.0
1208.7349,56.0
1209.2184,61.0
1209.702,46.0
1210.1859,52.0
1210.67,62.0
1211.1543,48.0
1211.6388,50.0
1212.1234,45.0
1212.6083,43.0
1213.0933,41.0
1213.5785,48.0
1214.064,34.0
1214.5496,68.0
1215.0354,36.0
1215.5214,51.0
1216.0076,30.0
1216.494,48.0
1216.9806,49.0
1217.4674,53.0
1217.9543,35.0
1218.4415,46.0
1218.929,34.0
1219.4165,66.0
1219.9043,50.0
1220.3922,44.0
1220.8804,39.0
1221.3688,78.0
1221.8573,48.0
1222.3461,42.0
1222.835,43.0
1223.3241,48.0
1223.8135,30.0
1224.303,56.0
1224.7927,50.0
1225.2826,49.0
1225.7727,37.0
1226.2631,42.0
1226.7535,41.0
1227.2443,44.0
1227.7351,51.0
1228.2262,45.0
1228.7175,37.0
1229.209,67.0
1229.7007,47.0
1230.1925,47.0
1230.6846,45.0
1231.1769,60.0
1231.6693,45.0
1232.162,49.0
1232.6549,50.0
1233.148,31.0
1233.6412,48.0
1234.1346,54.0
1234.6283,48.0
1235.1222,50.0
1235.6162,49.0
1236.1105,45.0
1236.6049,49.0
1237.0995,30.0
1237.5944,44.0
1238.0894,44.0
1238.5846,50.0
1239.0801,55.0
1239.5757,39.0
1240.0715,51.0
1240.5675,55.0
1241.0637,48.0
1241.5602,55.0
1242.0568,54.0
1242.5536,51.0
1243.0507,41.0
1243.5479,58.0
1244.0453,44.0
1244.5428,59.0
1245.0406,38.0
1245.5387,58.0
1246.0369,46.0
1246.5353,82.0
1247.0339,65.0
1247.5327,68.0
1248.0317,45.0
1248.531,67.0
1249.0304,34.0
1249.53,67.0
1250.0298,39.0
1250.5298,50.0
1251.03,31.0
1251.5304,63.0
1252.031,41.0
1252.5319,53.0
1253.0328,47.0
1253.534,46.0
1254.0355,33.0
1254.5371,54.0
1255.039,48.0
1255.541,45.0
1256.0432,52.0
1256.5457,47.0
1257.0482,37.0
1257.551,41.0
1258.0541,56.0
1258.5573,41.0
1259.0607,47.0
1259.5643,45.0
1260.0681,40.0
1260.5721,58.0
1261.0764,72.0
1261.5808,57.0
1262.0854,66.0
1262.5903,43.0
1263.0953,63.0
1263.6006,76.0
1264.1061,51.0
1264.6117,54.0
1265.1176,50.0
1265.6237,55.0
1266.1299,44.0
1266.6364,51.0
1267.1431,56.0
1267.6499,46.0
1268.157,43.0
1268.6642,51.0
1269.1716,43.0
1269.6793,44.0
1270.1871,47.0
1270.6952,63.0
1271.2035,44.0
1271.7119,49.0
1272.2206,55.0
1272.7295,41.0
1273.2385,62.0
1273.7478,46.0
1274.2573,50.0
1274.767,49.0
1275.2769,53.0
1275.787,37.0
1276.2972,43.0
1276.8077,67.0
1277.3185,56.0
1277.8295,53.0
1278.3406,55.0
1278.8519,60.0
1279.3635,56.0
1279.8752,41.0
1280.3872,54.0
1280.8994,41.0
1281.4117,47.0
1281.9243,39.0
1282.4371,57.0
1282.9501,61.0
1283.4633,63.0
1283.9767,45.0
1284.4902,53.0
1285.004,48.0
1285.5181,51.0
1286.0322,58.0
1286.5466,46.0
1287.0613,52.0
1287.576,73.0
1288.0911,40.0
1288.6063,62.0
1289.1218,45.0
1289.6375,63.0
1290.1533,50.0
1290.6694,64.0
1291.1857,58.0
1291.7021,48.0
1292.2189,36.0
1292.7357,67.0
1293.2528,57.0
1293.7701,35.0
1294.2876,52.0
1294.8053,45.0
1295.3232,55.0
1295.8414,36.0
1296.3597,49.0
1296.8783,33.0
1297.3971,53.0
1297.916,48.0
1298.4352,50.0
1298.9546,36.0
1299.4741,36.0
1299.9939,57.0
1300.5139,55.0
1301.0342,49.0
1301.5546,64.0
1302.0752,24.0
1302.5961,54.0
1303.1171,60.0
1303.6383,45.0
1304.1598,44.0
1304.6814,55.0
1305.2032,59.0
1305.7253,56.0
1306.2477,59.0
1306.7701,30.0
1307.2928,61.0
1307.8158,40.0
1308.3389,49.0
1308.8622,44.0
1309.3857,57.0
1309.9095,35.0
1310.4335,43.0
1310.9576,44.0
1311.482,62.0
1312.0066,31.0
1312.5314,53.0
1313.0564,47.0
1313.5817,38.0
1314.107,33.0
1314.6327,53.0
1315.1586,51.0
1315.6847,49.0
1316.2109,47.0
1316.7374,38.0
1317.2642,65.0
1317.791,42.0
1318.3181,58.0
1318.8455,48.0
1319.373,59.0
1319.9008,36.0
1320.4287,43.0
1320.9569,42.0
1321.4854,64.0
1322.0139,32.0
1322.5427,56.0
1323.0718,32.0
1323.601,44.0
1324.1304,50.0
1324.66,45.0
1325.19,38.0
1325.72,49.0
1326.2502,50.0
1326.7808,42.0
1327.3115,50.0
1327.8424,32.0
1328.3735,52.0
1328.9049,43.0
1329.4365,46.0
1329.9683,44.0
1330.5002,54.0
1331.0325,47.0
1331.565,60.0
1332.0975,43.0
1332.6304,43.0
1333.1635,53.0
1333.6968,60.0
1334.2302,45.0
1334.7639,44.0
1335.2979,44.0
1335.832,38.0
1336.3663,63.0
1336.9009,32.0
1337.4357,52.0
1337.9707,42.0
1338.5059,45.0
1339.0413,30.0
1339.5769,59.0
1340.1128,55.0
1340.6488,46.0
1341.185,40.0
1341.7216,46.0
1342.2583,44.0
1342.7952,35.0
1343.3323,56.0
1343.8696,34.0
1344.4072,51.0
1344.945,39.0
1345.4829,58.0
1346.0211,37.0
1346.5596,55.0
1347.0981,37.0
1347.637,44.0
1348.176,44.0
1348.7153,49.0
1349.2548,45.0
1349.7944,48.0
1350.3344,63.0
1350.8745,29.0
1351.4149,51.0
1351.9554,33.0
1352.4962,49.0
1353.0372,36.0
1353.5785,58.0
1354.1199,50.0
1354.6615,58.0
1355.2034,53.0
1355.7455,32.0
1356.2878,57.0
1356.8303,50.0
1357.373,59.0
1357.916,38.0
1358.4592,54.0
1359.0026,45.0
1359.5461,45.0
1360.09,39.0
1360.634,51.0
1361.1783,50.0
1361.7228,42.0
1362.2675,65.0
1362.8124,51.0
1363.3575,63.0
1363.9028,41.0
1364.4484,59.0
1364.9941,38.0
1365.5402,47.0
1366.0864,41.0
1366.6328,56.0
1367.1794,44.0
1367.7263,29.0
1368.2734,34.0
1368.8208,48.0
1369.3683,44.0
1369.916,46.0
1370.464,51.0
1371.0122,40.0
1371.5607,62.0
1372.1093,56.0
1372.6581,49.0
1373.2072,40.0
1373.7565,54.0
1374.306,73.0
1374.8557,34.0
1375.4056,86.0
1375.9558,48.0
1376.5062,66.0
1377.0569,42.0
1377.6077,59.0
1378.1587,41.0
1378.71,56.0
1379.2615,61.0
1379.8132,39.0
1380.3651,61.0
1380.9172,39.0
1381.4696,56.0
1382.0222,44.0
1382.5751,59.0
1383.128,49.0
1383.6813,41.0
1384.2347,50.0
1384.7885,43.0
1385.3424,57.0
1385.8965,38.0
1386.4508,49.0
1387.0054,44.0
1387.5602,62.0
1388.1152,50.0
1388.6705,47.0
1389.226,44.0
1389.7816,44.0
1390.3375,65.0
1390.8937,30.0
1391.4501,60.0
1392.0067,52.0
1392.5635,57.0
1393.1205,37.0
1393.6777,48.0
1394.2352,50.0
1394.793,39.0
1395.3508,61.0
1395.9089,47.0
1396.4673,58.0
1397.0259,41.0
1397.5847,54.0
1398.1438,53.0
1398.703,53.0
1399.2625,54.0
1399.8221,55.0
1400.3821,68.0
1400.9423,39.0
1401.5027,49.0
1402.0632,52.0
1402.624,46.0
1403.185,50.0
1403.7463,53.0
1404.3079,57.0
1404.8696,32.0
1405.4315,73.0
1405.9937,36.0
1406.556,65.0
1407.1187,35.0
1407.6815,58.0
1408.2446,56.0
1408.808,53.0
1409.3715,55.0
1409.9352,36.0
1410.4991,57.0
1411.0634,47.0
1411.6278,59.0
1412.1925,47.0
1412.7573,50.0
1413.3224,72.0
1413.8877,44.0
1414.4532,73.0
1415.019,55.0
1415.5851,53.0
1416.1514,46.0
1416.7178,47.0
1417.2844,54.0
1417.8513,46.0
1418.4185,74.0
1418.9858,40.0
1419.5535,85.0
1420.1213,52.0
1420.6893,60.0
1421.2576,53.0
1421.826,31.0
1422.3948,92.0
1422.9637,37.0
1423.533,75.0
1424.1024,43.0
1424.672,70.0
1425.2418,66.0
1425.8119,43.0
1426.3822,53.0
1426.9528,53.0
1427.5236,60.0
1428.0946,38.0
1428.6659,51.0
1429.2373,52.0
1429.809,35.0
1430.3809,63.0
1430.953,49.0
1431.5254,65.0
1432.098,43.0
1432.6709,50.0
1433.244,49.0
1433.8173,46.0
1434.3907,57.0
1434.9645,44.0
1435.5385,65.0
1436.1127,52.0
1436.6871,51.0
1437.2618,49.0
1437.8368,46.0
1438.412,71.0
1438.9873,41.0
1439.5629,53.0
1440.1387,49.0
1440.7147,53.0
1441.291,67.0
1441.8676,37.0
1442.4443,60.0
1443.0214,37.0
1443.5985,62.0
1444.1759,55.0
1444.7535,45.0
1445.3314,57.0
1445.9095,43.0
1446.4879,57.0
1447.0665,43.0
1447.6454,47.0
1448.2245,68.0
1448.8038,48.0
1449.3833,56.0
1449.963,55.0
1450.543,60.0
1451.1232,45.0
1451.7036,70.0
1452.2843,49.0
1452.8652,30.0
1453.4464,75.0
1454.0278,57.0
1454.6095,69.0
1455.1913,41.0
1455.7733,63.0
1456.3556,61.0
1456.9381,48.0
1457.5209,59.0
1458.1039,42.0
1458.6871,60.0
1459.2706,49.0
1459.8544,47.0
1460.4384,59.0
1461.0226,41.0
1461.6069,70.0
1462.1915,46.0
1462.7764,54.0
1463.3615,92.0
1463.9468,29.0
1464.5323,58.0
1465.1182,41.0
1465.7042,56.0
1466.2905,56.0
1466.8771,49.0
1467.4639,52.0
1468.0509,37.0
1468.6382,50.0
1469.2256,57.0
1469.8132,42.0
1470.4011,52.0
1470.9893,37.0
1471.5776,53.0
1472.1663,41.0
1472.7551,59.0
1473.3442,46.0
1473.9336,57.0
1474.5232,63.0
1475.113,50.0
1475.7031,54.0
1476.2935,49.0
1476.884,38.0
1477.4747,56.0
1478.0657,46.0
1478.6569,59.0
1479.2483,66.0
1479.84,32.0
1480.4319,64.0
1481.024,37.0
1481.6165,64.0
1482.2091,55.0
1482.802,47.0
1483.3951,66.0
1483.9885,37.0
1484.5822,46.0
1485.176,38.0
1485.7701,61.0
1486.3645,47.0
1486.9591,30.0
1487.5538,59.0
1488.1488,37.0
1488.744,52.0
1489.3395,59.0
1489.9352,65.0
1490.5311,43.0
1491.1273,50.0
1491.7238,43.0
1492.3204,55.0
1492.9174,45.0
1493.5145,65.0
1494.1119,46.0
1494.7096,60.0
1495.3075,59.0
1495.9056,52.0
1496.504,61.0
1497.1027,43.0
1497.7015,56.0
1498.3007,49.0
1498.9,35.0
1499.4996,44.0
1500.0995,54.0
1500.6996,45.0
1501.2998,54.0
1501.9003,45.0
1502.501,58.0
1503.1019,41.0
1503.7031,46.0
1504.3046,45.0
1504.9062,38.0
1505.5082,63.0
1506.1104,55.0
1506.7128,50.0
1507.3154,68.0
1507.9183,34.0
1508.5215,71.0
1509.1249,50.0
1509.7285,42.0
1510.3324,48.0
1510.9365,41.0
1511.5409,58.0
1512.1455,56.0
1512.7504,128.0
1513.3555,122.0
1513.9608,69.0
1514.5664,90.0
1515.1722,48.0
1515.7783,60.0
1516.3846,50.0
1516.9912,48.0
1517.598,73.0
1518.2051,47.0
1518.8124,40.0
1519.4199,62.0
1520.0277,41.0
1520.6357,60.0
1521.244,52.0
1521.8525,51.0
1522.4613,59.0
1523.0703,38.0
1523.6796,55.0
1524.2891,50.0
1524.8988,39.0
1525.5088,57.0
1526.119,56.0
1526.7295,56.0
1527.3402,53.0
1527.9512,44.0
1528.5624,53.0
1529.1738,55.0
1529.7855,44.0
1530.3975,52.0
1531.0096,39.0
1531.6221,53.0
1532.2347,38.0
1532.8477,43.0
1533.4608,53.0
1534.0742,42.0
1534.6879,60.0
1535.3018,57.0
1535.9159,34.0
1536.5303,58.0
1537.1449,35.0
1537.7598,46.0
1538.3749,73.0
1538.9902,45.0
1539.6058,62.0
1540.2217,54.0
1540.8378,52.0
1541.4541,46.0
1542.0707,42.0
1542.6875,57.0
1543.3046,52.0
1543.9219,47.0
1544.5394,57.0
1545.1572,36.0
1545.7753,38.0
1546.3936,60.0
1547.0121,41.0
1547.6309,49.0
1548.2499,50.0
1548.8691,51.0
1549.4886,54.0
1550.1084,34.0
1550.7284,50.0
1551.3486,66.0
1551.9691,43.0
1552.5898,58.0
1553.2109,40.0
1553.8323,43.0
1554.4539,67.0
1555.0757,52.0
1555.6978,58.0
1556.3201,52.0
1556.9426,40.0
1557.5654,54.0
1558.1885,44.0
1558.8118,45.0
1559.4353,58.0
1560.0591,51.0
1560.6831,64.0
1561.3074,61.0
1561.9319,35.0
1562.5566,64.0
1563.1816,48.0
1563.8069,48.0
1564.4324,77.0
1565.0581,34.0
1565.6841,64.0
1566.3103,54.0
1566.9368,58.0
1567.5636,54.0
1568.1907,51.0
1568.818,48.0
1569.4456,60.0
1570.0734,55.0
1570.7014,55.0
1571.3297,52.0
1571.9583,44.0
1572.587,57.0
1573.2161,47.0
1573.8453,38.0
1574.4749,55.0
1575.1046,43.0
1575.7346,47.0
1576.3649,49.0
1576.9954,49.0
1577.6261,46.0
1578.2572,59.0
1578.8885,40.0
1579.5201,44.0
1580.152,41.0
1580.784,61.0
1581.4164,54.0
1582.049,32.0
1582.6818,57.0
1583.3148,51.0
1583.9481,45.0
1584.5817,65.0
1585.2155,47.0
1585.8495,61.0
1586.4839,61.0
1587.1185,54.0
1587.7534,60.0
1588.3885,70.0
1589.0239,51.0
1589.6595,58.0
1590.2954,48.0
1590.9315,46.0
1591.5679,54.0
1592.2045,37.0
1592.8413,51.0
1593.4784,63.0
1594.1158,48.0
1594.7535,47.0
1595.3915,57.0
1596.0297,46.0
1596.6681,73.0
1597.3068,59.0
1597.9457,57.0
1598.5848,64.0
1599.2242,38.0
1599.8639,51.0
1600.5038,60.0
1601.144,56.0
1601.7845,63.0
1602.4253,63.0
1603.0663,50.0
1603.7075,77.0
1604.349,75.0
1604.9907,46.0
1605.6327,54.0
1606.2749,63.0
1606.9174,44.0
1607.5602,49.0
1608.2032,55.0
1608.8466,54.0
1609.4901,54.0
1610.1339,38.0
1610.778,43.0
1611.4222,43.0
1612.0668,47.0
1612.7115,52.0
1613.3567,64.0
1614.0021,39.0
1614.6477,52.0
1615.2936,57.0
1615.9397,45.0
1616.586,55.0
1617.2327,54.0
1617.8795,55.0
1618.5266,69.0
1619.1741,60.0
1619.8218,53.0
1620.4697,58.0
1621.1179,51.0
1621.7664,43.0
1622.415,57.0
1623.064,44.0
1623.7131,65.0
1624.3627,64.0
1625.0125,55.0
1625.6625,57.0
1626.3127,38.0
1626.9633,42.0
1627.614,61.0
1628.265,49.0
1628.9163,58.0
1629.5679,58.0
1630.2197,47.0
1630.8718,48.0
1631.5242,55.0
1632.1768,43.0
1632.8296,47.0
1633.4827,53.0
1634.1361,51.0
1634.7898,52.0
1635.4437,58.0
1636.0979,45.0
1636.7523,65.0
1637.407,52.0
1638.0619,50.0
1638.7172,72.0
1639.3727,65.0
1640.0284,50.0
1640.6844,72.0
1641.3407,53.0
1641.9972,43.0
1642.6539,47.0
1643.311,35.0
1643.9684,55.0
1644.626,90.0
1645.2838,82.0
1645.9419,61.0
1646.6002,90.0
1647.2589,66.0
1647.9178,60.0
1648.577,59.0
1649.2365,40.0
1649.8961,51.0
1650.556,63.0
1651.2163,54.0
1651.8768,46.0
1652.5376,48.0
1653.1986,33.0
1653.8599,37.0
1654.5214,46.0
1655.1832,46.0
1655.8453,55.0
1656.5077,54.0
1657.1703,51.0
1657.8331,45.0
1658.4962,48.0
1659.1597,39.0
1659.8234,50.0
1660.4873,49.0
1661.1515,41.0
1661.8159,51.0
1662.4806,59.0
1663.1456,51.0
1663.8109,61.0
1664.4764,64.0
1665.1422,55.0
1665.8082,57.0
1666.4746,52.0
1667.1412,42.0
1667.8081,65.0
1668.4752,60.0
1669.1426,37.0
1669.8102,54.0
1670.4781,46.0
1671.1464,42.0
1671.8148,51.0
1672.4835,65.0
1673.1525,50.0
1673.8218,62.0
1674.4913,70.0
1675.1611,35.0
1675.8312,46.0
1676.5015,47.0
1677.1721,45.0
1677.843,73.0
1678.5142,61.0
1679.1855,45.0
1679.8572,51.0
1680.5292,50.0
1681.2014,47.0
1681.8739,42.0
1682.5466,56.0
1683.2196,60.0
1683.893,55.0
1684.5665,47.0
1685.2404,51.0
1685.9144,48.0
1686.5887,48.0
1687.2634,44.0
1687.9384,31.0
1688.6135,59.0
1689.289,40.0
1689.9646,45.0
1690.6406,46.0
1691.3169,48.0
1691.9934,47.0
1692.6702,50.0
1693.3473,49.0
1694.0247,45.0
1694.7023,42.0
1695.3801,36.0
1696.0582,37.0
1696.7367,55.0
1697.4154,52.0
1698.0944,48.0
1698.7736,51.0
1699.4531,65.0
1700.1329,45.0
1700.813,52.0
1701.4933,49.0
1702.1738,36.0
1702.8547,55.0
1703.5359,55.0
1704.2173,38.0
1704.8989,42.0
1705.5809,70.0
1706.2632,54.0
1706.9457,31.0
1707.6284,67.0
1708.3115,47.0
1708.9949,26.0
1709.6785,38.0
1710.3623,71.0
1711.0465,52.0
1711.731,37.0
1712.4156,70.0
1713.1006,35.0
1713.7858,36.0
1714.4713,72.0
1715.1571,39.0
1715.8431,48.0
1716.5294,56.0
1717.2161,48.0
1717.903,54.0
1718.5901,52.0
1719.2775,46.0
1719.9652,37.0
1720.6532,39.0
1721.3414,62.0
1722.0299,48.0
1722.7188,63.0
1723.4078,41.0
1724.0972,47.0
1724.7869,64.0
1725.4768,52.0
1726.167,42.0
1726.8574,61.0
1727.5482,64.0
1728.2393,54.0
1728.9305,71.0
1729.6221,60.0
1730.314,44.0
1731.0061,45.0
1731.6985,46.0
1732.3911,48.0
1733.0841,37.0
1733.7773,49.0
1734.4708,39.0
1735.1647,39.0
1735.8588,50.0
1736.5531,60.0
1737.2477,41.0
1737.9426,37.0
1738.6378,56.0
1739.3333,49.0
1740.0289,37.0
1740.725,58.0
1741.4213,51.0
1742.1178,44.0
1742.8147,47.0
1743.5118,65.0
1744.2092,50.0
1744.9069,41.0
1745.6049,52.0
1746.3031,49.0
1747.0016,52.0
1747.7004,44.0
1748.3995,41.0
1749.0989,43.0
1749.7985,57.0
1750.4984,48.0
1751.1986,44.0
1751.899,35.0
1752.5999,53.0
1753.3009,47.0
1754.0022,40.0
1754.7039,37.0
1755.4058,41.0
1756.1079,35.0
1756.8103,51.0
1757.5131,53.0
1758.2161,43.0
1758.9193,41.0
1759.6229,63.0
1760.3268,43.0
1761.0309,45.0
1761.7354,43.0
1762.4401,53.0
1763.145,45.0
1763.8502,48.0
1764.5558,52.0
1765.2616,35.0
1765.9677,35.0
1766.6741,48.0
1767.3807,56.0
1768.0876,44.0
1768.7949,48.0
1769.5024,50.0
1770.2102,38.0
1770.9183,42.0
1771.6267,63.0
1772.3353,38.0
1773.0443,48.0
1773.7535,46.0
1774.463,48.0
1775.1729,38.0
1775.8829,45.0
1776.5933,57.0
1777.304,48.0
1778.0149,31.0
1778.7261,44.0
1779.4376,44.0
1780.1494,38.0
1780.8615,39.0
1781.5739,45.0
1782.2865,35.0
1782.9994,41.0
1783.7126,41.0
1784.4261,51.0
1785.1399,46.0
1785.854,39.0
1786.5684,50.0
1787.283,33.0
1787.9979,45.0
1788.7131,52.0
1789.4286,40.0
1790.1444,38.0
1790.8605,45.0
1791.5768,51.0
1792.2935,51.0
1793.0104,50.0
1793.7275,51.0
1794.4451,62.0
1795.1628,49.0
1795.8809,47.0
1796.5992,41.0
1797.3179,48.0
1798.0367,44.0
1798.756,48.0
1799.4755,38.0
1800.1953,49.0
1800.9154,48.0
1801.6357,57.0
1802.3564,36.0
1803.0774,33.0
1803.7986,45.0
1804.5201,36.0
1805.242,49.0
1805.964,84.0
1806.6864,93.0
1807.409,56.0
1808.1321,49.0
1808.8553,42.0
1809.5789,64.0
1810.3027,51.0
1811.0269,38.0
1811.7512,55.0
1812.476,53.0
1813.2009,45.0
1813.9261,59.0
1814.6517,57.0
1815.3776,53.0
1816.1038,36.0
1816.8302,54.0
1817.5569,52.0
1818.2839,44.0
1819.0112,39.0
1819.7389,54.0
1820.4668,37.0
1821.195,31.0
1821.9235,55.0
1822.6522,43.0
1823.3812,58.0
1824.1106,41.0
1824.8402,51.0
1825.5702,46.0
1826.3004,52.0
1827.0309,44.0
1827.7617,55.0
1828.4928,63.0
1829.2242,47.0
1829.9559,59.0
1830.6879,52.0
1831.4202,51.0
1832.1527,35.0
1832.8856,39.0
1833.6188,46.0
1834.3522,42.0
1835.0859,28.0
1835.82,58.0
1836.5543,57.0
1837.289,54.0
1838.0238,48.0
1838.759,55.0
1839.4945,59.0
1840.2303,36.0
1840.9664,60.0
1841.7028,62.0
1842.4395,52.0
1843.1764,54.0
1843.9137,51.0
1844.6512,52.0
1845.3892,43.0
1846.1273,41.0
1846.8657,53.0
1847.6045,50.0
1848.3435,43.0
1849.0829,26.0
1849.8225,53.0
1850.5624,58.0
1851.3026,44.0
1852.0431,43.0
1852.7839,62.0
1853.525,66.0
1854.2665,37.0
1855.0082,42.0
1855.7501,50.0
1856.4924,46.0
1857.235,52.0
1857.9779,81.0
1858.7211,87.0
1859.4646,94.0
1860.2084,44.0
1860.9525,66.0
1861.6969,51.0
1862.4415,59.0
1863.1865,43.0
1863.9318,50.0
1864.6774,45.0
1865.4232,41.0
1866.1694,45.0
1866.9159,47.0
1867.6627,65.0
1868.4098,59.0
1869.1571,39.0
1869.9048,53.0
1870.6527,53.0
1871.401,59.0
1872.1495,38.0
1872.8984,47.0
1873.6476,68.0
1874.3971,69.0
1875.1469,44.0
1875.8969,58.0
1876.6472,57.0
1877.3978,78.0
1878.1488,35.0
1878.9,50.0
1879.6516,47.0
1880.4034,40.0
1881.1556,40.0
1881.9081,42.0
1882.6609,47.0
1883.414,55.0
1884.1674,71.0
1884.921,228.0
1885.675,244.0
1886.4293,134.0
1887.1838,78.0
1887.9387,95.0
1888.6938,75.0
1889.4493,56.0
1890.2051,47.0
1890.9612,42.0
1891.7175,49.0
1892.4742,37.0
1893.2312,43.0
1893.9885,51.0
1894.7461,54.0
1895.504,60.0
1896.2622,34.0
1897.0208,61.0
1897.7795,63.0
1898.5387,51.0
1899.2981,43.0
1900.0579,45.0
1900.8179,45.0
1901.5782,40.0
1902.3389,45.0
1903.0999,32.0
1903.8611,37.0
1904.6227,61.0
1905.3845,37.0
1906.1467,41.0
1906.9092,54.0
1907.672,52.0
1908.435,49.0
1909.1985,38.0
1909.9622,50.0
1910.7262,48.0
1911.4905,75.0
1912.2551,69.0
1913.02,55.0
1913.7853,187.0
1914.5508,163.0
1915.3167,77.0
1916.0828,98.0
1916.8492,56.0
1917.616,57.0
1918.383,47.0
1919.1504,33.0
1919.9181,46.0
1920.686,56.0
1921.4543,53.0
1922.2229,51.0
1922.9918,42.0
1923.761,47.0
1924.5305,46.0
1925.3003,42.0
1926.0704,42.0
1926.8408,45.0
1927.6116,49.0
1928.3826,42.0
1929.1539,40.0
1929.9255,42.0
1930.6975,43.0
1931.4698,43.0
1932.2424,37.0
1933.0154,37.0
1933.7886,47.0
1934.5621,51.0
1935.3359,40.0
1936.1101,57.0
1936.8845,48.0
1937.6593,46.0
1938.4343,40.0
1939.2097,39.0
1939.9854,54.0
1940.7614,35.0
1941.5376,36.0
1942.3142,33.0
1943.0912,36.0
1943.8684,31.0
1944.646,33.0
1945.4238,46.0
1946.202,32.0
1946.9805,35.0
1947.7593,57.0
1948.5383,43.0
1949.3177,56.0
1950.0975,27.0
1950.8776,30.0
1951.658,36.0
1952.4386,47.0
1953.2196,46.0
1954.0009,37.0
1954.7825,51.0
1955.5643,43.0
1956.3466,40.0
1957.1292,42.0
1957.912,35.0
1958.6952,48.0
1959.4786,39.0
1960.2625,34.0
1961.0465,38.0
1961.8309,41.0
1962.6157,48.0
1963.4008,46.0
1964.1862,39.0
1964.9718,44.0
1965.7578,28.0
1966.5441,44.0
1967.3307,52.0
1968.1177,52.0
1968.9049,48.0
1969.6925,54.0
1970.4803,44.0
1971.2686,42.0
1972.057,32.0
1972.8458,51.0
1973.635,42.0
1974.4244,49.0
1975.2142,38.0
1976.0043,36.0
1976.7947,45.0
1977.5854,52.0
1978.3765,30.0
1979.1678,33.0
1979.9595,39.0
1980.7515,45.0
1981.5438,27.0
1982.3364,43.0
1983.1294,40.0
1983.9226,57.0
1984.7162,44.0
1985.5101,63.0
1986.3043,33.0
1987.0989,41.0
1987.8937,32.0
1988.6888,41.0
1989.4844,33.0
1990.2802,31.0
1991.0763,41.0
1991.8727,33.0
1992.6694,42.0
1993.4666,53.0
1994.2639,51.0
1995.0616,65.0
1995.8596,43.0
1996.658,59.0
1997.4567,46.0
1998.2556,47.0
1999.0549,37.0
1999.8546,33.0
2000.6545,55.0
2001.4548,47.0
2002.2554,34.0
2003.0563,36.0
2003.8575,31.0
2004.659,35.0
2005.4609,47.0
2006.2631,32.0
2007.0656,39.0
2007.8684,53.0
2008.6715,49.0
2009.475,72.0
2010.2788,62.0
2011.0829,58.0
2011.8873,86.0
2012.6921,70.0
2013.4972,70.0
2014.3026,55.0
2015.1083,39.0
2015.9143,41.0
2016.7207,32.0
2017.5273,47.0
2018.3344,38.0
2019.1417,40.0
2019.9493,37.0
2020.7573,44.0
2021.5657,43.0
2022.3743,31.0
2023.1832,45.0
2023.9926,43.0
2024.8021,38.0
2025.612,80.0
2026.4224,83.0
2027.2329,43.0
2028.0438,54.0
2028.855,59.0
2029.6665,75.0
2030.4784,53.0
2031.2905,47.0
2032.103,48.0
2032.9159,43.0
2033.729,52.0
2034.5425,54.0
2035.3563,37.0
2036.1704,46.0
2036.9849,36.0
2037.7997,49.0
2038.6147,33.0
2039.4302,45.0
2040.246,45.0
2041.062,50.0
2041.8784,41.0
2042.6952,48.0
2043.5123,50.0
2044.3297,39.0
2045.1475,40.0
2045.9656,41.0
2046.7839,36.0
2047.6027,30.0
2048.4216,48.0
2049.241,38.0
2050.0605,31.0
2050.8806,62.0
2051.701,46.0
2052.5217,46.0
2053.3428,48.0
2054.164,41.0
2054.9858,50.0
2055.8079,31.0
2056.6301,36.0
2057.453,33.0
2058.276,48.0
2059.099,17.0
2059.9229,35.0
2060.7468,41.0
2061.571,36.0
2062.3958,43.0
2063.2207,34.0
2064.046,34.0
2064.8716,37.0
2065.6975,61.0
2066.5237,49.0
2067.3503,44.0
2068.1772,40.0
2069.0046,50.0
2069.8323,51.0
2070.6602,42.0
2071.4885,43.0
2072.3171,36.0
2073.146,33.0
2073.9753,33.0
2074.805,34.0
2075.6348,40.0
2076.465,34.0
2077.2957,49.0
2078.1265,40.0
2078.9578,37.0
2079.7893,28.0
2080.6213,53.0
2081.4536,51.0
2082.2861,68.0
2083.1191,73.0
2083.9524,62.0
2084.786,67.0
2085.6199,49.0
2086.454,32.0
2087.2886,36.0
2088.1235,29.0
2088.9587,34.0
2089.7944,59.0
2090.6304,32.0
2091.4666,35.0
2092.3032,35.0
2093.1401,39.0
2093.9773,39.0
2094.815,41.0
2095.6528,34.0
2096.4912,39.0
2097.3298,40.0
2098.1687,31.0
2099.008,35.0
2099.8477,36.0
2100.6875,38.0
2101.5278,41.0
2102.3684,40.0
2103.2095,41.0
2104.0508,38.0
2104.8923,46.0
2105.7344,42.0
2106.5767,39.0
2107.4192,37.0
2108.2622,32.0
2109.1055,45.0
2109.9492,42.0
2110.7932,33.0
2111.6375,63.0
2112.4822,48.0
2113.3271,50.0
2114.1724,51.0
2115.018,36.0
2115.864,43.0
2116.7104,33.0
2117.5571,39.0
2118.404,48.0
2119.2515,42.0
2120.099,41.0
2120.9473,48.0
2121.7957,36.0
2122.6443,38.0
2123.4934,44.0
2124.3428,45.0
2125.1926,38.0
2126.0427,40.0
2126.893,49.0
2127.744,38.0
2128.595,31.0
2129.4463,37.0
2130.298,34.0
2131.1501,35.0
2132.0027,45.0
2132.8555,34.0
2133.7085,47.0
2134.562,47.0
2135.4158,41.0
2136.27,30.0
2137.1245,48.0
2137.9792,35.0
2138.8345,49.0
2139.69,34.0
2140.546,49.0
2141.402,59.0
2142.2585,42.0
2143.1155,67.0
2143.9727,44.0
2144.8303,46.0
2145.6882,42.0
2146.5464,33.0
2147.405,42.0
2148.264,30.0
2149.1233,36.0
2149.983,36.0
2150.843,29.0
2151.7034,36.0
2152.564,42.0
2153.425,29.0
2154.2864,39.0
2155.1482,42.0
2156.0103,50.0
2156.8726,44.0
2157.7354,44.0
2158.5984,30.0
2159.462,39.0
2160.3257,41.0
2161.1897,39.0
2162.0542,42.0
2162.919,47.0
2163.7842,44.0
2164.6497,46.0
2165.5156,45.0
2166.3818,45.0
2167.2483,43.0
2168.1152,59.0
2168.9824,47.0
2169.85,62.0
2170.718,47.0
2171.5864,42.0
2172.455,48.0
2173.324,29.0
2174.1934,35.0
2175.063,42.0
2175.933,31.0
2176.8035,35.0
2177.674,48.0
2178.5452,54.0
2179.4165,49.0
2180.2883,50.0
2181.1604,46.0
2182.033,57.0
2182.9058,42.0
2183.7788,45.0
2184.6523,44.0
2185.5261,58.0
2186.4004,34.0
2187.275,34.0
2188.15,34.0
2189.0251,41.0
2189.9006,30.0
2190.7766,42.0
2191.6528,44.0
2192.5295,34.0
2193.4065,41.0
2194.284,56.0
2195.1616,49.0
2196.0398,56.0
2196.9182,50.0
2197.7969,44.0
2198.676,51.0
2199.5554,43.0
2200.4353,52.0
2201.3154,40.0
2202.196,42.0
2203.077,51.0
2203.9583,48.0
2204.8398,41.0
2205.7217,48.0
2206.604,44.0
2207.4866,50.0
2208.3696,35.0
2209.253,37.0
2210.1367,36.0
2211.0208,48.0
2211.9053,55.0
2212.79,44.0
2213.675,43.0
2214.5605,50.0
2215.4463,59.0
2216.3325,48.0
2217.219,48.0
2218.106,45.0
2218.9932,49.0
2219.8809,49.0
2220.7688,40.0
2221.6572,62.0
2222.546,41.0
2223.4348,43.0
2224.3242,44.0
2225.2139,44.0
2226.104,41.0
2226.9944,52.0
2227.8853,32.0
2228.7764,52.0
2229.668,37.0
2230.5598,51.0
2231.4521,51.0
2232.3447,48.0
2233.2375,57.0
2234.1309,48.0
2235.0244,53.0
2235.9185,53.0
2236.8127,39.0
2237.7075,60.0
2238.6025,43.0
2239.498,42.0
2240.3938,46.0
2241.29,47.0
2242.1865,35.0
2243.0835,38.0
2243.9807,48.0
2244.8784,52.0
2245.7764,48.0
2246.6746,42.0
2247.5732,45.0
2248.4722,47.0
2249.3716,39.0
2250.2712,46.0
2251.1714,53.0
2252.0718,39.0
2252.9727,42.0
2253.8738,45.0
2254.7754,42.0
2255.6772,44.0
2256.5796,43.0
2257.4822,47.0
2258.3853,56.0
2259.2886,54.0
2260.1924,54.0
2261.0964,47.0
2262.001,52.0
2262.9058,43.0
2263.811,50.0
2264.7166,56.0
2265.6226,56.0
2266.5288,52.0
2267.4353,48.0
2268.3423,33.0
2269.2495,40.0
2270.1572,54.0
2271.0652,55.0
2271.9736,32.0
2272.8823,24.0
2273.7915,49.0
2274.701,52.0
2275.6108,75.0
2276.521,76.0
2277.4316,65.0
2278.3425,60.0
2279.254,62.0
2280.1655,53.0
2281.0776,50.0
2281.99,48.0
2282.9028,50.0
2283.816,46.0
2284.7295,45.0
2285.6433,36.0
2286.5576,56.0
2287.4722,44.0
2288.3872,48.0
2289.3025,48.0
2290.2183,42.0
2291.1343,38.0
2292.0508,59.0
2292.9675,56.0
2293.8848,68.0
2294.8022,43.0
2295.7202,48.0
2296.6384,53.0
2297.5571,48.0
2298.476,55.0
2299.3955,61.0
2300.3152,50.0
2301.2354,51.0
2302.1558,45.0
2303.0767,61.0
2303.9978,78.0
2304.9194,60.0
2305.8413,51.0
2306.7637,52.0
2307.6863,52.0
2308.6094,51.0
2309.5327,46.0
2310.4565,55.0
2311.3806,42.0
2312.3052,52.0
2313.23,47.0
2314.1553,42.0
2315.081,46.0
2316.007,46.0
2316.9336,56.0
2317.8604,61.0
2318.7876,59.0
2319.715,81.0
2320.643,52.0
2321.5713,56.0
2322.5,42.0
2323.429,42.0
2324.3584,48.0
2325.288,34.0
2326.2183,47.0
2327.1487,52.0
2328.0796,55.0
2329.0107,60.0
2329.9424,62.0
2330.8743,51.0
2331.8066,51.0
2332.7393,47.0
2333.6724,53.0
2334.6057,35.0
2335.5396,46.0
2336.4739,44.0
2337.4084,37.0
2338.3435,44.0
2339.2788,26.0
2340.2146,38.0
2341.1506,40.0
2342.0872,60.0
2343.024,45.0
2343.9612,42.0
2344.8987,51.0
2345.8367,88.0
2346.775,78.0
2347.7136,65.0
2348.6526,65.0
2349.592,54.0
2350.532,42.0
2351.4722,48.0
2352.4128,57.0
2353.3538,42.0
2354.2952,58.0
2355.2368,53.0
2356.179,47.0
2357.1213,48.0
2358.0642,46.0
2359.0073,43.0
2359.951,38.0
2360.895,40.0
2361.8394,49.0
2362.7842,43.0
2363.7292,57.0
2364.6748,48.0
2365.6206,52.0
2366.567,56.0
2367.5134,57.0
2368.4604,35.0
2369.4077,47.0
2370.3555,55.0
2371.3037,47.0
2372.2522,57.0
2373.2012,49.0
2374.1504,39.0
2375.1,45.0
2376.05,48.0
2377.0005,37.0
2377.9512,37.0
2378.9023,50.0
2379.854,47.0
2380.806,52.0
2381.7583,44.0
2382.711,44.0
2383.664,45.0
2384.6174,53.0
2385.5713,40.0
2386.5256,45.0
2387.4802,78.0
2388.4353,64.0
2389.3906,72.0
2390.3464,44.0
2391.3025,48.0
2392.259,32.0
2393.2158,49.0
2394.173,59.0
2395.1309,40.0
2396.0889,46.0
2397.0474,44.0
2398.006,43.0
2398.9653,28.0
2399.9248,48.0
2400.8848,47.0
2401.8452,40.0
2402.806,47.0
2403.767,52.0
2404.7285,50.0
2405.6904,54.0
2406.6526,49.0
2407.6152,40.0
2408.5784,43.0
2409.5417,53.0
2410.5056,38.0
2411.4697,43.0
2412.4343,39.0
2413.3994,47.0
2414.3647,53.0
2415.3306,48.0
2416.2966,41.0
2417.2632,37.0
2418.23,46.0
2419.1973,42.0
2420.165,38.0
2421.133,52.0
2422.1016,48.0
2423.0703,62.0
2424.0396,55.0
2425.0093,46.0
2425.9792,41.0
2426.9497,46.0
2427.9204,40.0
2428.8916,44.0
2429.863,39.0
2430.835,44.0
2431.8074,77.0
2432.78,61.0
2433.7532,50.0
2434.7266,31.0
2435.7004,49.0
2436.6748,57.0
2437.6494,43.0
2438.6245,42.0
2439.5999,60.0
2440.5757,41.0
2441.552,34.0
2442.5286,40.0
2443.5056,26.0
2444.483,39.0
2445.4607,43.0
2446.439,43.0
2447.4175,36.0
2448.3965,46.0
2449.3757,40.0
2450.3555,49.0
2451.3357,44.0
2452.3162,45.0
2453.297,44.0
2454.2783,39.0
2455.26,50.0
2456.2422,52.0
2457.2246,32.0
2458.2075,38.0
2459.191,40.0
2460.1746,46.0
2461.1587,45.0
2462.143,37.0
2463.128,54.0
2464.1133,49.0
2465.0989,48.0
2466.085,74.0
2467.0713,53.0
2468.058,39.0
2469.0454,41.0
2470.033,46.0
2471.021,48.0
2472.0095,36.0
2472.9983,39.0
2473.9875,42.0
2474.977,40.0
2475.967,47.0
2476.9575,42.0
2477.9482,52.0
2478.9395,48.0
2479.931,62.0
2480.9229,56.0
2481.9153,49.0
2482.908,40.0
2483.9011,31.0
2484.8948,55.0
2485.8887,36.0
2486.883,41.0
2487.878,39.0
2488.873,48.0
2489.8687,31.0
2490.8645,44.0
2491.8608,47.0
2492.8577,41.0
2493.8547,45.0
2494.8523,48.0
2495.8503,48.0
2496.8486,41.0
2497.8474,52.0
2498.8464,41.0
2499.846,43.0
2500.846,55.0
2501.8462,47.0
2502.847,48.0
2503.8481,41.0
2504.8496,50.0
2505.8516,42.0
2506.854,32.0
2507.8567,46.0
2508.8599,47.0
2509.8635,42.0
2510.8674,40.0
2511.8718,40.0
2512.8765,51.0
2513.8816,51.0
2514.8872,49.0
2515.893,50.0
2516.8994,46.0
2517.9062,46.0
2518.9133,44.0
2519.921,46.0
2520.929,55.0
2521.9373,53.0
2522.946,42.0
2523.9553,41.0
2524.9648,33.0
2525.9749,48.0
2526.9854,40.0
2527.996,29.0
2529.0073,50.0
2530.019,48.0
2531.031,49.0
2532.0435,55.0
2533.0562,38.0
2534.0693,46.0
2535.083,36.0
2536.097,35.0
2537.1113,40.0
2538.1262,41.0
2539.1414,39.0
2540.157,34.0
2541.173,45.0
2542.1895,37.0
2543.2063,42.0
2544.2236,35.0
2545.2412,48.0
2546.2593,39.0
2547.2778,40.0
2548.2966,53.0
2549.316,48.0
2550.3357,58.0
2551.3557,46.0
2552.3762,58.0
2553.3972,37.0
2554.4185,49.0
2555.4402,36.0
2556.4624,34.0
2557.485,44.0
2558.508,40.0
2559.5315,47.0
2560.5554,50.0
2561.5796,52.0
2562.6042,44.0
2563.6294,46.0
2564.6548,46.0
2565.6807,44.0
2566.707,40.0
2567.7336,43.0
2568.7607,38.0
2569.7883,43.0
2570.8162,47.0
2571.8445,47.0
2572.8733,38.0
2573.9023,46.0
2574.932,36.0
2575.962,43.0
2576.9922,41.0
2578.023,51.0
2579.0542,39.0
2580.086,59.0
2581.118,43.0
2582.1504,30.0
2583.1833,36.0
2584.2166,31.0
2585.2502,49.0
2586.2844,42.0
2587.3188,45.0
2588.3538,53.0
2589.3892,32.0
2590.4248,47.0
2591.461,49.0
2592.4976,52.0
2593.5347,61.0
2594.572,47.0
2595.6099,45.0
2596.6482,62.0
2597.6868,36.0
2598.7258,43.0
2599.7654,33.0
2600.8052,40.0
2601.8455,50.0
2602.8862,43.0
2603.9275,39.0
2604.969,43.0
2606.011,34.0
2607.0535,39.0
2608.0962,55.0
2609.1394,59.0
2610.183,56.0
2611.2273,63.0
2612.2717,34.0
2613.3167,51.0
2614.362,50.0
2615.4077,34.0
2616.4539,48.0
2617.5005,54.0
2618.5476,43.0
2619.595,47.0
2620.6428,33.0
2621.6912,42.0
2622.7397,47.0
2623.7888,57.0
2624.8384,31.0
2625.8884,44.0
2626.9387,44.0
2627.9895,50.0
2629.0408,44.0
2630.0923,40.0
2631.1443,66.0
2632.1968,41.0
2633.2498,42.0
2634.303,49.0
2635.3567,47.0
2636.411,42.0
2637.4653,46.0
2638.5203,42.0
2639.5757,45.0
2640.6316,47.0
2641.6877,45.0
2642.7444,33.0
2643.8015,44.0
2644.8591,48.0
2645.917,64.0
2646.9753,48.0
2648.0342,44.0
2649.0935,41.0
2650.153,39.0
2651.2131,61.0
2652.2737,55.0
2653.3345,48.0
2654.3958,45.0
2655.4575,40.0
2656.5198,36.0
2657.5823,48.0
2658.6453,45.0
2659.7087,52.0
2660.7727,42.0
2661.837,53.0
2662.9016,58.0
2663.9668,43.0
2665.0325,56.0
2666.0984,41.0
2667.1648,60.0
2668.2317,53.0
2669.299,48.0
2670.3667,52.0
2671.4348,50.0
2672.5034,44.0
2673.5725,38.0
2674.6418,51.0
2675.7117,35.0
2676.782,60.0
2677.8528,51.0
2678.9238,63.0
2679.9954,48.0
2681.0674,52.0
2682.14,47.0
2683.2126,61.0
2684.286,58.0
2685.3596,48.0
2686.4338,34.0
2687.5083,50.0
2688.5833,50.0
2689.6587,35.0
2690.7346,52.0
2691.8108,45.0
2692.8875,48.0
2693.9646,58.0
2695.0422,50.0
2696.1204,43.0
2697.1987,39.0
2698.2776,62.0
2699.357,63.0
2700.4368,51.0
2701.5168,48.0
2702.5974,49.0
2703.6785,45.0
2704.76,53.0
2705.8418,50.0
2706.924,57.0
2708.0068,70.0
2709.09,59.0
2710.1738,48.0
2711.2578,55.0
2712.3423,48.0
2713.4272,59.0
2714.5127,45.0
2715.5984,45.0
2716.6846,45.0
2717.7712,45.0
2718.8584,42.0
2719.946,55.0
2721.034,48.0
2722.1223,43.0
2723.2112,48.0
2724.3005,55.0
2725.3901,57.0
2726.4802,47.0
2727.5708,61.0
2728.6619,36.0
2729.7534,64.0
2730.8452,62.0
2731.9375,59.0
2733.0303,44.0
2734.1235,39.0
2735.2173,86.0
2736.3113,119.0
2737.4058,70.0
2738.5007,51.0
2739.5962,52.0
2740.6921,44.0
2741.7883,36.0
2742.885,38.0
2743.9822,56.0
2745.0798,52.0
2746.178,55.0
2747.2764,43.0
2748.3752,39.0
2749.4746,48.0
2750.5745,38.0
2751.6748,33.0
2752.7754,39.0
2753.8765,45.0
2754.978,49.0
2756.08,54.0
2757.1826,37.0
2758.2854,60.0
2759.3887,38.0
2760.4924,47.0
2761.5967,57.0
2762.7014,50.0
2763.8064,51.0
2764.9119,49.0
2766.0178,45.0
2767.1243,45.0
2768.2312,34.0
2769.3384,38.0
2770.446,51.0
2771.5542,45.0
2772.6628,44.0
2773.772,49.0
2774.8816,39.0
2775.9915,37.0
2777.1018,44.0
2778.2126,53.0
2779.324,52.0
2780.4358,49.0
2781.5479,55.0
2782.6604,52.0
2783.7734,52.0
2784.887,43.0
2786.001,40.0
2787.1155,45.0
2788.2302,47.0
2789.3455,51.0
2790.4612,32.0
2791.5774,51.0
2792.694,52.0
2793.8113,60.0
2794.9287,77.0
2796.0466,67.0
2797.165,77.0
2798.284,79.0
2799.4033,80.0
2800.5232,61.0
2801.6433,67.0
2802.764,56.0
2803.885,76.0
2805.0066,67.0
2806.1287,53.0
2807.2512,60.0
2808.374,53.0
2809.4973,76.0
2810.621,58.0
2811.7454,61.0
2812.87,86.0
2813.9954,56.0
2815.1208,72.0
2816.2468,68.0
2817.3733,80.0
2818.5002,66.0
2819.6277,60.0
2820.7556,54.0
2821.884,68.0
2823.0127,72.0
2824.1418,47.0
2825.2715,67.0
2826.4016,78.0
2827.5322,70.0
2828.6633,62.0
2829.7947,56.0
2830.9265,67.0
2832.0588,74.0
2833.1917,69.0
2834.325,77.0
2835.4587,53.0
2836.593,69.0
2837.7275,81.0
2838.8625,58.0
2839.998,75.0
2841.134,74.0
2842.2705,72.0
2843.4075,46.0
2844.545,58.0
2845.6829,68.0
2846.821,65.0
2847.9597,61.0
2849.0989,88.0
2850.2385,68.0
2851.3787,56.0
2852.5193,78.0
2853.6604,75.0
2854.8018,62.0
2855.9436,80.0
2857.086,71.0
2858.2288,79.0
2859.372,72.0
2860.5159,74.0
2861.6602,76.0
2862.805,59.0
2863.95,57.0
2865.0955,71.0
2866.2415,86.0
2867.388,63.0
2868.535,86.0
2869.6824,67.0
2870.8303,62.0
2871.9788,64.0
2873.1274,74.0
2874.2766,67.0
2875.4263,67.0
2876.5764,69.0
2877.727,77.0
2878.8782,57.0
2880.0298,63.0
2881.182,84.0
2882.3345,83.0
2883.4873,80.0
2884.6406,63.0
2885.7944,64.0
2886.9487,68.0
2888.1035,51.0
2889.2588,79.0
2890.4146,78.0
2891.5708,88.0
2892.7275,84.0
2893.8845,65.0
2895.042,82.0
2896.2,75.0
2897.3584,61.0
2898.5173,67.0
2899.6768,73.0
2900.8367,46.0
2901.997,54.0
2903.158,72.0
2904.3193,70.0
2905.481,80.0
2906.643,100.0
2907.8057,80.0
2908.9688,91.0
2910.1323,113.0
2911.2964,108.0
2912.461,86.0
2913.626,85.0
2914.7915,59.0
2915.9575,72.0
2917.124,73.0
2918.2908,52.0
2919.458,64.0
2920.6257,71.0
2921.794,128.0
2922.9626,122.0
2924.1318,113.0
2925.3015,128.0
2926.4717,95.0
2927.6423,100.0
2928.8135,75.0
2929.985,72.0
2931.157,57.0
2932.3293,82.0
2933.5022,66.0
2934.6755,74.0
2935.8494,60.0
2937.0237,48.0
2938.1985,68.0
2939.3738,98.0
2940.5496,83.0
2941.7258,92.0
2942.9026,90.0
2944.0798,94.0
2945.2576,96.0
2946.4358,95.0
2947.6143,72.0
2948.7932,81.0
2949.9727,66.0
2951.1526,79.0
2952.333,78.0
2953.514,78.0
2954.6953,66.0
2955.8772,77.0
2957.0596,61.0
2958.2424,73.0
2959.4258,77.0
2960.6096,64.0
2961.794,54.0
2962.9788,78.0
2964.164,68.0
2965.3496,76.0
2966.5356,70.0
2967.7222,58.0
2968.9092,67.0
2970.0967,68.0
2971.2847,71.0
2972.4731,62.0
2973.662,94.0
2974.8516,85.0
2976.0415,75.0
2977.232,86.0
2978.4229,71.0
2979.6143,71.0
2980.8062,63.0
2981.9985,62.0
2983.1914,64.0
2984.3848,69.0
2985.5786,80.0
2986.773,71.0
2987.9678,71.0
2989.1628,56.0
2990.3584,73.0
2991.5544,81.0
2992.751,75.0
2993.948,73.0
2995.1455,78.0
2996.3435,76.0
2997.542,84.0
2998.741,76.0
2999.9404,91.0
3001.1404,69.0
3002.3408,75.0
3003.5417,75.0
3004.7432,78.0
3005.945,59.0
3007.1475,66.0
3008.3503,87.0
3009.5537,91.0
3010.7576,102.0
3011.962,66.0
3013.1667,74.0
3014.372,111.0
3015.578,91.0
3016.7842,69.0
3017.991,79.0
3019.1982,85.0
3020.406,131.0
3021.6143,123.0
3022.823,93.0
3024.0322,73.0
3025.242,72.0
3026.4521,61.0
3027.6628,81.0
3028.874,69.0
3030.0857,76.0
3031.2976,88.0
3032.51,73.0
3033.723,65.0
3034.9363,67.0
3036.1501,79.0
3037.3645,73.0
3038.5793,71.0
3039.7947,74.0
3041.0105,75.0
3042.2268,77.0
3043.4436,62.0
3044.661,59.0
3045.8787,65.0
3047.097,74.0
3048.3157,75.0
3049.535,63.0
3050.7546,65.0
3051.9749,72.0
3053.1956,80.0
3054.4167,95.0
3055.6384,69.0
3056.8606,70.0
3058.0833,65.0
3059.3064,72.0
3060.53,63.0
3061.7542,66.0
3062.9788,87.0
3064.2039,62.0
3065.4294,67.0
3066.6555,67.0
3067.882,71.0
3069.1091,54.0
3070.3367,65.0
3071.5647,91.0
3072.7932,69.0
3074.0222,84.0
3075.2517,80.0
3076.4817,64.0
3077.7124,66.0
3078.9436,82.0
3080.1753,71.0
3081.4075,81.0
3082.6401,89.0
3083.8733,65.0
3085.107,71.0
3086.341,60.0
3087.5757,81.0
3088.8108,85.0
3090.0464,58.0
3091.2825,61.0
3092.519,71.0
3093.756,75.0
3094.9937,77.0
3096.2317,78.0
3097.4702,87.0
3098.7092,69.0
3099.9487,78.0
3101.1887,82.0
3102.4292,72.0
3103.6702,76.0
3104.9116,68.0
3106.1536,60.0
3107.396,63.0
3108.639,75.0
3109.8823,72.0
3111.1262,88.0
3112.3706,79.0
3113.6155,71.0
3114.8608,64.0
3116.1067,75.0
3117.353,77.0
3118.5999,83.0
3119.8474,72.0
3121.0955,65.0
3122.344,75.0
3123.593,80.0
3124.8425,76.0
3126.0925,63.0
3127.343,80.0
3128.594,70.0
3129.8455,61.0
3131.0974,62.0
3132.3499,76.0
3133.6028,68.0
3134.8562,69.0
3136.11,76.0
3137.3645,83.0
3138.6194,63.0
3139.8748,63.0
3141.1306,76.0
3142.387,75.0
3143.6438,73.0
3144.9014,65.0
3146.1594,66.0
3147.418,79.0
3148.677,75.0
3149.9365,75.0
3151.1965,74.0
3152.457,74.0
3153.718,71.0
3154.9795,86.0
3156.2415,65.0
3157.504,70.0
3158.7668,78.0
3160.0303,68.0
3161.2942,74.0
3162.5586,78.0
3163.8237,66.0
3165.0894,69.0
3166.3555,65.0
3167.622,81.0
3168.8892,71.0
3170.1567,73.0
3171.4248,81.0
3172.6934,80.0
3173.9624,66.0
3175.232,61.0
3176.502,80.0
3177.7725,63.0
3179.0435,53.0
3180.3152,92.0
3181.5874,65.0
3182.86,58.0
3184.1333,75.0
3185.407,81.0
3186.6812,94.0
3187.9558,68.0
3189.231,71.0
3190.5066,83.0
3191.7827,60.0
3193.0593,81.0
3194.3367,82.0
3195.6145,79.0
3196.8928,65.0
3198.1716,73.0
3199.451,74.0
3200.7307,87.0
3202.011,68.0
3203.2917,69.0
3204.573,79.0
3205.8547,52.0
3207.137,66.0
3208.42,66.0
3209.7034,76.0
3210.9873,77.0
3212.2717,79.0
3213.5566,85.0
3214.842,89.0
3216.128,77.0
3217.4143,78.0
3218.7012,77.0
3219.9888,80.0
3221.2769,60.0
3222.5654,71.0
3223.8545,78.0
3225.144,81.0
3226.434,80.0
3227.7246,98.0
3229.0156,67.0
3230.3071,67.0
3231.5994,78.0
3232.892,67.0
3234.1853,74.0
3235.479,68.0
3236.7732,69.0
3238.0679,77.0
3239.363,67.0
3240.6587,62.0
3241.9548,64.0
3243.2517,59.0
3244.549,79.0
3245.847,85.0
3247.1453,77.0
3248.444,62.0
3249.7434,74.0
3251.0432,65.0
3252.3438,82.0
3253.6448,90.0
3254.9463,72.0
3256.2483,72.0
3257.5508,72.0
3258.8538,93.0
3260.1572,75.0
3261.4612,81.0
3262.7659,74.0
3264.071,69.0
3265.3767,63.0
3266.6829,83.0
3267.9895,69.0
3269.2966,72.0
3270.6042,84.0
3271.9126,64.0
3273.2214,79.0
3274.5308,89.0
3275.8406,68.0
3277.151,82.0
3278.4617,92.0
3279.773,66.0
3281.085,71.0
3282.3975,85.0
3283.7104,72.0
3285.024,65.0
3286.338,69.0
3287.6523,79.0
3288.9673,77.0
3290.283,91.0
3291.599,83.0
3292.9158,102.0
3294.233,63.0
3295.5505,69.0
3296.8687,70.0
3298.1875,68.0
3299.5068,84.0
3300.8267,72.0
3302.147,86.0
3303.4678,82.0
3304.789,79.0
3306.111,79.0
3307.4336,88.0
3308.7566,77.0
3310.08,72.0
3311.404,91.0
3312.7285,73.0
3314.0537,81.0
3315.3794,68.0
3316.7056,68.0
3318.0322,73.0
3319.3594,94.0
3320.687,106.0
3322.0154,71.0
3323.3442,72.0
3324.6736,76.0
3326.0034,88.0
3327.3337,86.0
3328.6648,79.0
3329.9963,78.0
3331.3284,68.0
3332.661,86.0
3333.994,78.0
3335.3274,89.0
3336.6616,85.0
3337.9963,69.0
3339.3315,87.0
3340.6672,107.0
3342.0034,77.0
3343.3403,80.0
3344.6777,63.0
3346.0156,67.0
3347.354,68.0
3348.6929,73.0
3350.0322,91.0
3351.3723,109.0
3352.713,104.0
3354.054,81.0
3355.3955,80.0
3356.7375,79.0
3358.0803,71.0
3359.4236,91.0
3360.7673,85.0
3362.1116,79.0
3363.4563,87.0
3364.8018,74.0
3366.1477,71.0
3367.4941,91.0
3368.841,72.0
3370.1887,79.0
3371.5369,79.0
3372.8855,74.0
3374.2346,76.0
3375.5842,80.0
3376.9346,86.0
3378.2854,67.0
3379.6367,83.0
3380.9885,77.0
3382.3408,96.0
3383.6938,85.0
3385.0474,84.0
3386.4014,84.0
3387.7559,76.0
3389.1108,67.0
3390.4666,77.0
3391.8228,72.0
3393.1794,75.0
3394.5366,103.0
3395.8945,93.0
3397.253,90.0
3398.6118,68.0
3399.9712,78.0
3401.3313,86.0
3402.692,105.0
3404.053,76.0
3405.4146,90.0
3406.7766,86.0
3408.1394,76.0
3409.5027,87.0
3410.8665,76.0
3412.2307,95.0
3413.5957,113.0
3414.9612,90.0
3416.3271,68.0
3417.6936,86.0
3419.0608,87.0
3420.4285,100.0
3421.7966,100.0
3423.1653,89.0
3424.5347,100.0
3425.9045,95.0
3427.275,74.0
3428.6458,82.0
3430.017,76.0
3431.3892,84.0
3432.7617,82.0
3434.1348,70.0
3435.5083,79.0
3436.8826,78.0
3438.2573,78.0
3439.6326,80.0
3441.0083,65.0
3442.3848,79.0
3443.7617,70.0
3445.1392,54.0
3446.5173,80.0
3447.896,72.0
3449.2751,78.0
3450.6548,88.0
3452.0352,81.0
3453.416,80.0
3454.7974,90.0
3456.1792,101.0
3457.5618,96.0
3458.9448,86.0
3460.3284,90.0
3461.7124,71.0
3463.0972,68.0
3464.4824,81.0
3465.8682,87.0
3467.2544,87.0
3468.6414,73.0
3470.0288,69.0
3471.4167,83.0
3472.8054,80.0
3474.1946,84.0
3475.5842,85.0
3476.9744,82.0
3478.3652,88.0
3479.7566,69.0
3481.1484,70.0
3482.541,92.0
3483.934,78.0
3485.3276,97.0
3486.7217,86.0
3488.1165,86.0
3489.5117,93.0
3490.9075,91.0
3492.304,95.0
3493.701,99.0
3495.0984,76.0
3496.4963,99.0
3497.895,77.0
3499.2942,101.0
3500.6938,110.0
3502.0942,72.0
3503.495,96.0
3504.8965,83.0
3506.2983,88.0
3507.701,101.0
3509.104,101.0
3510.5076,102.0
3511.9119,78.0
3513.3167,100.0
3514.722,93.0
3516.128,90.0
3517.5344,84.0
3518.9414,85.0
3520.3489,101.0
3521.757,124.0
3523.1658,95.0
3524.575,92.0
3525.9849,71.0
3527.3953,80.0
3528.8062,100.0
3530.2178,124.0
3531.63,133.0
3533.0425,101.0
3534.4558,84.0
3535.8696,79.0
3537.284,77.0
3538.6987,63.0
3540.1143,78.0
3541.5303,88.0
3542.9468,88.0
3544.364,75.0
3545.7817,89.0
3547.2,79.0
3548.619,85.0
3550.0383,84.0
3551.4583,74.0
3552.879,80.0
3554.3,75.0
3555.7217,96.0
3557.144,98.0
3558.567,94.0
3559.9902,90.0
3561.4143,90.0
3562.8389,103.0
3564.264,103.0
3565.6897,97.0
3567.116,76.0
3568.5427,100.0
3569.9702,96.0
3571.3982,90.0
3572.8267,112.0
3574.2559,90.0
3575.6855,83.0
3577.1157,79.0
3578.5466,100.0
3579.978,96.0
3581.41,114.0
3582.8425,100.0
3584.2756,101.0
3585.7092,110.0
3587.1436,102.0
3588.5784,101.0
3590.014,94.0
3591.45,97.0
3592.8865,84.0
3594.3237,105.0
3595.7615,92.0
3597.1997,101.0
3598.6387,135.0
3600.0781,112.0
3601.518,109.0
3602.9587,105.0
3604.4,99.0
3605.8416,88.0
3607.284,134.0
3608.7268,137.0
3610.1704,89.0
3611.6145,91.0
3613.059,100.0
3614.5044,111.0
3615.9502,156.0
3617.3965,173.0
3618.8435,152.0
3620.291,87.0
3621.739,94.0
3623.1877,81.0
3624.637,109.0
3626.087,82.0
3627.5374,90.0
3628.9883,117.0
3630.44,97.0
3631.892,126.0
3633.3447,91.0
3634.798,110.0
3636.252,100.0
3637.7065,99.0
3639.1616,95.0
3640.6172,115.0
3642.0735,85.0
3643.5303,115.0
3644.9878,110.0
3646.4458,108.0
3647.9043,97.0
3649.3635,95.0
3650.8232,95.0
3652.2837,94.0
3653.7446,113.0
3655.206,85.0
3656.6682,115.0
3658.1309,93.0
3659.594,113.0
3661.0579,91.0
3662.5222,99.0
3663.9873,129.0
3665.453,107.0
3666.919,98.0
3668.3857,95.0
3669.853,110.0
3671.321,81.0
3672.7896,104.0
3674.2585,67.0
3675.7283,117.0
3677.1985,126.0
3678.6694,147.0
3680.1409,117.0
3681.613,110.0
3683.0857,81.0
3684.5588,111.0
3686.0327,96.0
3687.507,90.0
3688.9822,110.0
3690.4578,111.0
3691.9338,127.0
3693.4106,114.0
3694.888,136.0
3696.366,125.0
3697.8445,122.0
3699.3237,111.0
3700.8035,103.0
3702.2837,93.0
3703.7646,111.0
3705.246,92.0
3706.7283,91.0
3708.211,107.0
3709.6943,148.0
3711.1782,124.0
3712.6626,150.0
3714.1477,148.0
3715.6333,102.0
3717.1196,135.0
3718.6064,107.0
3720.094,123.0
3721.582,104.0
3723.0706,123.0
3724.5598,118.0
3726.0496,129.0
3727.54,122.0
3729.031,115.0
3730.5227,123.0
3732.015,109.0
3733.5078,159.0
3735.0012,225.0
3736.495,164.0
3737.9897,140.0
3739.4849,104.0
3740.9807,123.0
3742.477,126.0
3743.974,151.0
3745.4717,116.0
3746.97,121.0
3748.4688,109.0
3749.968,242.0
3751.468,470.0
3752.9685,521.0
3754.4697,298.0
3755.9714,188.0
3757.4739,156.0
3758.9768,115.0
3760.4805,121.0
3761.9846,107.0
3763.4895,124.0
3764.9949,111.0
3766.501,144.0
3768.0076,127.0
3769.515,115.0
3771.0227,113.0
3772.531,146.0
3774.04,149.0
3775.5496,131.0
3777.0598,131.0
3778.5706,129.0
3780.082,117.0
3781.594,120.0
3783.1067,132.0
3784.6199,139.0
3786.1338,115.0
3787.6482,129.0
3789.1633,103.0
3790.679,109.0
3792.1953,125.0
3793.7122,121.0
3795.2297,98.0
3796.7478,113.0
3798.2666,131.0
3799.786,142.0
3801.306,130.0
3802.8264,114.0
3804.3477,110.0
3805.8694,131.0
3807.3918,125.0
3808.9148,175.0
3810.4385,133.0
3811.9626,136.0
3813.4875,133.0
3815.013,167.0
3816.539,152.0
3818.0657,149.0
3819.593,141.0
3821.1208,118.0
3822.6494,111.0
3824.1785,118.0
3825.7083,97.0
3827.2385,87.0
3828.7695,109.0
3830.301,105.0
3831.8333,138.0
3833.366,124.0
3834.8994,124.0
3836.4333,124.0
3837.968,118.0
3839.5032,136.0
3841.039,146.0
3842.5754,135.0
3844.1125,126.0
3845.6501,139.0
3847.1885,144.0
3848.7273,168.0
3850.2668,164.0
3851.807,152.0
3853.3477,133.0
3854.889,139.0
3856.431,112.0
3857.9734,109.0
3859.5166,114.0
3861.0603,114.0
3862.6047,129.0
3864.1497,124.0
3865.6953,145.0
3867.2417,149.0
3868.7886,166.0
3870.3362,128.0
3871.8843,146.0
3873.433,121.0
3874.9824,143.0
3876.5325,141.0
3878.083,122.0
3879.6343,117.0
3881.186,140.0
3882.7385,143.0
3884.2915,133.0
3885.8452,152.0
3887.3997,118.0
3888.9546,114.0
3890.5103,127.0
3892.0664,135.0
3893.6233,135.0
3895.1807,133.0
3896.7388,139.0
3898.2974,125.0
3899.8567,170.0
3901.4167,156.0
3902.9773,137.0
3904.5386,139.0
3906.1003,120.0
3907.6628,107.0
3909.2258,103.0
3910.7896,109.0
3912.3538,106.0
3913.9187,150.0
3915.4844,133.0
3917.0505,138.0
3918.6174,119.0
3920.1848,143.0
3921.753,113.0
3923.3215,120.0
3924.8909,114.0
3926.461,128.0
3928.0315,114.0
3929.6028,104.0
3931.1746,119.0
3932.747,131.0
3934.32,106.0
3935.8938,105.0
3937.4683,119.0
3939.0432,110.0
3940.619,107.0
3942.195,141.0
3943.772,125.0
3945.3494,103.0
3946.9275,117.0
3948.5063,118.0
3950.0857,114.0
3951.6658,148.0
3953.2463,118.0
3954.8276,125.0
3956.4097,127.0
3957.9922,123.0
3959.5754,136.0
3961.1592,117.0
3962.7437,116.0
3964.3289,111.0
3965.9146,115.0
3967.501,118.0
3969.088,97.0
3970.6755,117.0
3972.264,119.0
3973.8528,117.0
3975.4424,125.0
3977.0325,98.0
3978.6233,140.0
3980.2148,126.0
3981.807,121.0
3983.3997,118.0
3984.993,126.0
3986.587,131.0
3988.1816,115.0
3989.7769,110.0
3991.3728,146.0
3992.9692,125.0
3994.5664,150.0
3996.1643,111.0
3997.7627,123.0
3999.3618,128.0
4000.9617,114.0
4002.562,144.0
4004.163,138.0
4005.7646,151.0
4007.367,131.0
4008.97,147.0
4010.5735,136.0
4012.1777,150.0
4013.7827,137.0
4015.3882,162.0
4016.9944,148.0
4018.601,178.0
4020.2085,179.0
4021.8167,177.0
4023.4253,146.0
4025.0347,151.0
4026.6448,168.0
4028.2554,207.0
4029.8667,199.0
4031.4788,175.0
4033.0913,180.0
4034.7046,163.0
4036.3184,209.0
4037.9329,306.0
4039.548,240.0
4041.1638,244.0
4042.7803,270.0
4044.3975,238.0
4046.0151,185.0
4047.6335,168.0
4049.2527,191.0
4050.8723,386.0
4052.4927,334.0
4054.1138,280.0
4055.7354,232.0
4057.3577,214.0
4058.9807,562.0
4060.6042,723.0
4062.2285,420.0
4063.8535,297.0
4065.479,234.0
4067.1052,254.0
4068.7322,247.0
4070.3596,269.0
4071.9878,324.0
4073.6167,331.0
4075.246,289.0
4076.8762,278.0
4078.507,259.0
4080.1384,323.0
4081.7705,404.0
4083.4033,328.0
4085.0366,446.0
4086.6707,444.0
4088.3054,344.0
4089.9407,253.0
4091.5767,255.0
4093.2134,667.0
4094.8506,906.0
4096.489,555.0
4098.1274,274.0
4099.7666,213.0
4101.4067,781.0
4103.0474,2195.0
4104.6885,1622.0
4106.3306,598.0
4107.973,303.0
4109.616,212.0
4111.2603,223.0
4112.905,255.0
4114.55,301.0
4116.196,230.0
4117.8423,185.0
4119.4893,150.0
4121.137,164.0
4122.7856,184.0
4124.4346,150.0
4126.0845,171.0
4127.735,167.0
4129.3857,158.0
4131.0376,163.0
4132.69,192.0
4134.343,150.0
4135.9966,151.0
4137.651,148.0
4139.306,123.0
4140.962,124.0
4142.618,155.0
4144.2754,161.0
4145.933,155.0
4147.5913,144.0
4149.2505,128.0
4150.91,143.0
4152.5703,174.0
4154.2314,171.0
4155.893,162.0
4157.5557,174.0
4159.2188,143.0
4160.8823,128.0
4162.547,133.0
4164.212,167.0
4165.8774,146.0
4167.544,174.0
4169.211,134.0
4170.8784,142.0
4172.547,146.0
4174.216,155.0
4175.8857,202.0
4177.556,164.0
4179.227,181.0
4180.899,157.0
4182.5713,140.0
4184.244,148.0
4185.918,165.0
4187.5923,195.0
4189.267,185.0
4190.943,170.0
4192.619,153.0
4194.2964,135.0
4195.974,163.0
4197.6523,185.0
4199.3315,156.0
4201.011,141.0
4202.6914,150.0
4204.3726,156.0
4206.054,127.0
4207.737,167.0
4209.42,135.0
4211.1035,136.0
4212.788,168.0
4214.473,132.0
4216.1587,130.0
4217.845,144.0
4219.532,155.0
4221.22,136.0
4222.9087,159.0
4224.5977,167.0
4226.2876,139.0
4227.978,133.0
4229.6694,162.0
4231.3613,137.0
4233.0537,142.0
4234.747,152.0
4236.441,142.0
4238.1353,146.0
4239.8306,142.0
4241.5264,169.0
4243.223,160.0
4244.9204,148.0
4246.618,147.0
4248.317,166.0
4250.016,163.0
4251.7163,148.0
4253.417,161.0
4255.118,152.0
4256.8203,178.0
4258.523,189.0
4260.2266,159.0
4261.9307,168.0
4263.6353,200.0
4265.341,182.0
4267.047,204.0
4268.754,226.0
4270.4614,216.0
4272.1694,169.0
4273.8784,167.0
4275.588,236.0
4277.2983,314.0
4279.0093,227.0
4280.7207,194.0
4282.433,163.0
4284.146,299.0
4285.86,545.0
4287.574,366.0
4289.289,219.0
4291.005,176.0
4292.721,147.0
4294.4385,152.0
4296.1562,157.0
4297.8745,185.0
4299.5938,219.0
4301.3135,182.0
4303.034,145.0
4304.7554,148.0
4306.477,146.0
4308.1997,163.0
4309.923,134.0
4311.647,139.0
4313.3716,133.0
4315.097,140.0
4316.823,133.0
4318.55,129.0
4320.2773,135.0
4322.0054,128.0
4323.7344,112.0
4325.464,144.0
4327.194,127.0
4328.925,133.0
4330.6562,149.0
4332.3887,150.0
4334.1216,160.0
4335.8555,147.0
4337.59,161.0
4339.3247,150.0
4341.0605,156.0
4342.797,119.0
4344.534,130.0
4346.272,126.0
4348.0103,137.0
4349.7495,142.0
4351.4893,126.0
4353.23,120.0
4354.971,159.0
4356.7134,165.0
4358.456,152.0
4360.199,159.0
4361.9434,135.0
4363.688,134.0
4365.4336,123.0
4367.1797,145.0
4368.927,134.0
4370.6743,173.0
4372.4224,156.0
4374.1714,156.0
4375.921,137.0
4377.6714,136.0
4379.4224,162.0
4381.1743,147.0
4382.927,161.0
4384.6797,139.0
4386.4336,152.0
4388.188,169.0
4389.9434,128.0
4391.699,194.0
4393.456,151.0
4395.2134,125.0
4396.9717,188.0
4398.7305,170.0
4400.4897,173.0
4402.25,184.0
4404.0107,194.0
4405.7725,172.0
4407.5347,196.0
4409.298,205.0
4411.0615,197.0
4412.826,157.0
4414.5913,154.0
4416.357,260.0
4418.1235,264.0
4419.8906,245.0
4421.6587,233.0
4423.4272,195.0
4425.197,175.0
4426.967,208.0
4428.738,236.0
4430.5093,253.0
4432.2812,217.0
4434.054,195.0
4435.8276,198.0
4437.602,250.0
4439.377,315.0
4441.153,260.0
4442.929,228.0
4444.7065,206.0
4446.4844,227.0
4448.263,228.0
4450.0425,206.0
4451.8223,248.0
4453.603,218.0
4455.3843,200.0
4457.1665,248.0
4458.949,228.0
4460.733,228.0
4462.517,237.0
4464.3022,236.0
4466.088,247.0
4467.8745,311.0
4469.6616,292.0
4471.4497,265.0
4473.2383,268.0
4475.0273,249.0
4476.8174,218.0
4478.608,269.0
4480.3994,249.0
4482.1914,289.0
4483.9844,277.0
4485.778,216.0
4487.5723,260.0
4489.367,319.0
4491.163,278.0
4492.9595,244.0
4494.757,241.0
4496.5547,287.0
4498.3535,289.0
4500.153,286.0
4501.953,227.0
4503.754,269.0
4505.555,299.0
4507.3574,272.0
4509.16,237.0
4510.964,248.0
4512.768,291.0
4514.573,327.0
4516.379,264.0
4518.1855,209.0
4519.9927,236.0
4521.801,372.0
4523.6094,352.0
4525.419,236.0
4527.229,200.0
4529.04,288.0
4530.8516,487.0
4532.664,391.0
4534.477,252.0
4536.291,205.0
4538.1055,213.0
4539.921,220.0
4541.737,200.0
4543.5537,217.0
4545.371,189.0
4547.1895,173.0
4549.0083,182.0
4550.828,186.0
4552.6484,189.0
4554.4697,176.0
4556.2915,185.0
4558.1143,127.0
4559.9375,176.0
4561.7617,171.0
4563.5864,168.0
4565.4116,157.0
4567.238,168.0
4569.0645,152.0
4570.892,173.0
4572.72,146.0
4574.5493,158.0
4576.379,142.0
4578.2095,158.0
4580.0405,168.0
4581.8726,172.0
4583.705,162.0
4585.5386,175.0
4587.3726,162.0
4589.2075,165.0
4591.043,184.0
4592.8794,199.0
4594.7163,185.0
4596.554,184.0
4598.3926,161.0
4600.232,196.0
4602.0723,188.0
4603.913,197.0
4605.755,155.0
4607.597,141.0
4609.4404,148.0
4611.284,200.0
4613.129,167.0
4614.974,160.0
4616.8203,180.0
4618.667,153.0
4620.5146,162.0
4622.363,175.0
4624.212,177.0
4626.0615,169.0
4627.912,177.0
4629.763,166.0
4631.615,167.0
4633.468,166.0
4635.3213,173.0
4637.1753,162.0
4639.0303,158.0
4640.8857,152.0
4642.742,171.0
4644.599,165.0
4646.457,160.0
4648.3154,152.0
4650.175,155.0
4652.0347,166.0
4653.8955,190.0
4655.757,132.0
4657.619,178.0
4659.4824,164.0
4661.346,160.0
4663.211,181.0
4665.076,184.0
4666.9424,171.0
4668.809,171.0
4670.677,167.0
4672.545,166.0
4674.414,153.0
4676.2837,174.0
4678.1543,175.0
4680.0254,171.0
4681.8975,167.0
4683.77,178.0
4685.6436,162.0
4687.5176,173.0
4689.3926,164.0
4691.2686,150.0
4693.145,170.0
4695.0225,183.0
4696.9004,199.0
4698.7793,170.0
4700.6587,166.0
4702.539,156.0
4704.42,141.0
4706.302,190.0
4708.184,190.0
4710.0674,190.0
4711.951,199.0
4713.836,169.0
4715.7217,180.0
4717.608,176.0
4719.495,174.0
4721.383,155.0
4723.2715,151.0
4725.1606,133.0
4727.051,156.0
4728.9414,188.0
4730.833,204.0
4732.725,190.0
4734.618,159.0
4736.512,125.0
4738.4067,125.0
4740.3022,148.0
4742.198,163.0
4744.095,149.0
4745.9927,163.0
4747.891,173.0
4749.79,168.0
4751.69,142.0
4753.591,174.0
4755.492,158.0
4757.3945,143.0
4759.2974,145.0
4761.201,149.0
4763.1055,178.0
4765.0107,135.0
4766.9165,156.0
4768.823,151.0
4770.731,120.0
4772.639,137.0
4774.5483,130.0
4776.458,130.0
4778.3687,151.0
4780.28,151.0
4782.192,140.0
4784.105,130.0
4786.0186,114.0
4787.933,107.0
4789.848,121.0
4791.764,124.0
4793.6807,127.0
4795.598,126.0
4797.5166,125.0
4799.4355,109.0
4801.3555,123.0
4803.276,111.0
4805.1973,128.0
4807.119,124.0
4809.042,119.0
4810.966,143.0
4812.89,133.0
4814.8154,109.0
4816.741,127.0
4818.668,113.0
4820.595,121.0
4822.5234,126.0
4824.4526,122.0
4826.3823,121.0
4828.313,142.0
4830.244,125.0
4832.1763,118.0
4834.1094,130.0
4836.043,126.0
4837.9775,104.0
4839.9126,152.0
4841.8486,120.0
4843.785,109.0
4845.7227,117.0
4847.661,125.0
4849.6,110.0
4851.54,109.0
4853.4805,124.0
4855.422,112.0
4857.3643,128.0
4859.307,112.0
4861.251,131.0
4863.1953,101.0
4865.1406,132.0
4867.087,122.0
4869.0337,107.0
4870.9814,111.0
4872.9297,141.0
4874.879,109.0
4876.829,129.0
4878.78,106.0
4880.7314,104.0
4882.6836,127.0
4884.6367,115.0
4886.5903,113.0
4888.545,95.0
4890.5005,105.0
4892.4565,118.0
4894.4136,124.0
4896.3716,109.0
4898.33,93.0
4900.2896,127.0
4902.2495,119.0
4904.2104,107.0
4906.1724,109.0
4908.135,106.0
4910.098,97.0
4912.062,100.0
4914.027,109.0
4915.9927,131.0
4917.959,98.0
4919.9263,117.0
4921.894,115.0
4923.863,106.0
4925.8325,117.0
4927.8027,122.0
4929.774,122.0
4931.7456,110.0
4933.7183,120.0
4935.692,121.0
4937.666,125.0
4939.641,99.0
4941.617,107.0
4943.5938,130.0
4945.5713,122.0
4947.5493,131.0
4949.5283,117.0
4951.5083,122.0
4953.489,111.0
4955.47,114.0
4957.4526,126.0
4959.4355,108.0
4961.4194,109.0
4963.404,134.0
4965.389,103.0
4967.3755,106.0
4969.3623,104.0
4971.35,122.0
4973.339,138.0
4975.328,119.0
4977.3184,120.0
4979.309,129.0
4981.301,129.0
4983.2935,130.0
4985.2866,140.0
4987.281,153.0
4989.276,116.0
4991.2715,147.0
4993.268,110.0
4995.265,149.0
4997.263,112.0
4999.262,134.0
5001.2617,118.0
5003.262,155.0
5005.2637,143.0
5007.2656,120.0
5009.2686,131.0
5011.2725,121.0
5013.277,128.0
5015.282,137.0
5017.2886,153.0
5019.2954,97.0
5021.303,130.0
5023.3115,138.0
5025.321,124.0
5027.331,124.0
5029.342,129.0
5031.3535,116.0
5033.366,111.0
5035.3794,135.0
5037.3936,119.0
5039.4087,124.0
5041.4243,130.0
5043.441,123.0
5045.4585,106.0
5047.4766,119.0
5049.4956,122.0
5051.5156,126.0
5053.536,118.0
5055.5576,112.0
5057.58,161.0
5059.603,130.0
5061.627,131.0
5063.6514,97.0
5065.677,128.0
5067.703,131.0
5069.73,123.0
5071.758,133.0
5073.7866,148.0
5075.816,132.0
5077.846,101.0
5079.8774,118.0
5081.909,132.0
5083.942,130.0
5085.9756,119.0
5088.01,113.0
5090.045,125.0
5092.081,105.0
5094.1177,130.0
5096.1553,108.0
5098.194,116.0
5100.233,117.0
5102.273,123.0
5104.314,125.0
5106.3555,110.0
5108.398,120.0
5110.4414,127.0
5112.4854,136.0
5114.5303,121.0
5116.576,121.0
5118.6226,108.0
5120.67,122.0
5122.7183,114.0
5124.7676,126.0
5126.8174,127.0
5128.868,143.0
5130.92,149.0
5132.972,136.0
5135.0254,118.0
5137.0796,145.0
5139.1343,122.0
5141.19,131.0
5143.2466,128.0
5145.3037,129.0
5147.362,169.0
5149.421,142.0
5151.4805,103.0
5153.541,116.0
5155.6025,133.0
5157.6646,131.0
5159.7275,141.0
5161.7915,116.0
5163.8564,137.0
5165.922,125.0
5167.9883,147.0
5170.0557,128.0
5172.1235,134.0
5174.1924,140.0
5176.262,129.0
5178.3325,140.0
5180.404,132.0
5182.476,120.0
5184.549,129.0
5186.6226,135.0
5188.6973,129.0
5190.773,135.0
5192.849,133.0
5194.9263,132.0
5197.0044,146.0
5199.083,112.0
5201.1626,144.0
5203.243,141.0
5205.324,140.0
5207.4062,144.0
5209.4893,135.0
5211.573,148.0
5213.6577,129.0
5215.743,132.0
5217.8296,140.0
5219.9165,162.0
5222.0044,181.0
5224.0933,135.0
5226.183,131.0
5228.2734,135.0
5230.3647,151.0
5232.457,138.0
5234.55,143.0
5236.6436,141.0
5238.7383,147.0
5240.834,147.0
5242.93,159.0
5245.0273,152.0
5247.1255,139.0
5249.224,133.0
5251.3237,176.0
5253.4243,152.0
5255.526,159.0
5257.628,143.0
5259.731,123.0
5261.835,139.0
5263.9395,143.0
5266.045,151.0
5268.1514,164.0
5270.259,166.0
5272.3667,119.0
5274.4756,150.0
5276.5854,153.0
5278.6963,140.0
5280.8076,137.0
5282.92,160.0
5285.033,157.0
5287.147,139.0
5289.2617,139.0
5291.3774,142.0
5293.494,133.0
5295.6113,147.0
5297.7295,147.0
5299.8486,163.0
5301.9688,169.0
5304.0894,176.0
5306.211,151.0
5308.3335,142.0
5310.457,131.0
5312.581,119.0
5314.706,151.0
5316.832,187.0
5318.959,210.0
5321.0864,170.0
5323.215,161.0
5325.344,148.0
5327.4746,147.0
5329.6055,151.0
5331.7373,151.0
5333.87,145.0
5336.004,128.0
5338.138,150.0
5340.2734,127.0
5342.4097,149.0
5344.547,150.0
5346.6846,170.0
5348.823,157.0
5350.963,141.0
5353.1035,145.0
5355.2446,153.0
5357.3867,153.0
5359.53,175.0
5361.674,162.0
5363.8184,159.0
5365.964,165.0
5368.1104,149.0
5370.258,148.0
5372.406,171.0
5374.5547,190.0
5376.7046,198.0
5378.8555,170.0
5381.007,157.0
5383.159,149.0
5385.3125,148.0
5387.467,151.0
5389.6216,170.0
5391.7773,197.0
5393.934,184.0
5396.092,162.0
5398.25,181.0
5400.409,194.0
5402.5693,140.0
5404.7305,150.0
5406.8926,176.0
5409.055,184.0
5411.2188,208.0
5413.3833,181.0
5415.549,185.0
5417.715,169.0
5419.882,159.0
5422.05,189.0
5424.2188,180.0
5426.3887,193.0
5428.559,169.0
5430.7305,177.0
5432.903,171.0
5435.076,170.0
5437.25,195.0
5439.425,178.0
5441.6006,186.0
5443.7773,198.0
5445.955,165.0
5448.1333,173.0
5450.3125,153.0
5452.4927,191.0
5454.674,171.0
5456.8555,193.0
5459.038,187.0
5461.2217,176.0
5463.4062,177.0
5465.592,157.0
5467.778,192.0
5469.965,184.0
5472.153,172.0
5474.342,188.0
5476.5317,190.0
5478.722,182.0
5480.9136,182.0
5483.106,164.0
5485.2993,167.0
5487.4937,190.0
5489.6885,213.0
5491.8843,177.0
5494.081,195.0
5496.279,187.0
5498.4775,157.0
5500.677,195.0
5502.877,212.0
5505.078,218.0
5507.2803,225.0
5509.4834,203.0
5511.687,192.0
5513.8916,170.0
5516.097,178.0
5518.3037,179.0
5520.511,153.0
5522.719,214.0
5524.928,227.0
5527.138,174.0
5529.349,161.0
5531.561,184.0
5533.7734,213.0
5535.987,173.0
5538.201,207.0
5540.4165,229.0
5542.633,201.0
5544.85,180.0
5547.068,180.0
5549.2866,187.0
5551.5063,195.0
5553.727,177.0
5555.9487,187.0
5558.171,202.0
5560.394,208.0
5562.618,194.0
5564.8433,185.0
5567.0693,184.0
5569.2964,180.0
5571.524,172.0
5573.7524,180.0
5575.982,167.0
5578.2124,182.0
5580.444,168.0
5582.676,213.0
5584.9087,196.0
5587.1426,174.0
5589.3774,195.0
5591.6133,179.0
5593.85,174.0
5596.0874,170.0
5598.3257,207.0
5600.565,233.0
5602.805,200.0
5605.0464,211.0
5607.2886,166.0
5609.5312,192.0
5611.775,172.0
5614.0195,178.0
5616.265,184.0
5618.5117,181.0
5620.7593,177.0
5623.008,182.0
5625.257,152.0
5627.507,200.0
5629.758,163.0
5632.01,188.0
5634.2627,175.0
5636.5166,178.0
5638.771,169.0
5641.0264,162.0
5643.2827,173.0
5645.54,177.0
5647.7983,193.0
5650.0576,160.0
5652.318,159.0
5654.5786,181.0
5656.8403,156.0
5659.103,193.0
5661.3667,166.0
5663.6313,180.0
5665.897,178.0
5668.1636,162.0
5670.4307,190.0
5672.6987,185.0
5674.968,171.0
5677.238,171.0
5679.509,182.0
5681.781,181.0
5684.0537,186.0
5686.327,162.0
5688.6016,158.0
5690.877,190.0
5693.1533,163.0
5695.4307,164.0
5697.709,192.0
5699.9883,179.0
5702.268,197.0
5704.549,182.0
5706.8306,218.0
5709.1133,181.0
5711.397,162.0
5713.6816,193.0
5715.9673,182.0
5718.254,187.0
5720.541,214.0
5722.829,190.0
5725.118,189.0
5727.408,194.0
5729.699,190.0
5731.991,196.0
5734.284,183.0
5736.578,202.0
5738.8726,209.0
5741.168,183.0
5743.4644,196.0
5745.7617,215.0
5748.06,200.0
5750.3594,183.0
5752.6597,204.0
5754.961,243.0
5757.2627,212.0
5759.5654,200.0
5761.869,205.0
5764.174,231.0
5766.4795,184.0
5768.786,208.0
5771.0938,199.0
5773.4023,222.0
5775.712,217.0
5778.022,224.0
5780.333,212.0
5782.645,218.0
5784.958,217.0
5787.272,202.0
5789.587,212.0
5791.903,205.0
5794.2197,224.0
5796.5376,196.0
5798.8564,237.0
5801.176,232.0
5803.496,219.0
5805.8174,245.0
5808.1396,237.0
5810.463,229.0
5812.787,205.0
5815.1123,258.0
5817.4385,228.0
5819.7656,252.0
5822.0938,255.0
5824.4224,244.0
5826.752,225.0
5829.0825,246.0
5831.414,229.0
5833.7466,238.0
5836.08,209.0
5838.4146,289.0
5840.75,319.0
5843.0864,283.0
5845.424,262.0
5847.762,260.0
5850.101,241.0
5852.441,224.0
5854.7817,232.0
5857.1235,221.0
5859.4663,235.0
5861.81,246.0
5864.155,263.0
5866.5005,222.0
5868.847,257.0
5871.195,250.0
5873.5435,245.0
5875.893,221.0
5878.2437,202.0
5880.5947,221.0
5882.947,208.0
5885.3,229.0
5887.654,255.0
5890.009,251.0
5892.3647,257.0
5894.7217,253.0
5897.0796,223.0
5899.4385,256.0
5901.7983,262.0
5904.159,271.0
5906.521,253.0
5908.884,286.0
5911.2476,253.0
5913.612,308.0
5915.977,245.0
5918.3433,237.0
5920.7104,265.0
5923.0786,252.0
5925.4478,282.0
5927.818,291.0
5930.189,271.0
5932.561,262.0
5934.934,284.0
5937.308,218.0
5939.683,306.0
5942.059,303.0
5944.436,302.0
5946.814,295.0
5949.193,275.0
5951.5728,274.0
5953.9536,295.0
5956.335,273.0
5958.7173,297.0
5961.1006,318.0
5963.485,297.0
5965.87,321.0
5968.2563,297.0
5970.6436,305.0
5973.0317,295.0
5975.421,322.0
5977.811,316.0
5980.202,298.0
5982.594,298.0
5984.9873,292.0
5987.3813,278.0
5989.7764,263.0
5992.1724,303.0
5994.5693,288.0
5996.9673,285.0
5999.366,276.0
6001.766,345.0
6004.167,362.0
6006.569,323.0
6008.9717,299.0
6011.3755,358.0
6013.7803,335.0
6016.1855,289.0
6018.592,358.0
6020.999,327.0
6023.407,300.0
6025.8164,273.0
6028.2266,305.0
6030.6377,314.0
6033.05,294.0
6035.463,351.0
6037.877,316.0
6040.292,312.0
6042.708,320.0
6045.125,287.0
6047.543,327.0
6049.962,322.0
6052.382,280.0
6054.8027,277.0
6057.2246,301.0
6059.6475,320.0
6062.0713,356.0
6064.496,334.0
6066.922,340.0
6069.3486,266.0
6071.7764,276.0
6074.205,304.0
6076.635,311.0
6079.0654,310.0
6081.497,289.0
6083.9297,326.0
6086.3633,324.0
6088.798,333.0
6091.2334,314.0
6093.67,305.0
6096.1074,293.0
6098.546,287.0
6100.9854,340.0
6103.426,381.0
6105.867,343.0
6108.3096,312.0
6110.753,302.0
6113.1973,327.0
6115.6426,396.0
6118.089,401.0
6120.536,399.0
6122.9844,348.0
6125.4336,312.0
6127.884,361.0
6130.335,399.0
6132.787,413.0
6135.24,460.0
6137.6943,426.0
6140.1494,401.0
6142.6055,356.0
6145.0625,380.0
6147.5205,442.0
6149.9795,475.0
6152.4395,468.0
6154.9004,426.0
6157.3623,429.0
6159.825,474.0
6162.289,405.0
6164.754,418.0
6167.2197,401.0
6169.6865,390.0
6172.1543,512.0
6174.623,614.0
6177.093,626.0
6179.5635,445.0
6182.035,445.0
6184.508,430.0
6186.9814,479.0
6189.456,521.0
6191.9316,701.0
6194.408,724.0
6196.8857,590.0
6199.3643,566.0
6201.844,605.0
6204.325,441.0
6206.807,399.0
6209.29,355.0
6211.774,361.0
6214.259,533.0
6216.7446,704.0
6219.2314,629.0
6221.719,457.0
6224.208,383.0
6226.6978,425.0
6229.1885,372.0
6231.68,702.0
6234.173,881.0
6236.6665,769.0
6239.161,533.0
6241.6567,423.0
6244.1533,414.0
6246.651,492.0
6249.1494,481.0
6251.649,429.0
6254.1494,443.0
6256.651,520.0
6259.1533,472.0
6261.6567,414.0
6264.1616,391.0
6266.6675,384.0
6269.1743,366.0
6271.682,559.0
6274.191,717.0
6276.7007,573.0
6279.2114,424.0
6281.723,363.0
6284.236,328.0
6286.7495,379.0
6289.264,746.0
6291.78,1012.0
6294.2964,737.0
6296.814,493.0
6299.3325,394.0
6301.852,331.0
6304.3726,339.0
6306.8945,355.0
6309.4175,345.0
6311.9414,325.0
6314.4663,370.0
6316.992,334.0
6319.519,317.0
6322.047,325.0
6324.5757,298.0
6327.1055,319.0
6329.636,304.0
6332.168,326.0
6334.7007,340.0
6337.2344,352.0
6339.769,339.0
6342.305,333.0
6344.8423,340.0
6347.3804,380.0
6349.9194,390.0
6352.4595,355.0
6355.0005,345.0
6357.5425,337.0
6360.0854,354.0
6362.6294,333.0
6365.1743,332.0
6367.72,320.0
6370.267,400.0
6372.8154,360.0
6375.3647,358.0
6377.915,369.0
6380.4663,356.0
6383.0186,372.0
6385.572,383.0
6388.126,420.0
6390.681,334.0
6393.2373,318.0
6395.7944,352.0
6398.3525,360.0
6400.912,323.0
6403.4727,391.0
6406.034,385.0
6408.5967,361.0
6411.16,356.0
6413.7246,359.0
6416.29,342.0
6418.8564,350.0
6421.424,318.0
6423.992,337.0
6426.562,322.0
6429.133,370.0
6431.7046,359.0
6434.2773,340.0
6436.851,378.0
6439.426,370.0
6442.0015,326.0
6444.578,380.0
6447.156,389.0
6449.735,355.0
6452.315,361.0
6454.896,318.0
6457.478,364.0
6460.061,332.0
6462.645,332.0
6465.23,305.0
6467.816,344.0
6470.403,347.0
6472.991,316.0
6475.5806,340.0
6478.171,344.0
6480.762,349.0
6483.3545,346.0
6485.9478,380.0
6488.542,345.0
6491.137,357.0
6493.734,366.0
6496.3315,361.0
6498.93,368.0
6501.53,340.0
6504.1304,323.0
6506.732,363.0
6509.3345,339.0
6511.938,380.0
6514.543,393.0
6517.149,377.0
6519.756,381.0
6522.364,369.0
6524.9727,375.0
6527.5825,374.0
6530.1934,393.0
6532.8057,407.0
6535.419,381.0
6538.033,386.0
6540.6484,441.0
6543.2646,400.0
6545.882,422.0
6548.5,427.0
6551.1196,465.0
6553.74,428.0
6556.362,469.0
6558.9844,510.0
6561.608,449.0
6564.2324,410.0
6566.858,401.0
6569.485,385.0
6572.113,405.0
6574.7417,428.0
6577.3716,450.0
6580.0024,439.0
6582.6343,384.0
6585.267,446.0
6587.9014,413.0
6590.5366,459.0
6593.173,491.0
6595.81,461.0
6598.448,421.0
6601.0874,402.0
6603.728,390.0
6606.3696,433.0
6609.012,444.0
6611.656,440.0
6614.3003,436.0
6616.946,448.0
6619.593,420.0
6622.2407,452.0
6624.8896,408.0
6627.5396,383.0
6630.1904,439.0
6632.8423,434.0
6635.4956,422.0
6638.15,556.0
6640.805,519.0
6643.4614,476.0
6646.1187,442.0
6648.7773,411.0
6651.437,361.0
6654.0977,432.0
6656.7593,477.0
6659.422,426.0
6662.0854,424.0
6664.7505,406.0
6667.4165,322.0
6670.0835,343.0
6672.7515,347.0
6675.4204,313.0
6678.091,387.0
6680.762,448.0
6683.4346,338.0
6686.108,300.0
6688.782,348.0
6691.4575,313.0
6694.1343,352.0
6696.812,461.0
6699.4907,412.0
6702.1704,354.0
6704.851,319.0
6707.533,348.0
6710.2163,319.0
6712.9004,404.0
6715.5854,389.0
6718.2715,342.0
6720.959,346.0
6723.6475,367.0
6726.337,395.0
6729.0273,343.0
6731.7188,338.0
6734.4116,322.0
6737.1055,335.0
6739.8003,430.0
6742.496,428.0
6745.193,412.0
6747.891,341.0
6750.5903,336.0
6753.2905,312.0
6755.9917,369.0
6758.6943,464.0
6761.398,444.0
6764.1025,429.0
6766.808,382.0
6769.5146,355.0
6772.2227,366.0
6774.9316,380.0
6777.6416,435.0
6780.3525,435.0
6783.0645,434.0
6785.778,398.0
6788.492,389.0
6791.2075,407.0
6793.924,379.0
6796.6416,348.0
6799.3604,324.0
6802.08,383.0
6804.801,426.0
6807.5225,518.0
6810.2456,496.0
6812.9697,408.0
6815.695,348.0
6818.421,283.0
6821.1484,499.0
6823.877,717.0
6826.6064,624.0
6829.337,416.0
6832.069,285.0
6834.802,290.0
6837.5356,328.0
6840.2705,414.0
6843.007,531.0
6845.744,443.0
6848.4824,384.0
6851.2217,284.0
6853.9624,306.0
6856.704,313.0
6859.447,371.0
6862.1904,365.0
6864.9355,333.0
6867.6816,307.0
6870.4287,308.0
6873.177,303.0
6875.9263,325.0
6878.677,302.0
6881.428,293.0
6884.1807,326.0
6886.9346,310.0
6889.6895,293.0
6892.4453,319.0
6895.202,315.0
6897.9604,307.0
6900.7197,309.0
6903.48,348.0
6906.241,304.0
6909.004,329.0
6911.7676,340.0
6914.532,385.0
6917.298,320.0
6920.065,394.0
6922.833,334.0
6925.602,311.0
6928.372,327.0
6931.1436,353.0
6933.916,300.0
6936.6895,304.0
6939.4644,274.0
6942.24,314.0
6945.017,341.0
6947.795,404.0
6950.574,359.0
6953.3545,330.0
6956.1357,331.0
6958.918,332.0
6961.7017,334.0
6964.4863,376.0
6967.272,335.0
6970.059,373.0
6972.847,375.0
6975.636,340.0
6978.4263,397.0
6981.218,404.0
6984.0103,382.0
6986.8037,396.0
6989.5986,390.0
6992.3945,455.0
6995.1914,455.0
6997.9893,419.0
7000.7886,466.0
7003.589,388.0
7006.39,383.0
7009.193,416.0
7011.9966,357.0
7014.8013,365.0
7017.6074,454.0
7020.4146,458.0
7023.2227,481.0
7026.0317,556.0
7028.8423,440.0
7031.654,378.0
7034.4663,358.0
7037.2803,314.0
7040.095,457.0
7042.911,639.0
7045.7285,496.0
7048.547,391.0
7051.366,345.0
7054.1865,367.0
7057.0083,480.0
7059.831,878.0
7062.655,737.0
7065.48,497.0
7068.306,356.0
7071.1333,372.0
7073.962,322.0
7076.7915,332.0
7079.622,348.0
7082.454,408.0
7085.287,361.0
7088.121,340.0
7090.9565,312.0
7093.793,402.0
7096.6304,408.0
7099.469,405.0
7102.309,365.0
7105.15,369.0
7107.992,412.0
7110.8354,420.0
7113.6797,409.0
7116.5254,437.0
7119.372,369.0
7122.2197,459.0
7125.069,462.0
7127.919,473.0
7130.77,440.0
7133.6226,394.0
7136.476,408.0
7139.3306,553.0
7142.1865,543.0
7145.0435,497.0
7147.9014,481.0
7150.7607,469.0
7153.621,484.0
7156.4824,678.0
7159.345,817.0
7162.209,587.0
7165.0737,520.0
7167.94,521.0
7170.807,539.0
7173.6753,631.0
7176.545,547.0
7179.4155,496.0
7182.287,552.0
7185.16,465.0
7188.034,558.0
7190.909,585.0
7193.7856,456.0
7196.663,664.0
7199.542,751.0
7202.422,558.0
7205.3027,450.0
7208.185,344.0
7211.0684,470.0
7213.9526,929.0
7216.8384,872.0
7219.725,575.0
7222.613,379.0
7225.502,372.0
7228.392,519.0
7231.283,1330.0
7234.176,1424.0
7237.0693,746.0
7239.9644,458.0
7242.8604,393.0
7245.7573,332.0
7248.656,347.0
7251.555,391.0
7254.4556,439.0
7257.3574,372.0
7260.2603,334.0
7263.1646,312.0
7266.07,318.0
7268.976,380.0
7271.884,324.0
7274.7925,374.0
7277.7026,331.0
7280.614,301.0
7283.526,372.0
7286.4395,397.0
7289.354,374.0
7292.2695,318.0
7295.1865,386.0
7298.1045,403.0
7301.024,343.0
7303.9443,331.0
7306.8657,303.0
7309.7886,386.0
7312.7124,519.0
7315.6377,454.0
7318.564,362.0
7321.491,321.0
7324.42,312.0
7327.3496,409.0
7330.281,579.0
7333.213,507.0
7336.146,389.0
7339.0806,303.0
7342.016,317.0
7344.953,374.0
7347.891,449.0
7350.83,405.0
7353.7705,354.0
7356.712,354.0
7359.655,333.0
7362.5986,386.0
7365.5435,343.0
7368.4897,364.0
7371.437,335.0
7374.3857,399.0
7377.3354,422.0
7380.2866,408.0
7383.239,419.0
7386.192,396.0
7389.1465,364.0
7392.102,336.0
7395.059,369.0
7398.017,398.0
7400.976,441.0
7403.9365,470.0
7406.898,409.0
7409.861,348.0
7412.8247,361.0
7415.79,398.0
7418.7563,414.0
7421.7236,469.0
7424.6924,461.0
7427.662,384.0
7430.6333,341.0
7433.6055,470.0
7436.579,441.0
7439.5537,406.0
7442.5293,469.0
7445.5063,385.0
7448.4844,369.0
7451.464,447.0
7454.4443,412.0
7457.4263,341.0
7460.409,315.0
7463.3936,290.0
7466.379,419.0
7469.365,451.0
7472.353,354.0
7475.342,311.0
7478.332,288.0
7481.323,339.0
7484.316,615.0
7487.3096,653.0
7490.3047,450.0
7493.301,300.0
7496.2983,258.0
7499.297,326.0
7502.2964,306.0
7505.2974,280.0
7508.2993,278.0
7511.3027,271.0
7514.307,267.0
7517.313,252.0
7520.32,300.0
7523.328,303.0
7526.3374,316.0
7529.348,330.0
7532.36,283.0
7535.373,262.0
7538.387,262.0
7541.4023,280.0
7544.419,329.0
7547.4365,322.0
7550.4556,307.0
7553.4756,312.0
7556.497,290.0
7559.5195,278.0
7562.5435,360.0
7565.5684,354.0
7568.5947,304.0
7571.622,289.0
7574.651,316.0
7577.6807,300.0
7580.712,311.0
7583.744,317.0
7586.778,321.0
7589.8125,286.0
7592.8486,266.0
7595.8857,282.0
7598.9243,360.0
7601.964,311.0
7605.005,271.0
7608.047,258.0
7611.0903,264.0
7614.135,338.0
7617.18,402.0
7620.227,327.0
7623.275,280.0
7626.324,274.0
7629.3745,263.0
7632.4263,293.0
7635.479,300.0
7638.533,256.0
7641.5884,265.0
7644.645,285.0
7647.7026,241.0
7650.7617,289.0
7653.8223,261.0
7656.884,280.0
7659.947,283.0
7663.0107,274.0
7666.076,271.0
7669.1426,296.0
7672.2104,297.0
7675.2793,318.0
7678.3496,337.0
7681.421,311.0
7684.4937,311.0
7687.5674,269.0
7690.6426,324.0
7693.7188,296.0
7696.7964,312.0
7699.875,323.0
7702.955,342.0
7706.036,335.0
7709.1187,361.0
7712.202,342.0
7715.287,306.0
7718.373,310.0
7721.4604,343.0
7724.549,367.0
7727.6387,416.0
7730.7295,420.0
7733.822,325.0
7736.9155,385.0
7740.0103,371.0
7743.1064,397.0
7746.2036,449.0
7749.3022,408.0
7752.402,414.0
7755.503,417.0
7758.605,369.0
7761.7085,352.0
7764.813,332.0
7767.919,444.0
7771.026,486.0
7774.1343,482.0
7777.244,403.0
7780.355,361.0
7783.4673,393.0
7786.5806,573.0
7789.6953,667.0
7792.811,517.0
7795.928,434.0
7799.0464,395.0
7802.166,359.0
7805.287,391.0
7808.409,395.0
7811.5327,475.0
7814.657,428.0
7817.783,399.0
7820.91,404.0
7824.0386,397.0
7827.168,471.0
7830.299,483.0
7833.431,399.0
7836.5645,390.0
7839.699,401.0
7842.835,469.0
7845.972,551.0
7849.1104,508.0
7852.25,479.0
7855.391,462.0
7858.533,462.0
7861.677,464.0
7864.8213,492.0
7867.9673,470.0
7871.1143,476.0
7874.2627,457.0
7877.4126,493.0
7880.5635,493.0
7883.716,537.0
7886.869,568.0
7890.024,538.0
7893.18,497.0
7896.3374,524.0
7899.496,606.0
7902.656,658.0
7905.817,547.0
7908.979,499.0
7912.1426,536.0
7915.3076,595.0
7918.4736,722.0
7921.641,706.0
7924.8096,598.0
7927.9795,556.0
7931.151,588.0
7934.323,606.0
7937.497,714.0
7940.672,687.0
7943.848,630.0
7947.026,629.0
7950.2046,667.0
7953.385,736.0
7956.566,832.0
7959.7485,831.0
7962.9326,787.0
7966.1177,775.0
7969.304,858.0
7972.4917,886.0
7975.6807,886.0
7978.871,865.0
7982.0625,897.0
7985.2554,980.0
7988.4497,1064.0
7991.645,1118.0
7994.842,1051.0
7998.0396,1035.0
8001.239,1086.0
8004.4395,1285.0
8007.641,1406.0
8010.844,1332.0
8014.0483,1260.0
8017.254,1260.0
8020.461,1321.0
8023.669,1444.0
8026.8784,1365.0
8030.0894,1368.0
8033.3013,1622.0
8036.5146,1813.0
8039.7295,2071.0
8042.9453,1956.0
8046.1626,1588.0
8049.381,1652.0
8052.6006,2199.0
8055.822,2715.0
8059.044,2600.0
8062.2676,2015.0
8065.4927,2290.0
8068.7188,2598.0
8071.9463,2734.0
8075.1753,3433.0
8078.4053,3073.0
8081.6367,3117.0
8084.869,3980.0
8088.103,3218.0
8091.3384,2419.0
8094.5747,2005.0
8097.8125,3230.0
8101.052,5631.0
8104.292,4813.0
8107.5337,3295.0
8110.777,2540.0
8114.021,2990.0
8117.2666,8106.0
8120.5137,9679.0
8123.7617,6017.0
8127.011,4103.0
8130.262,3107.0
8133.514,3292.0
8136.7676,3797.0
8140.0225,4303.0
8143.2783,5240.0
8146.5356,4625.0
8149.7944,3556.0
8153.054,4198.0
8156.3154,4001.0
8159.578,4561.0
8162.842,5627.0
8166.107,5126.0
8169.3735,7603.0
8172.641,7257.0
8175.91,4262.0
8179.1807,2465.0
8182.452,3010.0
8185.725,11906.0
8188.9995,14939.0
8192.275,6776.0
8195.553,2927.0
8198.831,2372.0
8202.11,12852.0
8205.392,29578.0
8208.674,17116.0
8211.957,5749.0
8215.242,2461.0
8218.528,1906.0
8221.815,1746.0
8225.1045,2226.0
8228.395,2828.0
8231.686,2049.0
8234.979,1202.0
8238.272,945.0
8241.567,1084.0
8244.864,1231.0
8248.162,1266.0
8251.461,1001.0
8254.762,829.0
8258.063,829.0
8261.367,1155.0
8264.672,1193.0
8267.978,1041.0
8271.285,873.0
8274.594,855.0
8277.903,721.0
8281.215,688.0
8284.527,708.0
8287.841,906.0
8291.156,899.0
8294.473,760.0
8297.79,690.0
8301.109,748.0
8304.43,810.0
8307.751,942.0
8311.074,823.0
8314.398,809.0
8317.725,816.0
8321.052,768.0
8324.38,706.0
8327.71,740.0
8331.041,1004.0
8334.373,892.0
8337.707,696.0
8341.042,611.0
8344.378,802.0
8347.716,1051.0
8351.055,1178.0
8354.3955,914.0
8357.737,837.0
8361.08,761.0
8364.425,622.0
8367.7705,553.0
8371.117,607.0
8374.466,924.0
8377.815,942.0
8381.167,637.0
8384.52,536.0
8387.873,551.0
8391.229,757.0
8394.585,955.0
8397.942,718.0
8401.302,538.0
8404.662,586.0
8408.024,594.0
8411.388,585.0
8414.752,541.0
8418.118,476.0
8421.485,501.0
8424.854,430.0
8428.224,451.0
8431.595,543.0
8434.968,520.0
8438.342,497.0
8441.717,414.0
8445.094,491.0
8448.472,529.0
8451.851,499.0
8455.231,514.0
8458.613,513.0
8461.997,564.0
8465.382,602.0
8468.768,568.0
8472.155,575.0
8475.544,616.0
8478.935,577.0
8482.326,581.0
8485.719,634.0
8489.113,688.0
8492.509,827.0
8495.906,746.0
8499.305,722.0
8502.704,743.0
8506.105,822.0
8509.508,988.0
8512.911,858.0
8516.316,954.0
8519.723,1096.0
8523.131,949.0
8526.54,1111.0
8529.95,1066.0
8533.362,1510.0
8536.775,1784.0
8540.19,1253.0
8543.606,797.0
8547.023,723.0
8550.442,1929.0
8553.862,2743.0
8557.284,1626.0
8560.707,875.0
8564.131,815.0
8567.557,2477.0
8570.983,4570.0
8574.412,2679.0
8577.842,1374.0
8581.272,895.0
8584.705,720.0
8588.139,560.0
8591.574,825.0
8595.011,1064.0
8598.449,912.0
8601.889,653.0
8605.329,519.0
8608.771,486.0
8612.215,437.0
8615.66,480.0
8619.106,490.0
8622.554,486.0
8626.003,459.0
8629.453,436.0
8632.905,449.0
8636.358,449.0
8639.8125,504.0
8643.269,453.0
8646.726,446.0
8650.185,440.0
8653.645,417.0
8657.106,435.0
8660.569,403.0
8664.033,447.0
8667.499,473.0
8670.966,515.0
8674.435,467.0
8677.904,485.0
8681.375,512.0
8684.848,495.0
8688.321,510.0
8691.797,508.0
8695.273,610.0
8698.752,631.0
8702.231,556.0
8705.712,572.0
8709.194,560.0
8712.678,708.0
8716.163,724.0
8719.649,692.0
8723.138,677.0
8726.627,702.0
8730.117,709.0
8733.609,665.0
8737.103,694.0
8740.598,747.0
8744.094,703.0
8747.592,761.0
8751.091,825.0
8754.591,947.0
8758.093,925.0
8761.596,871.0
8765.101,868.0
8768.606,961.0
8772.114,1146.0
8775.623,1156.0
8779.133,1111.0
8782.645,1116.0
8786.157,1120.0
8789.672,1120.0
8793.1875,1163.0
8796.705,1477.0
8800.224,1572.0
8803.744,1194.0
8807.266,1022.0
8810.788,1135.0
8814.3125,2132.0
8817.838,2142.0
8821.365,1534.0
8824.894,1275.0
8828.424,1348.0
8831.955,2469.0
8835.488,2677.0
8839.022,1899.0
8842.558,1680.0
8846.095,1382.0
8849.633,1341.0
8853.173,1351.0
8856.714,1749.0
8860.257,2090.0
8863.801,1652.0
8867.347,1411.0
8870.894,1431.0
8874.442,2088.0
8877.992,2740.0
8881.543,2225.0
8885.096,1865.0
8888.649,1588.0
8892.205,1609.0
8895.762,1608.0
8899.32,1991.0
8902.88,1992.0
8906.441,1707.0
8910.004,1673.0
8913.568,1802.0
8917.134,2192.0
8920.7,2158.0
8924.269,1865.0
8927.838,1953.0
8931.409,1960.0
8934.981,2568.0
8938.556,2247.0
8942.131,2151.0
8945.708,2050.0
8949.286,1787.0
8952.866,1585.0
8956.447,1692.0
8960.03,2153.0
8963.614,2152.0
8967.199,1828.0
8970.786,1370.0
8974.374,1739.0
8977.964,2117.0
8981.555,1834.0
8985.147,1622.0
8988.741,1492.0
8992.337,1914.0
8995.934,2100.0
8999.532,1918.0
9003.132,1493.0
9006.733,1687.0
9010.336,1897.0
9013.94,1580.0
9017.546,1517.0
9021.153,1476.0
9024.762,2008.0
9028.372,2137.0
9031.983,1469.0
9035.597,1093.0
9039.211,1354.0
9042.826,2188.0
9046.443,1771.0
9050.062,1113.0
9053.682,906.0
9057.303,1686.0
9060.926,2963.0
9064.55,2086.0
9068.176,1191.0
9071.803,878.0
9075.432,1143.0
9079.062,1248.0
9082.693,1076.0
9086.326,874.0
9089.961,793.0
9093.597,822.0
9097.234,884.0
9100.873,813.0
9104.514,792.0
9108.155,734.0
9111.799,637.0
9115.443,585.0
9119.09,726.0
9122.737,830.0
9126.387,690.0
9130.037,583.0
9133.689,586.0
9137.343,727.0
9140.998,773.0
9144.654,662.0
9148.3125,595.0
9151.972,583.0
9155.633,593.0
9159.295,613.0
9162.959,701.0
9166.624,780.0
9170.291,702.0
9173.959,527.0
9177.629,599.0
9181.3,814.0
9184.973,829.0
9188.646,682.0
9192.322,522.0
9195.999,656.0
9199.678,812.0
9203.357,709.0
9207.039,670.0
9210.722,528.0
9214.406,454.0
9218.092,390.0
9221.779,480.0
9225.468,630.0
9229.158,492.0
9232.85,399.0
9236.543,380.0
9240.237,554.0
9243.934,693.0
9247.631,563.0
9251.33,420.0
9255.03,322.0
9258.732,287.0
9262.436,301.0
9266.141,352.0
9269.847,347.0
9273.555,265.0
9277.264,243.0
9280.975,261.0
9284.687,310.0
9288.4,259.0
9292.116,248.0
9295.833,246.0
9299.552,255.0
9303.271,225.0
9306.993,239.0
9310.716,237.0
9314.44,235.0
9318.166,234.0
9321.894,258.0
9325.622,245.0
9329.353,208.0
9333.084,217.0
9336.817,204.0
9340.552,206.0
9344.288,211.0
9348.025,248.0
9351.765,219.0
9355.505,203.0
9359.247,223.0
9362.991,161.0
9366.736,165.0
9370.483,191.0
9374.231,165.0
9377.981,208.0
9381.732,188.0
9385.485,183.0
9389.239,209.0
9392.995,176.0
9396.752,193.0
9400.511,163.0
9404.2705,164.0
9408.032,185.0
9411.796,217.0
9415.561,175.0
9419.327,175.0
9423.095,136.0
9426.864,216.0
9430.635,191.0
9434.407,148.0
9438.181,159.0
9441.956,179.0
9445.732,187.0
9449.511,183.0
9453.291,146.0
9457.072,165.0
9460.855,186.0
9464.64,188.0
9468.426,166.0
9472.213,162.0
9476.002,163.0
9479.792,159.0
9483.584,133.0
9487.377,213.0
9491.172,177.0
9494.969,160.0
9498.767,135.0
9502.566,176.0
9506.367,173.0
9510.17,135.0
9513.974,153.0
9517.779,146.0
9521.586,150.0
9525.395,115.0
9529.205,151.0
9533.017,149.0
9536.83,126.0
9540.645,134.0
9544.461,144.0
9548.278,184.0
9552.098,180.0
9555.919,150.0
9559.741,139.0
9563.565,139.0
9567.391,126.0
9571.218,145.0
9575.046,144.0
9578.876,110.0
9582.708,88.0
9586.541,116.0
9590.376,136.0
9594.212,133.0
9598.05,113.0
9601.889,95.0
9605.7295,117.0
9609.572,116.0
9613.416,110.0
9617.262,111.0
9621.108,106.0
9624.957,107.0
9628.807,100.0
9632.658,115.0
9636.512,101.0
9640.366,110.0
9644.223,84.0
9648.08,101.0
9651.939,97.0
9655.8,86.0
9659.662,72.0
9663.526,106.0
9667.392,104.0
9671.259,88.0
9675.127,96.0
9678.997,125.0
9682.869,91.0
9686.742,105.0
9690.617,99.0
9694.493,84.0
9698.371,96.0
9702.25,98.0
9706.131,100.0
9710.014,89.0
9713.897,91.0
9717.783,91.0
9721.67,101.0
9725.559,96.0
9729.449,91.0
9733.341,86.0
9737.234,91.0
9741.129,90.0
9745.025,103.0
9748.924,81.0
9752.823,93.0
9756.725,82.0
9760.627,100.0
9764.531,99.0
9768.4375,92.0
9772.345,94.0
9776.254,94.0
9780.164,98.0
9784.076,96.0
9787.99,74.0
9791.905,91.0
9795.822,81.0
9799.74,90.0
9803.66,98.0
9807.582,95.0
9811.505,84.0
9815.43,84.0
9819.355,96.0
9823.283,104.0
9827.213,106.0
9831.144,116.0
9835.076,98.0
9839.01,97.0
9842.945,95.0
9846.883,113.0
9850.821,74.0
9854.762,93.0
9858.704,101.0
9862.647,87.0
9866.593,90.0
9870.539,97.0
9874.487,87.0
9878.4375,100.0
9882.389,95.0
9886.342,85.0
9890.296,114.0
9894.252,117.0
9898.21,111.0
9902.169,91.0
9906.13,85.0
9910.093,102.0
9914.057,86.0
9918.022,119.0
9921.989,91.0
9925.958,94.0
9929.929,91.0
9933.9,106.0
9937.874,106.0
9941.85,120.0
9945.826,99.0
9949.805,97.0
9953.784,114.0
9957.766,102.0
9961.749,99.0
9965.733,114.0
9969.72,110.0
9973.708,93.0
9977.697,99.0
9981.688,92.0
9985.681,84.0
9989.675,103.0
9993.671,86.0
9997.668,105.0
10001.667,101.0
10005.668,94.0
10009.67,109.0
10013.674,112.0
10017.68,83.0
10021.687,121.0
10025.695,112.0
10029.706,99.0
10033.718,114.0
10037.731,103.0
10041.746,92.0
10045.763,95.0
10049.781,133.0
10053.801,92.0
10057.822,99.0
10061.846,101.0
10065.87,110.0
10069.896,115.0
10073.925,108.0
10077.954,111.0
10081.985,116.0
10086.019,94.0
10090.053,104.0
10094.089,120.0
10098.127,101.0
10102.166,102.0
10106.207,108.0
10110.25,126.0
10114.294,108.0
10118.34,100.0
10122.387,103.0
10126.436,97.0
10130.486,104.0
10134.538,102.0
10138.592,100.0
10142.647,131.0
10146.704,101.0
10150.763,109.0
10154.823,105.0
10158.885,102.0
10162.948,108.0
10167.014,111.0
10171.08,114.0
10175.148,124.0
10179.219,137.0
10183.29,97.0
10187.363,116.0
10191.438,102.0
10195.515,104.0
10199.593,90.0
10203.673,107.0
10207.754,107.0
10211.837,121.0
10215.922,93.0
10220.008,108.0
10224.096,100.0
10228.186,116.0
10232.276,110.0
10236.369,115.0
10240.464,96.0
10244.56,114.0
10248.657,98.0
10252.757,104.0
10256.858,108.0
10260.961,109.0
10265.065,116.0
10269.172,113.0
10273.279,113.0
10277.389,112.0
10281.5,109.0
10285.612,109.0
10289.727,112.0
10293.843,98.0
10297.96,125.0
10302.079,121.0
10306.2,109.0
10310.322,118.0
10314.446,131.0
10318.572,105.0
10322.699,126.0
10326.828,132.0
10330.959,111.0
10335.092,119.0
10339.226,120.0
10343.361,95.0
10347.499,117.0
10351.638,138.0
10355.778,107.0
10359.921,123.0
10364.064,121.0
10368.21,124.0
10372.357,127.0
10376.507,143.0
10380.657,129.0
10384.81,109.0
10388.964,137.0
10393.119,120.0
10397.276,123.0
10401.436,115.0
10405.596,121.0
10409.758,119.0
10413.922,144.0
10418.088,119.0
10422.255,118.0
10426.424,124.0
10430.595,127.0
10434.767,132.0
10438.94,112.0
10443.116,142.0
10447.294,121.0
10451.473,93.0
10455.653,114.0
10459.836,131.0
10464.02,129.0
10468.205,119.0
10472.393,117.0
10476.581,106.0
10480.771,93.0
10484.964,118.0
10489.158,124.0
10493.354,102.0
10497.551,107.0
10501.75,102.0
10505.951,118.0
10510.153,115.0
10514.357,104.0
10518.563,108.0
10522.7705,112.0
10526.9795,118.0
10531.19,119.0
10535.403,109.0
10539.617,108.0
10543.833,109.0
10548.051,120.0
10552.27,130.0
10556.49,108.0
10560.713,124.0
10564.9375,146.0
10569.163,116.0
10573.391,104.0
10577.62,118.0
10581.852,117.0
10586.084,111.0
10590.318,123.0
10594.555,114.0
10598.793,99.0
10603.032,111.0
10607.273,132.0
10611.517,126.0
10615.761,112.0
10620.007,110.0
10624.255,115.0
10628.505,145.0
10632.756,133.0
10637.009,123.0
10641.264,107.0
10645.5205,115.0
10649.778,107.0
10654.038,125.0
10658.3,134.0
10662.563,107.0
10666.828,110.0
10671.095,124.0
10675.363,131.0
10679.634,127.0
10683.905,138.0
10688.179,113.0
10692.454,143.0
10696.731,135.0
10701.01,138.0
10705.29,124.0
10709.572,111.0
10713.856,123.0
10718.142,132.0
10722.429,128.0
10726.718,127.0
10731.009,129.0
10735.301,140.0
10739.595,133.0
10743.891,121.0
10748.188,132.0
10752.487,118.0
10756.788,117.0
10761.091,140.0
10765.3955,120.0
10769.702,119.0
10774.01,99.0
10778.319,108.0
10782.631,124.0
10786.944,123.0
10791.259,107.0
10795.575,143.0
10799.894,110.0
10804.214,99.0
10808.535,102.0
10812.858,114.0
10817.184,106.0
10821.511,115.0
10825.839,109.0
10830.169,107.0
10834.501,133.0
10838.835,119.0
10843.171,121.0
10847.508,120.0
10851.847,110.0
10856.1875,82.0
10860.53,124.0
10864.874,118.0
10869.22,111.0
10873.567,122.0
10877.917,103.0
10882.269,110.0
10886.621,113.0
10890.976,152.0
10895.332,106.0
10899.69,116.0
10904.051,123.0
10908.412,122.0
10912.775,106.0
10917.141,117.0
10921.508,136.0
10925.876,124.0
10930.246,127.0
10934.618,117.0
10938.992,113.0
10943.368,111.0
10947.745,99.0
10952.124,106.0
10956.505,108.0
10960.888,132.0
10965.272,129.0
10969.658,124.0
10974.046,132.0
10978.436,128.0
10982.827,120.0
10987.221,118.0
10991.615,110.0
10996.012,106.0
11000.41,122.0
11004.811,109.0
11009.213,120.0
11013.616,132.0
11018.021,151.0
11022.429,124.0
11026.838,131.0
11031.249,126.0
11035.661,135.0
11040.075,119.0
11044.491,135.0
11048.909,153.0
11053.329,129.0
11057.75,131.0
11062.173,118.0
11066.598,144.0
11071.024,140.0
11075.453,118.0
11079.884,141.0
11084.315,122.0
11088.749,130.0
11093.185,130.0
11097.622,114.0
11102.062,127.0
11106.502,111.0
11110.944,139.0
11115.389,160.0
11119.835,137.0
11124.283,136.0
11128.733,133.0
11133.185,137.0
11137.638,146.0
11142.093,114.0
11146.55,115.0
11151.009,118.0
11155.469,106.0
11159.931,117.0
11164.395,143.0
11168.86,108.0
11173.328,130.0
11177.798,142.0
11182.269,128.0
11186.741,115.0
11191.216,140.0
11195.692,135.0
11200.171,155.0
11204.651,135.0
11209.133,144.0
11213.616,152.0
11218.102,148.0
11222.589,137.0
11227.078,130.0
11231.569,156.0
11236.062,158.0
11240.556,133.0
11245.052,135.0
11249.55,143.0
11254.05,172.0
11258.552,132.0
11263.056,164.0
11267.561,158.0
11272.067,144.0
11276.576,140.0
11281.087,148.0
11285.6,156.0
11290.114,151.0
11294.63,169.0
11299.147,135.0
11303.667,173.0
11308.188,178.0
11312.712,176.0
11317.237,176.0
11321.765,164.0
11326.293,167.0
11330.823,177.0
11335.355,179.0
11339.89,189.0
11344.426,173.0
11348.964,175.0
11353.504,199.0
11358.045,182.0
11362.588,187.0
11367.133,217.0
11371.68,219.0
11376.229,184.0
11380.779,202.0
11385.332,212.0
11389.886,212.0
11394.441,235.0
11398.999,221.0
11403.559,226.0
11408.12,234.0
11412.684,237.0
11417.249,258.0
11421.816,280.0
11426.385,250.0
11430.955,272.0
11435.527,270.0
11440.102,287.0
11444.678,314.0
11449.256,299.0
11453.836,275.0
11458.417,290.0
11463.0,317.0
11467.585,327.0
11472.172,312.0
11476.761,349.0
11481.352,380.0
11485.944,369.0
11490.539,331.0
11495.136,381.0
11499.733,370.0
11504.333,372.0
11508.935,417.0
11513.538,418.0
11518.144,374.0
11522.751,400.0
11527.36,405.0
11531.972,376.0
11536.584,403.0
11541.198,444.0
11545.814,454.0
11550.433,451.0
11555.053,379.0
11559.675,468.0
11564.299,479.0
11568.925,419.0
11573.553,471.0
11578.183,513.0
11582.813,478.0
11587.446,439.0
11592.081,466.0
11596.718,537.0
11601.356,470.0
11605.997,427.0
11610.64,508.0
11615.284,551.0
11619.931,443.0
11624.579,506.0
11629.229,492.0
11633.88,433.0
11638.533,515.0
11643.188,565.0
11647.846,467.0
11652.505,408.0
11657.166,516.0
11661.829,600.0
11666.494,406.0
11671.161,371.0
11675.83,696.0
11680.5,688.0
11685.172,389.0
11689.846,367.0
11694.521,396.0
11699.199,323.0
11703.879,308.0
11708.561,227.0
11713.244,274.0
11717.93,245.0
11722.617,249.0
11727.307,238.0
11731.998,212.0
11736.69,220.0
11741.385,222.0
11746.081,220.0
11750.779,213.0
11755.4795,187.0
11760.182,186.0
11764.886,201.0
11769.592,197.0
11774.3,187.0
11779.01,206.0
11783.722,181.0
11788.436,216.0
11793.151,175.0
11797.868,180.0
11802.587,189.0
11807.308,221.0
11812.03,159.0
11816.755,180.0
11821.481,204.0
11826.21,190.0
11830.94,189.0
11835.673,158.0
11840.407,164.0
11845.144,133.0
11849.882,168.0
11854.622,170.0
11859.364,153.0
11864.108,165.0
11868.8545,134.0
11873.602,122.0
11878.351,160.0
11883.102,146.0
11887.8545,155.0
11892.609,128.0
11897.366,152.0
11902.125,123.0
11906.886,148.0
11911.648,144.0
11916.413,126.0
11921.18,133.0
11925.948,150.0
11930.719,121.0
11935.491,139.0
11940.266,112.0
11945.042,135.0
11949.82,122.0
11954.601,129.0
11959.383,140.0
11964.167,133.0
11968.953,131.0
11973.74,146.0
11978.529,127.0
11983.32,152.0
11988.113,128.0
11992.908,132.0
