M/Z,Intensity
800.0,42.0
800.32,91.0
800.64014,38.0
800.9604,73.0
801.28076,138.0
801.60126,35.0
801.9219,58.0
802.2426,98.0
802.56354,37.0
802.8846,88.0
803.20575,68.0
803.52704,38.0
803.84845,52.0
804.17,63.0
804.49164,36.0
804.8134,38.0
805.1353,66.0
805.4574,44.0
805.7796,30.0
806.1019,83.0
806.4244,47.0
806.74695,32.0
807.06964,72.0
807.39246,56.0
807.7154,25.0
808.03845,45.0
808.3617,87.0
808.68506,19.0
809.00854,49.0
809.33215,97.0
809.6559,29.0
809.97974,42.0
810.3037,83.0
810.6278,23.0
810.9521,43.0
811.2765,82.0
811.601,30.0
811.92566,39.0
812.2504,79.0
812.5753,14.0
812.9003,43.0
813.22546,60.0
813.5508,20.0
813.8762,38.0
814.2018,53.0
814.52747,25.0
814.8533,39.0
815.1792,68.0
815.50525,37.0
815.8314,34.0
816.1578,72.0
816.48425,27.0
816.81085,52.0
817.1376,61.0
817.4644,55.0
817.7914,31.0
818.11847,53.0
818.44574,41.0
818.77313,20.0
819.10065,54.0
819.4283,41.0
819.75604,34.0
820.0839,65.0
820.412,44.0
820.7402,40.0
821.0685,51.0
821.3969,41.0
821.72546,13.0
822.05414,54.0
822.38293,44.0
822.7119,25.0
823.041,69.0
823.37024,71.0
823.6996,23.0
824.02905,62.0
824.35864,72.0
824.6884,120.0
825.0183,858.0
825.3483,79.0
825.67847,62.0
826.0087,406.0
826.3391,84.0
826.6696,27.0
827.0003,155.0
827.3311,56.0
827.66205,20.0
827.9931,65.0
828.3243,58.0
828.65564,23.0
828.9871,45.0
829.3187,62.0
829.65045,31.0
829.9823,31.0
830.3143,69.0
830.6464,21.0
830.9787,43.0
831.3111,50.0
831.6436,29.0
831.97626,34.0
832.309,68.0
832.64197,23.0
832.97504,41.0
833.3082,57.0
833.64154,30.0
833.975,49.0
834.3086,65.0
834.64233,28.0
834.9762,54.0
835.3102,63.0
835.6443,15.0
835.9785,49.0
836.3129,66.0
836.64746,29.0
836.9821,57.0
837.3169,71.0
837.6518,27.0
837.9869,58.0
838.3221,61.0
838.6574,34.0
838.99286,190.0
839.3284,52.0
839.6642,31.0
840.00006,97.0
840.33606,71.0
840.6722,37.0
841.0084,181.0
841.34485,66.0
841.6814,33.0
842.01807,91.0
842.35486,75.0
842.6918,29.0
843.0289,85.0
843.3661,62.0
843.7034,28.0
844.0409,58.0
844.37854,61.0
844.7163,41.0
845.0542,174.0
845.3922,104.0
845.73035,51.0
846.06866,96.0
846.4071,69.0
846.74567,52.0
847.08435,74.0
847.42316,58.0
847.76215,23.0
848.10126,65.0
848.4405,42.0
848.77985,32.0
849.1194,52.0
849.45905,55.0
849.7988,26.0
850.13873,47.0
850.47876,39.0
850.819,30.0
851.1593,61.0
851.49976,26.0
851.84033,29.0
852.1811,71.0
852.522,30.0
852.863,39.0
853.2041,60.0
853.5454,37.0
853.88684,34.0
854.2284,68.0
854.57007,23.0
854.9119,102.0
855.2539,54.0
855.596,29.0
855.93823,65.0
856.2806,67.0
856.6231,27.0
856.96576,71.0
857.30853,67.0
857.6514,29.0
857.9945,72.0
858.3377,56.0
858.681,36.0
859.0245,62.0
859.3681,44.0
859.71185,23.0
860.0557,54.0
860.3997,74.0
860.7439,330.0
861.0882,279.0
861.4326,50.0
861.77716,182.0
862.1219,119.0
862.46674,55.0
862.8117,107.0
863.15686,79.0
863.50214,29.0
863.84753,52.0
864.19305,68.0
864.53876,31.0
864.8846,37.0
865.2305,73.0
865.5766,35.0
865.92285,33.0
866.2692,81.0
866.6157,22.0
866.96234,81.0
867.30914,57.0
867.65607,20.0
868.0031,56.0
868.35034,61.0
868.6977,20.0
869.04517,51.0
869.39276,49.0
869.74054,28.0
870.08844,43.0
870.43646,46.0
870.7846,38.0
871.13293,41.0
871.4814,30.0
871.82996,23.0
872.1787,58.0
872.5276,29.0
872.8766,63.0
873.2257,49.0
873.575,22.0
873.92444,42.0
874.274,76.0
874.6237,24.0
874.9736,48.0
875.32355,81.0
875.6737,27.0
876.024,48.0
876.3744,62.0
876.7249,72.0
877.0756,70.0
877.42645,52.0
877.7774,58.0
878.12854,51.0
878.4798,48.0
878.8312,43.0
879.18274,54.0
879.5344,27.0
879.8862,47.0
880.23816,72.0
880.5903,28.0
880.9425,62.0
881.29486,60.0
881.6474,25.0
882.00006,37.0
882.35284,43.0
882.7058,31.0
883.0589,69.0
883.4121,62.0
883.7655,36.0
884.119,48.0
884.47266,47.0
884.8264,36.0
885.18036,63.0
885.5344,33.0
885.8886,35.0
886.243,59.0
886.5975,32.0
886.9521,31.0
887.3069,56.0
887.6618,28.0
888.01685,49.0
888.3721,28.0
888.7274,34.0
889.0829,43.0
889.43854,71.0
889.7943,33.0
890.1502,57.0
890.5063,67.0
890.8625,42.0
891.2188,62.0
891.5753,28.0
891.93195,31.0
892.2887,78.0
892.6456,30.0
893.0027,43.0
893.35986,73.0
893.7172,21.0
894.0747,40.0
894.4323,60.0
894.7901,36.0
895.148,49.0
895.50604,41.0
895.86426,39.0
896.2226,54.0
896.58105,31.0
896.9397,36.0
897.29846,68.0
897.6574,20.0
898.0165,32.0
898.3757,55.0
898.73505,31.0
899.09454,47.0
899.45416,43.0
899.81396,14.0
900.1739,64.0
900.53394,41.0
900.89417,34.0
901.2545,68.0
901.615,25.0
901.97565,30.0
902.3364,64.0
902.6974,30.0
903.0585,40.0
903.4197,49.0
903.78107,26.0
904.1426,57.0
904.5042,46.0
904.866,45.0
905.22797,69.0
905.5901,27.0
905.95233,34.0
906.3147,66.0
906.67725,21.0
907.0399,36.0
907.4027,51.0
907.7657,24.0
908.1288,46.0
908.49207,44.0
908.85547,16.0
909.219,62.0
909.5827,31.0
909.94653,38.0
910.3105,68.0
910.6746,29.0
911.0389,34.0
911.4033,48.0
911.7679,21.0
912.13257,37.0
912.49744,41.0
912.8624,19.0
913.2276,55.0
913.5929,33.0
913.9583,25.0
914.3239,57.0
914.68964,22.0
915.05554,38.0
915.4216,37.0
915.7877,23.0
916.15405,55.0
916.5205,34.0
916.88715,26.0
917.2539,71.0
917.6208,21.0
917.98785,40.0
918.35504,62.0
918.7224,23.0
919.0899,61.0
919.4575,40.0
919.8253,28.0
920.19324,84.0
920.56134,19.0
920.92957,25.0
921.2979,61.0
921.66644,19.0
922.0351,32.0
922.40393,58.0
922.7729,21.0
923.14197,58.0
923.5112,51.0
923.8806,38.0
924.2502,49.0
924.6199,24.0
924.98975,23.0
925.35974,59.0
925.72986,29.0
926.10016,56.0
926.4706,56.0
926.8412,38.0
927.2119,48.0
927.5828,31.0
927.95386,32.0
928.325,45.0
928.69635,20.0
929.0678,36.0
929.43945,57.0
929.8112,30.0
930.18317,65.0
930.55524,44.0
930.9274,39.0
931.2998,47.0
931.6723,19.0
932.045,40.0
932.4178,38.0
932.7908,23.0
933.1639,67.0
933.5372,47.0
933.9106,37.0
934.2841,67.0
934.65784,28.0
935.0317,34.0
935.4057,67.0
935.77985,27.0
936.1542,46.0
936.5286,24.0
936.90326,35.0
937.278,60.0
937.65295,30.0
938.028,51.0
938.4032,64.0
938.77856,18.0
939.15405,56.0
939.5297,41.0
939.9055,31.0
940.2815,59.0
940.6576,29.0
941.0339,32.0
941.4103,43.0
941.78687,30.0
942.1636,42.0
942.54047,38.0
942.9175,41.0
943.2947,55.0
943.672,32.0
944.04944,57.0
944.42706,53.0
944.8048,16.0
945.18274,47.0
945.5608,26.0
945.939,38.0
946.3174,46.0
946.6959,18.0
947.0746,35.0
947.4534,53.0
947.8324,22.0
948.21155,60.0
948.5908,32.0
948.9703,35.0
949.34985,63.0
949.7296,15.0
950.1095,35.0
950.48956,26.0
950.86975,28.0
951.2501,49.0
951.6306,34.0
952.0113,32.0
952.3921,57.0
952.7731,25.0
953.1542,59.0
953.53546,33.0
953.9169,29.0
954.29846,65.0
954.6802,28.0
955.0621,31.0
955.4441,67.0
955.8263,18.0
956.2086,50.0
956.5911,36.0
956.97375,35.0
957.35657,39.0
957.7395,23.0
958.1226,36.0
958.50586,43.0
958.8893,40.0
959.2728,58.0
959.65656,21.0
960.0404,39.0
960.42444,52.0
960.8086,18.0
961.19293,49.0
961.5774,32.0
961.96204,38.0
962.3468,48.0
962.73175,27.0
963.1168,39.0
963.5021,32.0
963.88745,37.0
964.273,44.0
964.6587,25.0
965.04456,42.0
965.4306,52.0
965.8168,33.0
966.2031,46.0
966.5896,29.0
966.97626,40.0
967.36304,58.0
967.75,29.0
968.1371,50.0
968.52435,42.0
968.91174,36.0
969.2993,63.0
969.687,28.0
970.0749,57.0
970.4629,56.0
970.8511,42.0
971.23944,58.0
971.6279,37.0
972.0166,42.0
972.4054,60.0
972.7944,29.0
973.1835,54.0
973.57275,38.0
973.96216,40.0
974.35175,55.0
974.7415,25.0
975.1314,42.0
975.5215,42.0
975.9117,31.0
976.30206,46.0
976.69257,15.0
977.08325,37.0
977.47406,81.0
977.86505,31.0
978.2562,46.0
978.6475,25.0
979.039,34.0
979.4306,49.0
979.8224,27.0
980.2143,59.0
980.6064,25.0
980.99866,39.0
981.39105,46.0
981.7836,28.0
982.17633,58.0
982.5692,37.0
982.9622,36.0
983.3554,50.0
983.7488,24.0
984.1423,40.0
984.53595,40.0
984.92975,34.0
985.3237,70.0
985.71783,34.0
986.1121,57.0
986.5066,44.0
986.9012,37.0
987.29596,49.0
987.69086,32.0
988.08594,48.0
988.4812,43.0
988.8766,30.0
989.27216,58.0
989.66785,21.0
990.0637,40.0
990.4597,46.0
990.8559,28.0
991.25226,39.0
991.64874,21.0
992.0454,60.0
992.4422,45.0
992.8392,32.0
993.2363,57.0
993.6336,29.0
994.03107,40.0
994.42865,62.0
994.8264,32.0
995.22437,50.0
995.62244,27.0
996.0207,36.0
996.4191,45.0
996.8177,30.0
997.21643,49.0
997.6153,16.0
998.01434,34.0
998.4136,46.0
998.8129,27.0
999.21246,54.0
999.6121,32.0
1000.01196,37.0
1000.412,53.0
1000.81213,37.0
1001.21246,51.0
1001.613,36.0
1002.0136,30.0
1002.4144,61.0
1002.81537,29.0
1003.2165,57.0
1003.6178,30.0
1004.0192,56.0
1004.42084,60.0
1004.82263,31.0
1005.22455,62.0
1005.62665,35.0
1006.0289,50.0
1006.4313,55.0
1006.83386,37.0
1007.2366,51.0
1007.63947,28.0
1008.04254,56.0
1008.44574,52.0
1008.8491,44.0
1009.2527,45.0
1009.6564,38.0
1010.06024,45.0
1010.4643,43.0
1010.86847,31.0
1011.2728,61.0
1011.6773,31.0
1012.082,38.0
1012.4868,39.0
1012.8918,44.0
1013.29694,72.0
1013.7023,43.0
1014.1077,85.0
1014.51337,51.0
1014.9192,70.0
1015.32513,62.0
1015.73126,36.0
1016.1376,61.0
1016.544,33.0
1016.9506,36.0
1017.3574,50.0
1017.76434,23.0
1018.17145,44.0
1018.57874,37.0
1018.98615,32.0
1019.39374,42.0
1019.8015,31.0
1020.2094,52.0
1020.6175,32.0
1021.02576,28.0
1021.43414,76.0
1021.8427,30.0
1022.25146,66.0
1022.66034,31.0
1023.0694,30.0
1023.47864,51.0
1023.888,37.0
1024.2976,49.0
1024.7073,25.0
1025.1172,33.0
1025.5272,36.0
1025.9374,34.0
1026.3478,76.0
1026.7583,27.0
1027.169,45.0
1027.5798,31.0
1027.9908,54.0
1028.4021,41.0
1028.8135,41.0
1029.225,50.0
1029.6367,44.0
1030.0486,71.0
1030.4606,53.0
1030.8728,45.0
1031.2852,57.0
1031.6976,29.0
1032.1104,58.0
1032.5232,31.0
1032.9362,26.0
1033.3494,52.0
1033.7627,48.0
1034.1761,48.0
1034.5898,36.0
1035.0037,37.0
1035.4177,36.0
1035.8319,41.0
1036.2462,38.0
1036.6608,31.0
1037.0754,50.0
1037.4902,49.0
1037.9053,44.0
1038.3204,51.0
1038.7357,28.0
1039.1512,48.0
1039.5669,37.0
1039.9827,28.0
1040.3987,48.0
1040.8148,34.0
1041.2312,64.0
1041.6477,36.0
1042.0643,22.0
1042.4812,47.0
1042.8982,33.0
1043.3153,64.0
1043.7327,47.0
1044.1501,46.0
1044.5677,34.0
1044.9856,43.0
1045.4036,38.0
1045.8218,33.0
1046.2401,59.0
1046.6586,29.0
1047.0773,39.0
1047.4961,44.0
1047.915,41.0
1048.3342,56.0
1048.7535,30.0
1049.1731,52.0
1049.5928,59.0
1050.0126,107.0
1050.4326,54.0
1050.8528,81.0
1051.2731,69.0
1051.6936,43.0
1052.1143,65.0
1052.5352,36.0
1052.9562,50.0
1053.3773,64.0
1053.7987,43.0
1054.2202,34.0
1054.6418,33.0
1055.0637,39.0
1055.4857,37.0
1055.908,41.0
1056.3303,53.0
1056.7528,39.0
1057.1755,57.0
1057.5984,49.0
1058.0215,35.0
1058.4447,63.0
1058.868,41.0
1059.2916,57.0
1059.7153,39.0
1060.1392,49.0
1060.5632,64.0
1060.9874,40.0
1061.4119,58.0
1061.8364,31.0
1062.2611,41.0
1062.686,35.0
1063.1111,50.0
1063.5364,35.0
1063.9618,37.0
1064.3873,62.0
1064.8131,29.0
1065.239,50.0
1065.6652,83.0
1066.0914,87.0
1066.5178,47.0
1066.9445,81.0
1067.3712,43.0
1067.7982,45.0
1068.2253,53.0
1068.6526,32.0
1069.0801,55.0
1069.5077,45.0
1069.9355,35.0
1070.3635,52.0
1070.7916,21.0
1071.22,63.0
1071.6484,51.0
1072.0771,63.0
1072.506,56.0
1072.9349,58.0
1073.3641,46.0
1073.7935,34.0
1074.223,58.0
1074.6527,29.0
1075.0825,46.0
1075.5126,53.0
1075.9427,41.0
1076.3732,49.0
1076.8037,34.0
1077.2344,52.0
1077.6653,37.0
1078.0963,40.0
1078.5276,40.0
1078.959,50.0
1079.3906,50.0
1079.8224,40.0
1080.2543,48.0
1080.6864,37.0
1081.1187,37.0
1081.5511,37.0
1081.9838,53.0
1082.4165,51.0
1082.8495,24.0
1083.2826,42.0
1083.716,34.0
1084.1494,28.0
1084.5831,38.0
1085.017,38.0
1085.4509,38.0
1085.8851,32.0
1086.3195,43.0
1086.754,25.0
1087.1887,47.0
1087.6235,46.0
1088.0586,42.0
1088.4938,45.0
1088.9292,36.0
1089.3647,49.0
1089.8005,40.0
1090.2365,66.0
1090.6725,31.0
1091.1088,63.0
1091.5452,52.0
1091.9818,38.0
1092.4186,59.0
1092.8556,28.0
1093.2927,56.0
1093.7301,39.0
1094.1676,42.0
1094.6052,25.0
1095.0431,35.0
1095.4811,48.0
1095.9193,49.0
1096.3577,61.0
1096.7963,26.0
1097.235,51.0
1097.6738,35.0
1098.1129,46.0
1098.5521,52.0
1098.9916,25.0
1099.4312,53.0
1099.871,37.0
1100.3109,47.0
1100.751,38.0
1101.1913,44.0
1101.6317,29.0
1102.0724,38.0
1102.5132,42.0
1102.9542,38.0
1103.3954,60.0
1103.8368,33.0
1104.2783,51.0
1104.72,37.0
1105.1619,46.0
1105.6039,37.0
1106.0461,34.0
1106.4885,46.0
1106.9312,35.0
1107.3739,54.0
1107.8169,26.0
1108.26,59.0
1108.7034,24.0
1109.1469,38.0
1109.5905,46.0
1110.0343,30.0
1110.4783,55.0
1110.9225,30.0
1111.3668,45.0
1111.8114,27.0
1112.2561,56.0
1112.701,29.0
1113.1461,46.0
1113.5914,52.0
1114.0369,23.0
1114.4824,44.0
1114.9282,25.0
1115.3741,44.0
1115.8203,37.0
1116.2666,41.0
1116.7131,33.0
1117.1598,36.0
1117.6067,45.0
1118.0537,40.0
1118.501,47.0
1118.9484,25.0
1119.396,46.0
1119.8438,37.0
1120.2917,40.0
1120.7399,31.0
1121.1881,49.0
1121.6366,43.0
1122.0852,40.0
1122.534,35.0
1122.983,39.0
1123.4323,54.0
1123.8816,33.0
1124.3312,51.0
1124.7809,36.0
1125.2308,62.0
1125.6809,24.0
1126.1312,31.0
1126.5817,35.0
1127.0323,33.0
1127.4832,39.0
1127.9342,42.0
1128.3854,55.0
1128.8367,20.0
1129.2882,56.0
1129.7399,31.0
1130.1918,40.0
1130.6438,37.0
1131.0961,33.0
1131.5485,61.0
1132.0011,33.0
1132.4539,52.0
1132.9069,30.0
1133.36,56.0
1133.8134,27.0
1134.2668,61.0
1134.7206,30.0
1135.1744,54.0
1135.6285,35.0
1136.0828,50.0
1136.5372,40.0
1136.9918,38.0
1137.4467,45.0
1137.9016,28.0
1138.3568,62.0
1138.8121,32.0
1139.2677,59.0
1139.7234,32.0
1140.1793,37.0
1140.6354,35.0
1141.0917,35.0
1141.5481,43.0
1142.0048,38.0
1142.4615,39.0
1142.9186,29.0
1143.3757,52.0
1143.8331,25.0
1144.2906,44.0
1144.7484,39.0
1145.2063,40.0
1145.6644,34.0
1146.1227,33.0
1146.5812,38.0
1147.0398,33.0
1147.4987,51.0
1147.9576,23.0
1148.4169,67.0
1148.8762,34.0
1149.3358,77.0
1149.7955,39.0
1150.2555,58.0
1150.7156,27.0
1151.1759,51.0
1151.6364,29.0
1152.097,43.0
1152.5579,54.0
1153.0189,38.0
1153.4801,50.0
1153.9415,31.0
1154.4031,62.0
1154.8649,36.0
1155.3268,43.0
1155.789,22.0
1156.2512,51.0
1156.7137,31.0
1157.1764,36.0
1157.6393,34.0
1158.1023,40.0
1158.5656,52.0
1159.0289,35.0
1159.4926,59.0
1159.9563,33.0
1160.4203,42.0
1160.8844,27.0
1161.3488,51.0
1161.8134,30.0
1162.2781,58.0
1162.743,28.0
1163.2081,44.0
1163.6735,26.0
1164.1389,41.0
1164.6046,44.0
1165.0704,55.0
1165.5365,53.0
1166.0027,41.0
1166.4691,46.0
1166.9357,24.0
1167.4025,52.0
1167.8694,29.0
1168.3365,55.0
1168.8038,34.0
1169.2714,55.0
1169.739,39.0
1170.2069,44.0
1170.675,30.0
1171.1433,42.0
1171.6118,45.0
1172.0804,43.0
1172.5493,49.0
1173.0183,33.0
1173.4875,51.0
1173.9569,21.0
1174.4265,51.0
1174.8962,27.0
1175.3662,59.0
1175.8363,33.0
1176.3066,50.0
1176.7772,35.0
1177.2479,60.0
1177.7189,35.0
1178.19,52.0
1178.6613,39.0
1179.1327,48.0
1179.6044,39.0
1180.0762,33.0
1180.5482,47.0
1181.0204,43.0
1181.4928,55.0
1181.9655,25.0
1182.4382,44.0
1182.9113,31.0
1183.3844,48.0
1183.8578,35.0
1184.3313,48.0
1184.805,24.0
1185.2789,84.0
1185.753,35.0
1186.2273,50.0
1186.7018,40.0
1187.1765,42.0
1187.6514,38.0
1188.1265,43.0
1188.6017,36.0
1189.0771,30.0
1189.5527,44.0
1190.0286,34.0
1190.5045,51.0
1190.9807,36.0
1191.4572,70.0
1191.9337,19.0
1192.4105,57.0
1192.8875,43.0
1193.3646,57.0
1193.8419,27.0
1194.3195,52.0
1194.7972,28.0
1195.2751,38.0
1195.7533,30.0
1196.2316,38.0
1196.7101,50.0
1197.1887,47.0
1197.6676,47.0
1198.1467,56.0
1198.626,47.0
1199.1055,44.0
1199.5851,51.0
1200.065,34.0
1200.5449,39.0
1201.0251,28.0
1201.5056,64.0
1201.9862,37.0
1202.467,47.0
1202.948,38.0
1203.4292,62.0
1203.9105,40.0
1204.3921,48.0
1204.8739,38.0
1205.3558,45.0
1205.838,32.0
1206.3203,56.0
1206.8029,30.0
1207.2855,55.0
1207.7684,25.0
1208.2516,39.0
1208.7349,27.0
1209.2184,52.0
1209.702,45.0
1210.1859,51.0
1210.67,29.0
1211.1543,38.0
1211.6388,55.0
1212.1234,39.0
1212.6083,22.0
1213.0933,31.0
1213.5785,37.0
1214.064,28.0
1214.5496,41.0
1215.0354,34.0
1215.5214,51.0
1216.0076,36.0
1216.494,47.0
1216.9806,46.0
1217.4674,41.0
1217.9543,43.0
1218.4415,47.0
1218.929,48.0
1219.4165,66.0
1219.9043,41.0
1220.3922,50.0
1220.8804,36.0
1221.3688,59.0
1221.8573,38.0
1222.3461,38.0
1222.835,35.0
1223.3241,49.0
1223.8135,34.0
1224.303,38.0
1224.7927,33.0
1225.2826,49.0
1225.7727,32.0
1226.2631,45.0
1226.7535,29.0
1227.2443,58.0
1227.7351,40.0
1228.2262,54.0
1228.7175,40.0
1229.209,47.0
1229.7007,25.0
1230.1925,47.0
1230.6846,41.0
1231.1769,44.0
1231.6693,32.0
1232.162,29.0
1232.6549,47.0
1233.148,43.0
1233.6412,38.0
1234.1346,44.0
1234.6283,38.0
1235.1222,35.0
1235.6162,48.0
1236.1105,35.0
1236.6049,57.0
1237.0995,39.0
1237.5944,34.0
1238.0894,31.0
1238.5846,56.0
1239.0801,32.0
1239.5757,39.0
1240.0715,42.0
1240.5675,43.0
1241.0637,36.0
1241.5602,43.0
1242.0568,43.0
1242.5536,33.0
1243.0507,30.0
1243.5479,47.0
1244.0453,37.0
1244.5428,44.0
1245.0406,29.0
1245.5387,48.0
1246.0369,33.0
1246.5353,60.0
1247.0339,42.0
1247.5327,58.0
1248.0317,36.0
1248.531,44.0
1249.0304,38.0
1249.53,43.0
1250.0298,43.0
1250.5298,57.0
1251.03,31.0
1251.5304,58.0
1252.031,26.0
1252.5319,53.0
1253.0328,27.0
1253.534,27.0
1254.0355,34.0
1254.5371,53.0
1255.039,45.0
1255.541,38.0
1256.0432,46.0
1256.5457,46.0
1257.0482,47.0
1257.551,43.0
1258.0541,38.0
1258.5573,38.0
1259.0607,28.0
1259.5643,46.0
1260.0681,33.0
1260.5721,45.0
1261.0764,48.0
1261.5808,48.0
1262.0854,29.0
1262.5903,59.0
1263.0953,50.0
1263.6006,60.0
1264.1061,37.0
1264.6117,44.0
1265.1176,28.0
1265.6237,36.0
1266.1299,44.0
1266.6364,41.0
1267.1431,53.0
1267.6499,38.0
1268.157,43.0
1268.6642,45.0
1269.1716,34.0
1269.6793,37.0
1270.1871,43.0
1270.6952,44.0
1271.2035,38.0
1271.7119,42.0
1272.2206,39.0
1272.7295,34.0
1273.2385,49.0
1273.7478,39.0
1274.2573,52.0
1274.767,38.0
1275.2769,37.0
1275.787,34.0
1276.2972,44.0
1276.8077,55.0
1277.3185,45.0
1277.8295,67.0
1278.3406,43.0
1278.8519,35.0
1279.3635,53.0
1279.8752,46.0
1280.3872,47.0
1280.8994,34.0
1281.4117,34.0
1281.9243,28.0
1282.4371,45.0
1282.9501,45.0
1283.4633,43.0
1283.9767,28.0
1284.4902,46.0
1285.004,40.0
1285.5181,41.0
1286.0322,31.0
1286.5466,45.0
1287.0613,29.0
1287.576,42.0
1288.0911,37.0
1288.6063,41.0
1289.1218,34.0
1289.6375,47.0
1290.1533,34.0
1290.6694,43.0
1291.1857,42.0
1291.7021,55.0
1292.2189,46.0
1292.7357,43.0
1293.2528,55.0
1293.7701,37.0
1294.2876,48.0
1294.8053,39.0
1295.3232,55.0
1295.8414,18.0
1296.3597,35.0
1296.8783,30.0
1297.3971,42.0
1297.916,31.0
1298.4352,36.0
1298.9546,30.0
1299.4741,56.0
1299.9939,32.0
1300.5139,46.0
1301.0342,41.0
1301.5546,62.0
1302.0752,41.0
1302.5961,67.0
1303.1171,32.0
1303.6383,48.0
1304.1598,43.0
1304.6814,54.0
1305.2032,34.0
1305.7253,52.0
1306.2477,48.0
1306.7701,42.0
1307.2928,44.0
1307.8158,19.0
1308.3389,50.0
1308.8622,35.0
1309.3857,53.0
1309.9095,40.0
1310.4335,54.0
1310.9576,46.0
1311.482,33.0
1312.0066,39.0
1312.5314,39.0
1313.0564,39.0
1313.5817,55.0
1314.107,32.0
1314.6327,47.0
1315.1586,51.0
1315.6847,38.0
1316.2109,42.0
1316.7374,40.0
1317.2642,50.0
1317.791,38.0
1318.3181,46.0
1318.8455,41.0
1319.373,44.0
1319.9008,43.0
1320.4287,50.0
1320.9569,22.0
1321.4854,37.0
1322.0139,36.0
1322.5427,42.0
1323.0718,30.0
1323.601,37.0
1324.1304,38.0
1324.66,28.0
1325.19,32.0
1325.72,37.0
1326.2502,43.0
1326.7808,50.0
1327.3115,42.0
1327.8424,39.0
1328.3735,45.0
1328.9049,32.0
1329.4365,66.0
1329.9683,21.0
1330.5002,55.0
1331.0325,37.0
1331.565,46.0
1332.0975,34.0
1332.6304,48.0
1333.1635,42.0
1333.6968,50.0
1334.2302,30.0
1334.7639,50.0
1335.2979,44.0
1335.832,38.0
1336.3663,38.0
1336.9009,38.0
1337.4357,47.0
1337.9707,21.0
1338.5059,43.0
1339.0413,32.0
1339.5769,56.0
1340.1128,35.0
1340.6488,45.0
1341.185,29.0
1341.7216,38.0
1342.2583,51.0
1342.7952,37.0
1343.3323,60.0
1343.8696,33.0
1344.4072,46.0
1344.945,36.0
1345.4829,56.0
1346.0211,39.0
1346.5596,44.0
1347.0981,34.0
1347.637,50.0
1348.176,31.0
1348.7153,37.0
1349.2548,43.0
1349.7944,35.0
1350.3344,52.0
1350.8745,28.0
1351.4149,45.0
1351.9554,34.0
1352.4962,39.0
1353.0372,22.0
1353.5785,36.0
1354.1199,33.0
1354.6615,44.0
1355.2034,38.0
1355.7455,41.0
1356.2878,44.0
1356.8303,38.0
1357.373,62.0
1357.916,45.0
1358.4592,32.0
1359.0026,26.0
1359.5461,43.0
1360.09,29.0
1360.634,44.0
1361.1783,45.0
1361.7228,58.0
1362.2675,50.0
1362.8124,43.0
1363.3575,37.0
1363.9028,25.0
1364.4484,57.0
1364.9941,26.0
1365.5402,49.0
1366.0864,31.0
1366.6328,54.0
1367.1794,29.0
1367.7263,44.0
1368.2734,37.0
1368.8208,55.0
1369.3683,44.0
1369.916,29.0
1370.464,53.0
1371.0122,31.0
1371.5607,58.0
1372.1093,42.0
1372.6581,46.0
1373.2072,49.0
1373.7565,40.0
1374.306,45.0
1374.8557,41.0
1375.4056,60.0
1375.9558,26.0
1376.5062,61.0
1377.0569,31.0
1377.6077,55.0
1378.1587,46.0
1378.71,56.0
1379.2615,47.0
1379.8132,40.0
1380.3651,52.0
1380.9172,43.0
1381.4696,43.0
1382.0222,36.0
1382.5751,52.0
1383.128,45.0
1383.6813,42.0
1384.2347,42.0
1384.7885,35.0
1385.3424,40.0
1385.8965,38.0
1386.4508,50.0
1387.0054,37.0
1387.5602,51.0
1388.1152,45.0
1388.6705,45.0
1389.226,45.0
1389.7816,36.0
1390.3375,41.0
1390.8937,37.0
1391.4501,52.0
1392.0067,38.0
1392.5635,52.0
1393.1205,33.0
1393.6777,40.0
1394.2352,37.0
1394.793,34.0
1395.3508,42.0
1395.9089,34.0
1396.4673,53.0
1397.0259,45.0
1397.5847,38.0
1398.1438,39.0
1398.703,39.0
1399.2625,49.0
1399.8221,43.0
1400.3821,56.0
1400.9423,38.0
1401.5027,44.0
1402.0632,37.0
1402.624,37.0
1403.185,41.0
1403.7463,43.0
1404.3079,42.0
1404.8696,45.0
1405.4315,63.0
1405.9937,40.0
1406.556,54.0
1407.1187,47.0
1407.6815,58.0
1408.2446,48.0
1408.808,37.0
1409.3715,34.0
1409.9352,30.0
1410.4991,54.0
1411.0634,38.0
1411.6278,42.0
1412.1925,49.0
1412.7573,38.0
1413.3224,60.0
1413.8877,27.0
1414.4532,61.0
1415.019,34.0
1415.5851,41.0
1416.1514,34.0
1416.7178,45.0
1417.2844,53.0
1417.8513,46.0
1418.4185,45.0
1418.9858,39.0
1419.5535,54.0
1420.1213,36.0
1420.6893,62.0
1421.2576,50.0
1421.826,54.0
1422.3948,53.0
1422.9637,38.0
1423.533,64.0
1424.1024,54.0
1424.672,50.0
1425.2418,39.0
1425.8119,50.0
1426.3822,63.0
1426.9528,40.0
1427.5236,50.0
1428.0946,27.0
1428.6659,40.0
1429.2373,43.0
1429.809,43.0
1430.3809,59.0
1430.953,36.0
1431.5254,65.0
1432.098,57.0
1432.6709,48.0
1433.244,50.0
1433.8173,54.0
1434.3907,58.0
1434.9645,42.0
1435.5385,47.0
1436.1127,42.0
1436.6871,49.0
1437.2618,38.0
1437.8368,39.0
1438.412,45.0
1438.9873,50.0
1439.5629,48.0
1440.1387,34.0
1440.7147,54.0
1441.291,45.0
1441.8676,45.0
1442.4443,52.0
1443.0214,31.0
1443.5985,49.0
1444.1759,56.0
1444.7535,50.0
1445.3314,48.0
1445.9095,39.0
1446.4879,53.0
1447.0665,39.0
1447.6454,57.0
1448.2245,46.0
1448.8038,55.0
1449.3833,64.0
1449.963,49.0
1450.543,59.0
1451.1232,38.0
1451.7036,52.0
1452.2843,46.0
1452.8652,45.0
1453.4464,51.0
1454.0278,41.0
1454.6095,66.0
1455.1913,49.0
1455.7733,48.0
1456.3556,52.0
1456.9381,31.0
1457.5209,56.0
1458.1039,34.0
1458.6871,55.0
1459.2706,48.0
1459.8544,47.0
1460.4384,59.0
1461.0226,31.0
1461.6069,77.0
1462.1915,59.0
1462.7764,51.0
1463.3615,68.0
1463.9468,41.0
1464.5323,59.0
1465.1182,40.0
1465.7042,50.0
1466.2905,55.0
1466.8771,28.0
1467.4639,61.0
1468.0509,34.0
1468.6382,45.0
1469.2256,52.0
1469.8132,37.0
1470.4011,59.0
1470.9893,38.0
1471.5776,43.0
1472.1663,35.0
1472.7551,32.0
1473.3442,45.0
1473.9336,40.0
1474.5232,50.0
1475.113,44.0
1475.7031,61.0
1476.2935,51.0
1476.884,33.0
1477.4747,45.0
1478.0657,32.0
1478.6569,58.0
1479.2483,46.0
1479.84,40.0
1480.4319,51.0
1481.024,35.0
1481.6165,64.0
1482.2091,40.0
1482.802,37.0
1483.3951,59.0
1483.9885,38.0
1484.5822,52.0
1485.176,49.0
1485.7701,47.0
1486.3645,40.0
1486.9591,37.0
1487.5538,48.0
1488.1488,36.0
1488.744,49.0
1489.3395,56.0
1489.9352,34.0
1490.5311,51.0
1491.1273,43.0
1491.7238,42.0
1492.3204,47.0
1492.9174,25.0
1493.5145,55.0
1494.1119,35.0
1494.7096,58.0
1495.3075,54.0
1495.9056,42.0
1496.504,55.0
1497.1027,41.0
1497.7015,45.0
1498.3007,48.0
1498.9,47.0
1499.4996,44.0
1500.0995,33.0
1500.6996,51.0
1501.2998,38.0
1501.9003,31.0
1502.501,41.0
1503.1019,32.0
1503.7031,53.0
1504.3046,52.0
1504.9062,38.0
1505.5082,51.0
1506.1104,41.0
1506.7128,37.0
1507.3154,56.0
1507.9183,41.0
1508.5215,49.0
1509.1249,37.0
1509.7285,48.0
1510.3324,45.0
1510.9365,29.0
1511.5409,47.0
1512.1455,38.0
1512.7504,88.0
1513.3555,77.0
1513.9608,57.0
1514.5664,65.0
1515.1722,39.0
1515.7783,57.0
1516.3846,46.0
1516.9912,36.0
1517.598,58.0
1518.2051,48.0
1518.8124,35.0
1519.4199,60.0
1520.0277,36.0
1520.6357,52.0
1521.244,51.0
1521.8525,34.0
1522.4613,43.0
1523.0703,25.0
1523.6796,49.0
1524.2891,51.0
1524.8988,46.0
1525.5088,51.0
1526.119,41.0
1526.7295,49.0
1527.3402,42.0
1527.9512,38.0
1528.5624,57.0
1529.1738,44.0
1529.7855,40.0
1530.3975,49.0
1531.0096,28.0
1531.6221,48.0
1532.2347,44.0
1532.8477,40.0
1533.4608,55.0
1534.0742,43.0
1534.6879,54.0
1535.3018,37.0
1535.9159,28.0
1536.5303,44.0
1537.1449,43.0
1537.7598,47.0
1538.3749,53.0
1538.9902,36.0
1539.6058,35.0
1540.2217,25.0
1540.8378,40.0
1541.4541,38.0
1542.0707,38.0
1542.6875,54.0
1543.3046,46.0
1543.9219,45.0
1544.5394,48.0
1545.1572,43.0
1545.7753,39.0
1546.3936,39.0
1547.0121,40.0
1547.6309,56.0
1548.2499,31.0
1548.8691,30.0
1549.4886,46.0
1550.1084,29.0
1550.7284,41.0
1551.3486,57.0
1551.9691,29.0
1552.5898,57.0
1553.2109,42.0
1553.8323,38.0
1554.4539,56.0
1555.0757,37.0
1555.6978,46.0
1556.3201,36.0
1556.9426,37.0
1557.5654,50.0
1558.1885,39.0
1558.8118,48.0
1559.4353,66.0
1560.0591,46.0
1560.6831,50.0
1561.3074,50.0
1561.9319,34.0
1562.5566,57.0
1563.1816,41.0
1563.8069,43.0
1564.4324,62.0
1565.0581,35.0
1565.6841,49.0
1566.3103,36.0
1566.9368,41.0
1567.5636,47.0
1568.1907,48.0
1568.818,39.0
1569.4456,37.0
1570.0734,41.0
1570.7014,44.0
1571.3297,41.0
1571.9583,34.0
1572.587,46.0
1573.2161,40.0
1573.8453,39.0
1574.4749,51.0
1575.1046,39.0
1575.7346,55.0
1576.3649,45.0
1576.9954,38.0
1577.6261,30.0
1578.2572,46.0
1578.8885,44.0
1579.5201,56.0
1580.152,45.0
1580.784,47.0
1581.4164,51.0
1582.049,39.0
1582.6818,48.0
1583.3148,37.0
1583.9481,37.0
1584.5817,46.0
1585.2155,36.0
1585.8495,45.0
1586.4839,65.0
1587.1185,35.0
1587.7534,51.0
1588.3885,56.0
1589.0239,38.0
1589.6595,33.0
1590.2954,39.0
1590.9315,40.0
1591.5679,49.0
1592.2045,43.0
1592.8413,42.0
1593.4784,55.0
1594.1158,43.0
1594.7535,43.0
1595.3915,51.0
1596.0297,35.0
1596.6681,53.0
1597.3068,58.0
1597.9457,47.0
1598.5848,44.0
1599.2242,47.0
1599.8639,54.0
1600.5038,54.0
1601.144,45.0
1601.7845,39.0
1602.4253,44.0
1603.0663,36.0
1603.7075,57.0
1604.349,54.0
1604.9907,38.0
1605.6327,43.0
1606.2749,48.0
1606.9174,41.0
1607.5602,46.0
1608.2032,43.0
1608.8466,46.0
1609.4901,53.0
1610.1339,28.0
1610.778,51.0
1611.4222,41.0
1612.0668,43.0
1612.7115,42.0
1613.3567,39.0
1614.0021,46.0
1614.6477,50.0
1615.2936,46.0
1615.9397,33.0
1616.586,55.0
1617.2327,52.0
1617.8795,49.0
1618.5266,40.0
1619.1741,32.0
1619.8218,44.0
1620.4697,40.0
1621.1179,36.0
1621.7664,55.0
1622.415,60.0
1623.064,50.0
1623.7131,46.0
1624.3627,52.0
1625.0125,44.0
1625.6625,53.0
1626.3127,46.0
1626.9633,51.0
1627.614,53.0
1628.265,49.0
1628.9163,34.0
1629.5679,65.0
1630.2197,52.0
1630.8718,61.0
1631.5242,49.0
1632.1768,48.0
1632.8296,45.0
1633.4827,41.0
1634.1361,31.0
1634.7898,44.0
1635.4437,50.0
1636.0979,37.0
1636.7523,34.0
1637.407,38.0
1638.0619,48.0
1638.7172,58.0
1639.3727,44.0
1640.0284,29.0
1640.6844,50.0
1641.3407,42.0
1641.9972,48.0
1642.6539,45.0
1643.311,48.0
1643.9684,44.0
1644.626,74.0
1645.2838,84.0
1645.9419,39.0
1646.6002,61.0
1647.2589,52.0
1647.9178,37.0
1648.577,60.0
1649.2365,61.0
1649.8961,32.0
1650.556,41.0
1651.2163,44.0
1651.8768,46.0
1652.5376,41.0
1653.1986,43.0
1653.8599,36.0
1654.5214,38.0
1655.1832,44.0
1655.8453,48.0
1656.5077,48.0
1657.1703,39.0
1657.8331,43.0
1658.4962,34.0
1659.1597,32.0
1659.8234,47.0
1660.4873,36.0
1661.1515,34.0
1661.8159,35.0
1662.4806,49.0
1663.1456,38.0
1663.8109,50.0
1664.4764,49.0
1665.1422,48.0
1665.8082,50.0
1666.4746,36.0
1667.1412,36.0
1667.8081,45.0
1668.4752,35.0
1669.1426,33.0
1669.8102,39.0
1670.4781,44.0
1671.1464,43.0
1671.8148,48.0
1672.4835,46.0
1673.1525,47.0
1673.8218,56.0
1674.4913,36.0
1675.1611,46.0
1675.8312,46.0
1676.5015,51.0
1677.1721,35.0
1677.843,49.0
1678.5142,42.0
1679.1855,49.0
1679.8572,37.0
1680.5292,47.0
1681.2014,41.0
1681.8739,33.0
1682.5466,56.0
1683.2196,39.0
1683.893,45.0
1684.5665,52.0
1685.2404,35.0
1685.9144,43.0
1686.5887,37.0
1687.2634,37.0
1687.9384,38.0
1688.6135,42.0
1689.289,46.0
1689.9646,41.0
1690.6406,45.0
1691.3169,46.0
1691.9934,44.0
1692.6702,48.0
1693.3473,54.0
1694.0247,38.0
1694.7023,39.0
1695.3801,41.0
1696.0582,28.0
1696.7367,43.0
1697.4154,41.0
1698.0944,43.0
1698.7736,56.0
1699.4531,33.0
1700.1329,35.0
1700.813,36.0
1701.4933,50.0
1702.1738,50.0
1702.8547,49.0
1703.5359,47.0
1704.2173,27.0
1704.8989,49.0
1705.5809,52.0
1706.2632,39.0
1706.9457,45.0
1707.6284,45.0
1708.3115,46.0
1708.9949,38.0
1709.6785,47.0
1710.3623,40.0
1711.0465,34.0
1711.731,35.0
1712.4156,38.0
1713.1006,30.0
1713.7858,41.0
1714.4713,35.0
1715.1571,45.0
1715.8431,55.0
1716.5294,52.0
1717.2161,47.0
1717.903,41.0
1718.5901,38.0
1719.2775,40.0
1719.9652,45.0
1720.6532,37.0
1721.3414,48.0
1722.0299,36.0
1722.7188,55.0
1723.4078,40.0
1724.0972,21.0
1724.7869,39.0
1725.4768,40.0
1726.167,40.0
1726.8574,47.0
1727.5482,44.0
1728.2393,32.0
1728.9305,53.0
1729.6221,38.0
1730.314,43.0
1731.0061,32.0
1731.6985,40.0
1732.3911,35.0
1733.0841,28.0
1733.7773,37.0
1734.4708,34.0
1735.1647,33.0
1735.8588,39.0
1736.5531,51.0
1737.2477,30.0
1737.9426,32.0
1738.6378,40.0
1739.3333,49.0
1740.0289,34.0
1740.725,45.0
1741.4213,42.0
1742.1178,38.0
1742.8147,29.0
1743.5118,41.0
1744.2092,28.0
1744.9069,37.0
1745.6049,38.0
1746.3031,37.0
1747.0016,44.0
1747.7004,47.0
1748.3995,48.0
1749.0989,41.0
1749.7985,36.0
1750.4984,36.0
1751.1986,29.0
1751.899,36.0
1752.5999,42.0
1753.3009,42.0
1754.0022,30.0
1754.7039,37.0
1755.4058,43.0
1756.1079,34.0
1756.8103,35.0
1757.5131,55.0
1758.2161,24.0
1758.9193,51.0
1759.6229,48.0
1760.3268,39.0
1761.0309,36.0
1761.7354,50.0
1762.4401,36.0
1763.145,25.0
1763.8502,40.0
1764.5558,41.0
1765.2616,33.0
1765.9677,38.0
1766.6741,45.0
1767.3807,45.0
1768.0876,38.0
1768.7949,41.0
1769.5024,46.0
1770.2102,29.0
1770.9183,25.0
1771.6267,43.0
1772.3353,34.0
1773.0443,38.0
1773.7535,48.0
1774.463,38.0
1775.1729,23.0
1775.8829,43.0
1776.5933,46.0
1777.304,38.0
1778.0149,28.0
1778.7261,34.0
1779.4376,39.0
1780.1494,28.0
1780.8615,46.0
1781.5739,51.0
1782.2865,34.0
1782.9994,31.0
1783.7126,42.0
1784.4261,46.0
1785.1399,37.0
1785.854,54.0
1786.5684,37.0
1787.283,33.0
1787.9979,44.0
1788.7131,43.0
1789.4286,48.0
1790.1444,25.0
1790.8605,31.0
1791.5768,45.0
1792.2935,27.0
1793.0104,39.0
1793.7275,45.0
1794.4451,29.0
1795.1628,25.0
1795.8809,52.0
1796.5992,38.0
1797.3179,49.0
1798.0367,28.0
1798.756,50.0
1799.4755,32.0
1800.1953,32.0
1800.9154,36.0
1801.6357,44.0
1802.3564,38.0
1803.0774,37.0
1803.7986,34.0
1804.5201,39.0
1805.242,43.0
1805.964,55.0
1806.6864,80.0
1807.409,30.0
1808.1321,32.0
1808.8553,56.0
1809.5789,56.0
1810.3027,34.0
1811.0269,39.0
1811.7512,41.0
1812.476,34.0
1813.2009,28.0
1813.9261,56.0
1814.6517,50.0
1815.3776,39.0
1816.1038,29.0
1816.8302,54.0
1817.5569,46.0
1818.2839,29.0
1819.0112,36.0
1819.7389,43.0
1820.4668,27.0
1821.195,28.0
1821.9235,35.0
1822.6522,51.0
1823.3812,47.0
1824.1106,31.0
1824.8402,45.0
1825.5702,41.0
1826.3004,28.0
1827.0309,40.0
1827.7617,45.0
1828.4928,36.0
1829.2242,20.0
1829.9559,44.0
1830.6879,43.0
1831.4202,42.0
1832.1527,23.0
1832.8856,46.0
1833.6188,38.0
1834.3522,41.0
1835.0859,34.0
1835.82,47.0
1836.5543,39.0
1837.289,30.0
1838.0238,37.0
1838.759,46.0
1839.4945,49.0
1840.2303,34.0
1840.9664,46.0
1841.7028,44.0
1842.4395,40.0
1843.1764,25.0
1843.9137,41.0
1844.6512,42.0
1845.3892,34.0
1846.1273,37.0
1846.8657,33.0
1847.6045,40.0
1848.3435,34.0
1849.0829,34.0
1849.8225,41.0
1850.5624,46.0
1851.3026,30.0
1852.0431,40.0
1852.7839,54.0
1853.525,40.0
1854.2665,30.0
1855.0082,38.0
1855.7501,38.0
1856.4924,39.0
1857.235,38.0
1857.9779,61.0
1858.7211,82.0
1859.4646,61.0
1860.2084,36.0
1860.9525,48.0
1861.6969,35.0
1862.4415,36.0
1863.1865,29.0
1863.9318,34.0
1864.6774,47.0
1865.4232,37.0
1866.1694,28.0
1866.9159,33.0
1867.6627,36.0
1868.4098,48.0
1869.1571,37.0
1869.9048,36.0
1870.6527,40.0
1871.401,40.0
1872.1495,38.0
1872.8984,46.0
1873.6476,51.0
1874.3971,51.0
1875.1469,42.0
1875.8969,56.0
1876.6472,58.0
1877.3978,50.0
1878.1488,26.0
1878.9,46.0
1879.6516,32.0
1880.4034,39.0
1881.1556,39.0
1881.9081,33.0
1882.6609,44.0
1883.414,34.0
1884.1674,43.0
1884.921,82.0
1885.675,121.0
1886.4293,82.0
1887.1838,36.0
1887.9387,44.0
1888.6938,46.0
1889.4493,45.0
1890.2051,39.0
1890.9612,30.0
1891.7175,32.0
1892.4742,42.0
1893.2312,41.0
1893.9885,39.0
1894.7461,37.0
1895.504,46.0
1896.2622,41.0
1897.0208,56.0
1897.7795,63.0
1898.5387,49.0
1899.2981,29.0
1900.0579,45.0
1900.8179,41.0
1901.5782,60.0
1902.3389,38.0
1903.0999,34.0
1903.8611,28.0
1904.6227,34.0
1905.3845,34.0
1906.1467,21.0
1906.9092,44.0
1907.672,41.0
1908.435,38.0
1909.1985,36.0
1909.9622,41.0
1910.7262,35.0
1911.4905,40.0
1912.2551,42.0
1913.02,52.0
1913.7853,184.0
1914.5508,198.0
1915.3167,88.0
1916.0828,102.0
1916.8492,68.0
1917.616,49.0
1918.383,36.0
1919.1504,26.0
1919.9181,28.0
1920.686,40.0
1921.4543,33.0
1922.2229,37.0
1922.9918,36.0
1923.761,41.0
1924.5305,44.0
1925.3003,31.0
1926.0704,37.0
1926.8408,36.0
1927.6116,28.0
1928.3826,37.0
1929.1539,34.0
1929.9255,45.0
1930.6975,37.0
1931.4698,34.0
1932.2424,29.0
1933.0154,31.0
1933.7886,32.0
1934.5621,49.0
1935.3359,31.0
1936.1101,43.0
1936.8845,41.0
1937.6593,50.0
1938.4343,48.0
1939.2097,37.0
1939.9854,41.0
1940.7614,36.0
1941.5376,33.0
1942.3142,38.0
1943.0912,22.0
1943.8684,43.0
1944.646,37.0
1945.4238,28.0
1946.202,37.0
1946.9805,31.0
1947.7593,30.0
1948.5383,34.0
1949.3177,53.0
1950.0975,30.0
1950.8776,38.0
1951.658,32.0
1952.4386,30.0
1953.2196,30.0
1954.0009,32.0
1954.7825,36.0
1955.5643,39.0
1956.3466,37.0
1957.1292,34.0
1957.912,34.0
1958.6952,27.0
1959.4786,40.0
1960.2625,34.0
1961.0465,29.0
1961.8309,33.0
1962.6157,34.0
1963.4008,31.0
1964.1862,27.0
1964.9718,40.0
1965.7578,27.0
1966.5441,31.0
1967.3307,35.0
1968.1177,35.0
1968.9049,50.0
1969.6925,49.0
1970.4803,36.0
1971.2686,34.0
1972.057,29.0
1972.8458,38.0
1973.635,39.0
1974.4244,35.0
1975.2142,32.0
1976.0043,36.0
1976.7947,27.0
1977.5854,40.0
1978.3765,33.0
1979.1678,28.0
1979.9595,23.0
1980.7515,37.0
1981.5438,45.0
1982.3364,33.0
1983.1294,29.0
1983.9226,34.0
1984.7162,40.0
1985.5101,36.0
1986.3043,41.0
1987.0989,36.0
1987.8937,34.0
1988.6888,29.0
1989.4844,32.0
1990.2802,34.0
1991.0763,53.0
1991.8727,33.0
1992.6694,32.0
1993.4666,40.0
1994.2639,45.0
1995.0616,43.0
1995.8596,44.0
1996.658,35.0
1997.4567,41.0
1998.2556,34.0
1999.0549,27.0
1999.8546,44.0
2000.6545,27.0
2001.4548,31.0
2002.2554,32.0
2003.0563,35.0
2003.8575,31.0
2004.659,35.0
2005.4609,28.0
2006.2631,26.0
2007.0656,29.0
2007.8684,45.0
2008.6715,31.0
2009.475,54.0
2010.2788,48.0
2011.0829,44.0
2011.8873,61.0
2012.6921,67.0
2013.4972,46.0
2014.3026,32.0
2015.1083,41.0
2015.9143,32.0
2016.7207,41.0
2017.5273,33.0
2018.3344,29.0
2019.1417,29.0
2019.9493,31.0
2020.7573,38.0
2021.5657,34.0
2022.3743,29.0
2023.1832,32.0
2023.9926,28.0
2024.8021,24.0
2025.612,62.0
2026.4224,63.0
2027.2329,47.0
2028.0438,55.0
2028.855,56.0
2029.6665,49.0
2030.4784,42.0
2031.2905,41.0
2032.103,29.0
2032.9159,40.0
2033.729,38.0
2034.5425,45.0
2035.3563,32.0
2036.1704,37.0
2036.9849,38.0
2037.7997,45.0
2038.6147,40.0
2039.4302,36.0
2040.246,30.0
2041.062,30.0
2041.8784,37.0
2042.6952,35.0
2043.5123,29.0
2044.3297,38.0
2045.1475,39.0
2045.9656,39.0
2046.7839,36.0
2047.6027,39.0
2048.4216,33.0
2049.241,34.0
2050.0605,35.0
2050.8806,33.0
2051.701,56.0
2052.5217,44.0
2053.3428,30.0
2054.164,23.0
2054.9858,46.0
2055.8079,29.0
2056.6301,35.0
2057.453,39.0
2058.276,28.0
2059.099,25.0
2059.9229,36.0
2060.7468,24.0
2061.571,33.0
2062.3958,39.0
2063.2207,29.0
2064.046,35.0
2064.8716,47.0
2065.6975,41.0
2066.5237,39.0
2067.3503,32.0
2068.1772,47.0
2069.0046,27.0
2069.8323,40.0
2070.6602,35.0
2071.4885,37.0
2072.3171,24.0
2073.146,35.0
2073.9753,32.0
2074.805,36.0
2075.6348,41.0
2076.465,34.0
2077.2957,37.0
2078.1265,29.0
2078.9578,27.0
2079.7893,53.0
2080.6213,35.0
2081.4536,32.0
2082.2861,47.0
2083.1191,38.0
2083.9524,75.0
2084.786,33.0
2085.6199,42.0
2086.454,40.0
2087.2886,38.0
2088.1235,27.0
2088.9587,22.0
2089.7944,29.0
2090.6304,23.0
2091.4666,30.0
2092.3032,42.0
2093.1401,33.0
2093.9773,34.0
2094.815,39.0
2095.6528,33.0
2096.4912,30.0
2097.3298,30.0
2098.1687,26.0
2099.008,38.0
2099.8477,28.0
2100.6875,42.0
2101.5278,40.0
2102.3684,52.0
2103.2095,31.0
2104.0508,33.0
2104.8923,29.0
2105.7344,43.0
2106.5767,29.0
2107.4192,42.0
2108.2622,38.0
2109.1055,30.0
2109.9492,39.0
2110.7932,31.0
2111.6375,40.0
2112.4822,36.0
2113.3271,35.0
2114.1724,27.0
2115.018,30.0
2115.864,34.0
2116.7104,29.0
2117.5571,26.0
2118.404,31.0
2119.2515,26.0
2120.099,24.0
2120.9473,42.0
2121.7957,38.0
2122.6443,25.0
2123.4934,33.0
2124.3428,46.0
2125.1926,37.0
2126.0427,47.0
2126.893,50.0
2127.744,34.0
2128.595,31.0
2129.4463,28.0
2130.298,34.0
2131.1501,21.0
2132.0027,30.0
2132.8555,42.0
2133.7085,34.0
2134.562,33.0
2135.4158,34.0
2136.27,34.0
2137.1245,33.0
2137.9792,39.0
2138.8345,28.0
2139.69,41.0
2140.546,34.0
2141.402,35.0
2142.2585,53.0
2143.1155,60.0
2143.9727,59.0
2144.8303,42.0
2145.6882,45.0
2146.5464,30.0
2147.405,38.0
2148.264,25.0
2149.1233,30.0
2149.983,35.0
2150.843,32.0
2151.7034,33.0
2152.564,32.0
2153.425,43.0
2154.2864,32.0
2155.1482,29.0
2156.0103,42.0
2156.8726,35.0
2157.7354,32.0
2158.5984,41.0
2159.462,33.0
2160.3257,31.0
2161.1897,36.0
2162.0542,41.0
2162.919,43.0
2163.7842,38.0
2164.6497,36.0
2165.5156,34.0
2166.3818,31.0
2167.2483,55.0
2168.1152,55.0
2168.9824,49.0
2169.85,40.0
2170.718,39.0
2171.5864,30.0
2172.455,38.0
2173.324,40.0
2174.1934,34.0
2175.063,32.0
2175.933,33.0
2176.8035,31.0
2177.674,37.0
2178.5452,41.0
2179.4165,49.0
2180.2883,30.0
2181.1604,43.0
2182.033,29.0
2182.9058,33.0
2183.7788,37.0
2184.6523,19.0
2185.5261,30.0
2186.4004,26.0
2187.275,27.0
2188.15,25.0
2189.0251,28.0
2189.9006,42.0
2190.7766,43.0
2191.6528,39.0
2192.5295,43.0
2193.4065,42.0
2194.284,43.0
2195.1616,44.0
2196.0398,58.0
2196.9182,53.0
2197.7969,47.0
2198.676,38.0
2199.5554,36.0
2200.4353,34.0
2201.3154,30.0
2202.196,48.0
2203.077,31.0
2203.9583,23.0
2204.8398,35.0
2205.7217,36.0
2206.604,36.0
2207.4866,41.0
2208.3696,26.0
2209.253,30.0
2210.1367,36.0
2211.0208,40.0
2211.9053,38.0
2212.79,35.0
2213.675,45.0
2214.5605,36.0
2215.4463,42.0
2216.3325,49.0
2217.219,44.0
2218.106,39.0
2218.9932,29.0
2219.8809,36.0
2220.7688,35.0
2221.6572,33.0
2222.546,32.0
2223.4348,30.0
2224.3242,29.0
2225.2139,37.0
2226.104,29.0
2226.9944,29.0
2227.8853,34.0
2228.7764,41.0
2229.668,30.0
2230.5598,33.0
2231.4521,30.0
2232.3447,39.0
2233.2375,35.0
2234.1309,33.0
2235.0244,43.0
2235.9185,40.0
2236.8127,32.0
2237.7075,42.0
2238.6025,54.0
2239.498,44.0
2240.3938,32.0
2241.29,29.0
2242.1865,42.0
2243.0835,41.0
2243.9807,42.0
2244.8784,44.0
2245.7764,43.0
2246.6746,28.0
2247.5732,33.0
2248.4722,28.0
2249.3716,42.0
2250.2712,47.0
2251.1714,40.0
2252.0718,29.0
2252.9727,31.0
2253.8738,41.0
2254.7754,45.0
2255.6772,30.0
2256.5796,38.0
2257.4822,34.0
2258.3853,44.0
2259.2886,41.0
2260.1924,57.0
2261.0964,38.0
2262.001,36.0
2262.9058,39.0
2263.811,54.0
2264.7166,40.0
2265.6226,32.0
2266.5288,50.0
2267.4353,42.0
2268.3423,31.0
2269.2495,37.0
2270.1572,34.0
2271.0652,35.0
2271.9736,37.0
2272.8823,32.0
2273.7915,31.0
2274.701,41.0
2275.6108,54.0
2276.521,62.0
2277.4316,45.0
2278.3425,43.0
2279.254,34.0
2280.1655,56.0
2281.0776,34.0
2281.99,40.0
2282.9028,37.0
2283.816,35.0
2284.7295,39.0
2285.6433,48.0
2286.5576,36.0
2287.4722,51.0
2288.3872,44.0
2289.3025,39.0
2290.2183,34.0
2291.1343,36.0
2292.0508,44.0
2292.9675,35.0
2293.8848,46.0
2294.8022,39.0
2295.7202,49.0
2296.6384,46.0
2297.5571,45.0
2298.476,37.0
2299.3955,35.0
2300.3152,44.0
2301.2354,35.0
2302.1558,46.0
2303.0767,38.0
2303.9978,34.0
2304.9194,48.0
2305.8413,33.0
2306.7637,33.0
2307.6863,37.0
2308.6094,46.0
2309.5327,34.0
2310.4565,43.0
2311.3806,37.0
2312.3052,36.0
2313.23,43.0
2314.1553,32.0
2315.081,48.0
2316.007,45.0
2316.9336,40.0
2317.8604,48.0
2318.7876,41.0
2319.715,45.0
2320.643,50.0
2321.5713,41.0
2322.5,29.0
2323.429,35.0
2324.3584,38.0
2325.288,31.0
2326.2183,34.0
2327.1487,49.0
2328.0796,41.0
2329.0107,39.0
2329.9424,43.0
2330.8743,46.0
2331.8066,37.0
2332.7393,45.0
2333.6724,43.0
2334.6057,42.0
2335.5396,33.0
2336.4739,45.0
2337.4084,43.0
2338.3435,44.0
2339.2788,41.0
2340.2146,40.0
2341.1506,42.0
2342.0872,42.0
2343.024,49.0
2343.9612,42.0
2344.8987,49.0
2345.8367,49.0
2346.775,44.0
2347.7136,45.0
2348.6526,34.0
2349.592,45.0
2350.532,47.0
2351.4722,31.0
2352.4128,37.0
2353.3538,47.0
2354.2952,46.0
2355.2368,48.0
2356.179,35.0
2357.1213,36.0
2358.0642,30.0
2359.0073,37.0
2359.951,41.0
2360.895,35.0
2361.8394,48.0
2362.7842,42.0
2363.7292,46.0
2364.6748,41.0
2365.6206,45.0
2366.567,34.0
2367.5134,41.0
2368.4604,32.0
2369.4077,47.0
2370.3555,41.0
2371.3037,34.0
2372.2522,36.0
2373.2012,38.0
2374.1504,47.0
2375.1,38.0
2376.05,34.0
2377.0005,44.0
2377.9512,40.0
2378.9023,36.0
2379.854,39.0
2380.806,34.0
2381.7583,41.0
2382.711,43.0
2383.664,36.0
2384.6174,30.0
2385.5713,39.0
2386.5256,47.0
2387.4802,55.0
2388.4353,56.0
2389.3906,50.0
2390.3464,54.0
2391.3025,56.0
2392.259,40.0
2393.2158,44.0
2394.173,41.0
2395.1309,37.0
2396.0889,36.0
2397.0474,46.0
2398.006,32.0
2398.9653,39.0
2399.9248,44.0
2400.8848,36.0
2401.8452,32.0
2402.806,36.0
2403.767,39.0
2404.7285,39.0
2405.6904,31.0
2406.6526,39.0
2407.6152,45.0
2408.5784,35.0
2409.5417,37.0
2410.5056,39.0
2411.4697,44.0
2412.4343,33.0
2413.3994,41.0
2414.3647,29.0
2415.3306,35.0
2416.2966,37.0
2417.2632,35.0
2418.23,30.0
2419.1973,31.0
2420.165,38.0
2421.133,38.0
2422.1016,34.0
2423.0703,40.0
2424.0396,34.0
2425.0093,33.0
2425.9792,29.0
2426.9497,41.0
2427.9204,32.0
2428.8916,41.0
2429.863,45.0
2430.835,45.0
2431.8074,48.0
2432.78,45.0
2433.7532,43.0
2434.7266,51.0
2435.7004,38.0
2436.6748,33.0
2437.6494,32.0
2438.6245,39.0
2439.5999,40.0
2440.5757,25.0
2441.552,36.0
2442.5286,36.0
2443.5056,30.0
2444.483,40.0
2445.4607,50.0
2446.439,44.0
2447.4175,48.0
2448.3965,44.0
2449.3757,32.0
2450.3555,36.0
2451.3357,29.0
2452.3162,53.0
2453.297,43.0
2454.2783,37.0
2455.26,46.0
2456.2422,38.0
2457.2246,41.0
2458.2075,23.0
2459.191,31.0
2460.1746,32.0
2461.1587,35.0
2462.143,37.0
2463.128,46.0
2464.1133,44.0
2465.0989,26.0
2466.085,37.0
2467.0713,40.0
2468.058,36.0
2469.0454,47.0
2470.033,37.0
2471.021,37.0
2472.0095,46.0
2472.9983,49.0
2473.9875,33.0
2474.977,38.0
2475.967,31.0
2476.9575,30.0
2477.9482,43.0
2478.9395,41.0
2479.931,32.0
2480.9229,36.0
2481.9153,46.0
2482.908,43.0
2483.9011,35.0
2484.8948,32.0
2485.8887,32.0
2486.883,34.0
2487.878,47.0
2488.873,31.0
2489.8687,31.0
2490.8645,27.0
2491.8608,33.0
2492.8577,46.0
2493.8547,36.0
2494.8523,38.0
2495.8503,38.0
2496.8486,41.0
2497.8474,53.0
2498.8464,35.0
2499.846,35.0
2500.846,27.0
2501.8462,41.0
2502.847,37.0
2503.8481,35.0
2504.8496,32.0
2505.8516,36.0
2506.854,22.0
2507.8567,37.0
2508.8599,35.0
2509.8635,22.0
2510.8674,35.0
2511.8718,30.0
2512.8765,41.0
2513.8816,45.0
2514.8872,50.0
2515.893,35.0
2516.8994,48.0
2517.9062,27.0
2518.9133,48.0
2519.921,31.0
2520.929,50.0
2521.9373,33.0
2522.946,35.0
2523.9553,46.0
2524.9648,39.0
2525.9749,24.0
2526.9854,28.0
2527.996,45.0
2529.0073,42.0
2530.019,49.0
2531.031,49.0
2532.0435,42.0
2533.0562,27.0
2534.0693,33.0
2535.083,40.0
2536.097,56.0
2537.1113,32.0
2538.1262,33.0
2539.1414,40.0
2540.157,39.0
2541.173,37.0
2542.1895,37.0
2543.2063,38.0
2544.2236,36.0
2545.2412,39.0
2546.2593,31.0
2547.2778,33.0
2548.2966,30.0
2549.316,48.0
2550.3357,48.0
2551.3557,28.0
2552.3762,36.0
2553.3972,36.0
2554.4185,37.0
2555.4402,31.0
2556.4624,45.0
2557.485,34.0
2558.508,31.0
2559.5315,40.0
2560.5554,38.0
2561.5796,35.0
2562.6042,36.0
2563.6294,41.0
2564.6548,49.0
2565.6807,46.0
2566.707,36.0
2567.7336,43.0
2568.7607,38.0
2569.7883,31.0
2570.8162,35.0
2571.8445,40.0
2572.8733,36.0
2573.9023,33.0
2574.932,42.0
2575.962,30.0
2576.9922,42.0
2578.023,41.0
2579.0542,36.0
2580.086,57.0
2581.118,50.0
2582.1504,41.0
2583.1833,25.0
2584.2166,35.0
2585.2502,33.0
2586.2844,26.0
2587.3188,49.0
2588.3538,33.0
2589.3892,31.0
2590.4248,35.0
2591.461,35.0
2592.4976,48.0
2593.5347,45.0
2594.572,39.0
2595.6099,42.0
2596.6482,41.0
2597.6868,27.0
2598.7258,38.0
2599.7654,19.0
2600.8052,40.0
2601.8455,29.0
2602.8862,41.0
2603.9275,37.0
2604.969,38.0
2606.011,39.0
2607.0535,28.0
2608.0962,44.0
2609.1394,41.0
2610.183,55.0
2611.2273,47.0
2612.2717,44.0
2613.3167,39.0
2614.362,38.0
2615.4077,33.0
2616.4539,40.0
2617.5005,30.0
2618.5476,43.0
2619.595,46.0
2620.6428,36.0
2621.6912,53.0
2622.7397,33.0
2623.7888,45.0
2624.8384,44.0
2625.8884,60.0
2626.9387,47.0
2627.9895,44.0
2629.0408,42.0
2630.0923,42.0
2631.1443,25.0
2632.1968,38.0
2633.2498,40.0
2634.303,43.0
2635.3567,40.0
2636.411,41.0
2637.4653,38.0
2638.5203,39.0
2639.5757,45.0
2640.6316,44.0
2641.6877,43.0
2642.7444,38.0
2643.8015,47.0
2644.8591,35.0
2645.917,40.0
2646.9753,42.0
2648.0342,42.0
2649.0935,43.0
2650.153,43.0
2651.2131,34.0
2652.2737,40.0
2653.3345,28.0
2654.3958,37.0
2655.4575,40.0
2656.5198,32.0
2657.5823,42.0
2658.6453,33.0
2659.7087,38.0
2660.7727,38.0
2661.837,37.0
2662.9016,53.0
2663.9668,45.0
2665.0325,33.0
2666.0984,49.0
2667.1648,41.0
2668.2317,39.0
2669.299,40.0
2670.3667,37.0
2671.4348,41.0
2672.5034,43.0
2673.5725,39.0
2674.6418,46.0
2675.7117,31.0
2676.782,34.0
2677.8528,36.0
2678.9238,34.0
2679.9954,51.0
2681.0674,35.0
2682.14,42.0
2683.2126,39.0
2684.286,35.0
2685.3596,38.0
2686.4338,34.0
2687.5083,38.0
2688.5833,26.0
2689.6587,34.0
2690.7346,35.0
2691.8108,36.0
2692.8875,28.0
2693.9646,29.0
2695.0422,42.0
2696.1204,49.0
2697.1987,36.0
2698.2776,50.0
2699.357,44.0
2700.4368,55.0
2701.5168,35.0
2702.5974,53.0
2703.6785,37.0
2704.76,33.0
2705.8418,53.0
2706.924,55.0
2708.0068,30.0
2709.09,36.0
2710.1738,42.0
2711.2578,39.0
2712.3423,44.0
2713.4272,41.0
2714.5127,40.0
2715.5984,34.0
2716.6846,45.0
2717.7712,39.0
2718.8584,48.0
2719.946,46.0
2721.034,39.0
2722.1223,53.0
2723.2112,50.0
2724.3005,52.0
2725.3901,46.0
2726.4802,45.0
2727.5708,35.0
2728.6619,38.0
2729.7534,53.0
2730.8452,55.0
2731.9375,41.0
2733.0303,50.0
2734.1235,42.0
2735.2173,92.0
2736.3113,99.0
2737.4058,61.0
2738.5007,46.0
2739.5962,35.0
2740.6921,48.0
2741.7883,30.0
2742.885,40.0
2743.9822,48.0
2745.0798,46.0
2746.178,38.0
2747.2764,41.0
2748.3752,44.0
2749.4746,35.0
2750.5745,43.0
2751.6748,40.0
2752.7754,44.0
2753.8765,33.0
2754.978,41.0
2756.08,38.0
2757.1826,46.0
2758.2854,41.0
2759.3887,37.0
2760.4924,46.0
2761.5967,29.0
2762.7014,47.0
2763.8064,45.0
2764.9119,55.0
2766.0178,30.0
2767.1243,33.0
2768.2312,47.0
2769.3384,51.0
2770.446,41.0
2771.5542,29.0
2772.6628,30.0
2773.772,36.0
2774.8816,32.0
2775.9915,45.0
2777.1018,42.0
2778.2126,48.0
2779.324,45.0
2780.4358,57.0
2781.5479,45.0
2782.6604,32.0
2783.7734,52.0
2784.887,43.0
2786.001,33.0
2787.1155,30.0
2788.2302,31.0
2789.3455,44.0
2790.4612,46.0
2791.5774,40.0
2792.694,34.0
2793.8113,54.0
2794.9287,62.0
2796.0466,68.0
2797.165,72.0
2798.284,75.0
2799.4033,68.0
2800.5232,60.0
2801.6433,57.0
2802.764,56.0
2803.885,53.0
2805.0066,56.0
2806.1287,49.0
2807.2512,59.0
2808.374,59.0
2809.4973,59.0
2810.621,63.0
2811.7454,46.0
2812.87,60.0
2813.9954,59.0
2815.1208,56.0
2816.2468,66.0
2817.3733,61.0
2818.5002,56.0
2819.6277,66.0
2820.7556,65.0
2821.884,57.0
2823.0127,66.0
2824.1418,54.0
2825.2715,54.0
2826.4016,70.0
2827.5322,68.0
2828.6633,70.0
2829.7947,59.0
2830.9265,62.0
2832.0588,65.0
2833.1917,62.0
2834.325,67.0
2835.4587,63.0
2836.593,57.0
2837.7275,56.0
2838.8625,55.0
2839.998,57.0
2841.134,56.0
2842.2705,54.0
2843.4075,48.0
2844.545,61.0
2845.6829,42.0
2846.821,63.0
2847.9597,66.0
2849.0989,51.0
2850.2385,61.0
2851.3787,63.0
2852.5193,62.0
2853.6604,66.0
2854.8018,59.0
2855.9436,51.0
2857.086,77.0
2858.2288,71.0
2859.372,63.0
2860.5159,57.0
2861.6602,49.0
2862.805,51.0
2863.95,60.0
2865.0955,46.0
2866.2415,54.0
2867.388,69.0
2868.535,55.0
2869.6824,48.0
2870.8303,45.0
2871.9788,48.0
2873.1274,65.0
2874.2766,55.0
2875.4263,59.0
2876.5764,62.0
2877.727,47.0
2878.8782,61.0
2880.0298,48.0
2881.182,61.0
2882.3345,57.0
2883.4873,66.0
2884.6406,58.0
2885.7944,48.0
2886.9487,52.0
2888.1035,54.0
2889.2588,65.0
2890.4146,60.0
2891.5708,57.0
2892.7275,56.0
2893.8845,60.0
2895.042,52.0
2896.2,46.0
2897.3584,52.0
2898.5173,50.0
2899.6768,61.0
2900.8367,53.0
2901.997,64.0
2903.158,57.0
2904.3193,59.0
2905.481,70.0
2906.643,89.0
2907.8057,67.0
2908.9688,72.0
2910.1323,73.0
2911.2964,63.0
2912.461,65.0
2913.626,45.0
2914.7915,60.0
2915.9575,60.0
2917.124,45.0
2918.2908,55.0
2919.458,45.0
2920.6257,73.0
2921.794,103.0
2922.9626,99.0
2924.1318,87.0
2925.3015,104.0
2926.4717,83.0
2927.6423,79.0
2928.8135,65.0
2929.985,60.0
2931.157,57.0
2932.3293,58.0
2933.5022,71.0
2934.6755,61.0
2935.8494,44.0
2937.0237,46.0
2938.1985,77.0
2939.3738,63.0
2940.5496,74.0
2941.7258,64.0
2942.9026,86.0
2944.0798,69.0
2945.2576,59.0
2946.4358,56.0
2947.6143,69.0
2948.7932,81.0
2949.9727,65.0
2951.1526,48.0
2952.333,66.0
2953.514,71.0
2954.6953,43.0
2955.8772,54.0
2957.0596,54.0
2958.2424,47.0
2959.4258,63.0
2960.6096,54.0
2961.794,59.0
2962.9788,57.0
2964.164,61.0
2965.3496,72.0
2966.5356,59.0
2967.7222,48.0
2968.9092,66.0
2970.0967,56.0
2971.2847,47.0
2972.4731,55.0
2973.662,56.0
2974.8516,54.0
2976.0415,63.0
2977.232,55.0
2978.4229,66.0
2979.6143,65.0
2980.8062,56.0
2981.9985,68.0
2983.1914,65.0
2984.3848,68.0
2985.5786,44.0
2986.773,50.0
2987.9678,54.0
2989.1628,59.0
2990.3584,69.0
2991.5544,64.0
2992.751,69.0
2993.948,45.0
2995.1455,63.0
2996.3435,68.0
2997.542,62.0
2998.741,60.0
2999.9404,63.0
3001.1404,48.0
3002.3408,54.0
3003.5417,49.0
3004.7432,52.0
3005.945,74.0
3007.1475,62.0
3008.3503,71.0
3009.5537,64.0
3010.7576,63.0
3011.962,47.0
3013.1667,58.0
3014.372,55.0
3015.578,66.0
3016.7842,72.0
3017.991,50.0
3019.1982,51.0
3020.406,71.0
3021.6143,75.0
3022.823,68.0
3024.0322,51.0
3025.242,67.0
3026.4521,71.0
3027.6628,57.0
3028.874,61.0
3030.0857,57.0
3031.2976,69.0
3032.51,58.0
3033.723,80.0
3034.9363,54.0
3036.1501,53.0
3037.3645,48.0
3038.5793,60.0
3039.7947,46.0
3041.0105,49.0
3042.2268,71.0
3043.4436,65.0
3044.661,61.0
3045.8787,62.0
3047.097,45.0
3048.3157,51.0
3049.535,59.0
3050.7546,65.0
3051.9749,65.0
3053.1956,54.0
3054.4167,62.0
3055.6384,73.0
3056.8606,73.0
3058.0833,63.0
3059.3064,48.0
3060.53,54.0
3061.7542,53.0
3062.9788,58.0
3064.2039,52.0
3065.4294,59.0
3066.6555,63.0
3067.882,47.0
3069.1091,56.0
3070.3367,58.0
3071.5647,67.0
3072.7932,50.0
3074.0222,57.0
3075.2517,58.0
3076.4817,60.0
3077.7124,60.0
3078.9436,63.0
3080.1753,65.0
3081.4075,49.0
3082.6401,55.0
3083.8733,48.0
3085.107,35.0
3086.341,49.0
3087.5757,70.0
3088.8108,61.0
3090.0464,54.0
3091.2825,51.0
3092.519,51.0
3093.756,49.0
3094.9937,59.0
3096.2317,60.0
3097.4702,62.0
3098.7092,58.0
3099.9487,45.0
3101.1887,61.0
3102.4292,72.0
3103.6702,52.0
3104.9116,49.0
3106.1536,64.0
3107.396,69.0
3108.639,79.0
3109.8823,51.0
3111.1262,58.0
3112.3706,77.0
3113.6155,47.0
3114.8608,62.0
3116.1067,78.0
3117.353,59.0
3118.5999,67.0
3119.8474,49.0
3121.0955,41.0
3122.344,66.0
3123.593,64.0
3124.8425,65.0
3126.0925,51.0
3127.343,58.0
3128.594,72.0
3129.8455,68.0
3131.0974,61.0
3132.3499,73.0
3133.6028,55.0
3134.8562,56.0
3136.11,63.0
3137.3645,66.0
3138.6194,59.0
3139.8748,60.0
3141.1306,55.0
3142.387,58.0
3143.6438,55.0
3144.9014,73.0
3146.1594,55.0
3147.418,71.0
3148.677,59.0
3149.9365,65.0
3151.1965,60.0
3152.457,52.0
3153.718,56.0
3154.9795,49.0
3156.2415,57.0
3157.504,66.0
3158.7668,66.0
3160.0303,70.0
3161.2942,60.0
3162.5586,49.0
3163.8237,51.0
3165.0894,50.0
3166.3555,58.0
3167.622,54.0
3168.8892,71.0
3170.1567,44.0
3171.4248,57.0
3172.6934,69.0
3173.9624,52.0
3175.232,61.0
3176.502,71.0
3177.7725,68.0
3179.0435,58.0
3180.3152,58.0
3181.5874,60.0
3182.86,58.0
3184.1333,63.0
3185.407,80.0
3186.6812,60.0
3187.9558,65.0
3189.231,63.0
3190.5066,56.0
3191.7827,43.0
3193.0593,74.0
3194.3367,63.0
3195.6145,72.0
3196.8928,50.0
3198.1716,59.0
3199.451,62.0
3200.7307,65.0
3202.011,67.0
3203.2917,58.0
3204.573,57.0
3205.8547,65.0
3207.137,63.0
3208.42,58.0
3209.7034,61.0
3210.9873,51.0
3212.2717,56.0
3213.5566,58.0
3214.842,50.0
3216.128,65.0
3217.4143,53.0
3218.7012,55.0
3219.9888,63.0
3221.2769,65.0
3222.5654,71.0
3223.8545,50.0
3225.144,65.0
3226.434,87.0
3227.7246,78.0
3229.0156,68.0
3230.3071,63.0
3231.5994,71.0
3232.892,50.0
3234.1853,70.0
3235.479,59.0
3236.7732,64.0
3238.0679,59.0
3239.363,67.0
3240.6587,52.0
3241.9548,63.0
3243.2517,48.0
3244.549,67.0
3245.847,55.0
3247.1453,49.0
3248.444,59.0
3249.7434,54.0
3251.0432,53.0
3252.3438,76.0
3253.6448,76.0
3254.9463,56.0
3256.2483,63.0
3257.5508,75.0
3258.8538,48.0
3260.1572,63.0
3261.4612,64.0
3262.7659,65.0
3264.071,55.0
3265.3767,68.0
3266.6829,80.0
3267.9895,60.0
3269.2966,72.0
3270.6042,79.0
3271.9126,65.0
3273.2214,62.0
3274.5308,79.0
3275.8406,62.0
3277.151,78.0
3278.4617,78.0
3279.773,74.0
3281.085,66.0
3282.3975,62.0
3283.7104,52.0
3285.024,53.0
3286.338,67.0
3287.6523,55.0
3288.9673,78.0
3290.283,55.0
3291.599,68.0
3292.9158,71.0
3294.233,54.0
3295.5505,66.0
3296.8687,78.0
3298.1875,52.0
3299.5068,71.0
3300.8267,49.0
3302.147,67.0
3303.4678,70.0
3304.789,63.0
3306.111,54.0
3307.4336,75.0
3308.7566,71.0
3310.08,58.0
3311.404,67.0
3312.7285,62.0
3314.0537,49.0
3315.3794,63.0
3316.7056,92.0
3318.0322,63.0
3319.3594,77.0
3320.687,64.0
3322.0154,64.0
3323.3442,68.0
3324.6736,65.0
3326.0034,60.0
3327.3337,75.0
3328.6648,68.0
3329.9963,60.0
3331.3284,52.0
3332.661,74.0
3333.994,62.0
3335.3274,60.0
3336.6616,76.0
3337.9963,59.0
3339.3315,83.0
3340.6672,76.0
3342.0034,73.0
3343.3403,81.0
3344.6777,81.0
3346.0156,70.0
3347.354,66.0
3348.6929,61.0
3350.0322,80.0
3351.3723,67.0
3352.713,93.0
3354.054,72.0
3355.3955,53.0
3356.7375,74.0
3358.0803,60.0
3359.4236,70.0
3360.7673,76.0
3362.1116,64.0
3363.4563,69.0
3364.8018,59.0
3366.1477,66.0
3367.4941,68.0
3368.841,63.0
3370.1887,74.0
3371.5369,67.0
3372.8855,57.0
3374.2346,78.0
3375.5842,74.0
3376.9346,57.0
3378.2854,68.0
3379.6367,68.0
3380.9885,69.0
3382.3408,83.0
3383.6938,70.0
3385.0474,70.0
3386.4014,71.0
3387.7559,71.0
3389.1108,69.0
3390.4666,66.0
3391.8228,60.0
3393.1794,63.0
3394.5366,69.0
3395.8945,69.0
3397.253,66.0
3398.6118,81.0
3399.9712,69.0
3401.3313,83.0
3402.692,84.0
3404.053,76.0
3405.4146,90.0
3406.7766,67.0
3408.1394,69.0
3409.5027,72.0
3410.8665,66.0
3412.2307,75.0
3413.5957,77.0
3414.9612,59.0
3416.3271,90.0
3417.6936,60.0
3419.0608,58.0
3420.4285,78.0
3421.7966,72.0
3423.1653,81.0
3424.5347,75.0
3425.9045,58.0
3427.275,58.0
3428.6458,73.0
3430.017,72.0
3431.3892,61.0
3432.7617,64.0
3434.1348,74.0
3435.5083,71.0
3436.8826,66.0
3438.2573,82.0
3439.6326,75.0
3441.0083,57.0
3442.3848,65.0
3443.7617,79.0
3445.1392,59.0
3446.5173,62.0
3447.896,55.0
3449.2751,77.0
3450.6548,80.0
3452.0352,64.0
3453.416,69.0
3454.7974,66.0
3456.1792,69.0
3457.5618,84.0
3458.9448,68.0
3460.3284,73.0
3461.7124,64.0
3463.0972,55.0
3464.4824,60.0
3465.8682,70.0
3467.2544,65.0
3468.6414,73.0
3470.0288,62.0
3471.4167,66.0
3472.8054,65.0
3474.1946,89.0
3475.5842,85.0
3476.9744,69.0
3478.3652,57.0
3479.7566,69.0
3481.1484,67.0
3482.541,89.0
3483.934,70.0
3485.3276,73.0
3486.7217,75.0
3488.1165,67.0
3489.5117,67.0
3490.9075,85.0
3492.304,73.0
3493.701,74.0
3495.0984,76.0
3496.4963,71.0
3497.895,70.0
3499.2942,71.0
3500.6938,89.0
3502.0942,68.0
3503.495,84.0
3504.8965,77.0
3506.2983,68.0
3507.701,79.0
3509.104,75.0
3510.5076,85.0
3511.9119,87.0
3513.3167,72.0
3514.722,81.0
3516.128,79.0
3517.5344,64.0
3518.9414,70.0
3520.3489,68.0
3521.757,102.0
3523.1658,108.0
3524.575,94.0
3525.9849,69.0
3527.3953,66.0
3528.8062,76.0
3530.2178,108.0
3531.63,124.0
3533.0425,91.0
3534.4558,77.0
3535.8696,77.0
3537.284,77.0
3538.6987,83.0
3540.1143,66.0
3541.5303,82.0
3542.9468,75.0
3544.364,69.0
3545.7817,62.0
3547.2,66.0
3548.619,89.0
3550.0383,62.0
3551.4583,66.0
3552.879,70.0
3554.3,78.0
3555.7217,84.0
3557.144,80.0
3558.567,86.0
3559.9902,87.0
3561.4143,72.0
3562.8389,85.0
3564.264,99.0
3565.6897,88.0
3567.116,77.0
3568.5427,89.0
3569.9702,80.0
3571.3982,81.0
3572.8267,90.0
3574.2559,89.0
3575.6855,88.0
3577.1157,74.0
3578.5466,90.0
3579.978,89.0
3581.41,86.0
3582.8425,79.0
3584.2756,82.0
3585.7092,99.0
3587.1436,97.0
3588.5784,107.0
3590.014,85.0
3591.45,94.0
3592.8865,100.0
3594.3237,95.0
3595.7615,108.0
3597.1997,101.0
3598.6387,94.0
3600.0781,119.0
3601.518,100.0
3602.9587,100.0
3604.4,79.0
3605.8416,86.0
3607.284,127.0
3608.7268,119.0
3610.1704,90.0
3611.6145,78.0
3613.059,70.0
3614.5044,97.0
3615.9502,163.0
3617.3965,177.0
3618.8435,148.0
3620.291,99.0
3621.739,94.0
3623.1877,85.0
3624.637,89.0
3626.087,84.0
3627.5374,105.0
3628.9883,106.0
3630.44,96.0
3631.892,78.0
3633.3447,82.0
3634.798,104.0
3636.252,96.0
3637.7065,104.0
3639.1616,73.0
3640.6172,84.0
3642.0735,80.0
3643.5303,92.0
3644.9878,104.0
3646.4458,82.0
3647.9043,96.0
3649.3635,98.0
3650.8232,90.0
3652.2837,91.0
3653.7446,64.0
3655.206,82.0
3656.6682,79.0
3658.1309,83.0
3659.594,100.0
3661.0579,110.0
3662.5222,84.0
3663.9873,90.0
3665.453,90.0
3666.919,85.0
3668.3857,86.0
3669.853,82.0
3671.321,69.0
3672.7896,77.0
3674.2585,83.0
3675.7283,93.0
3677.1985,97.0
3678.6694,141.0
3680.1409,111.0
3681.613,105.0
3683.0857,106.0
3684.5588,72.0
3686.0327,73.0
3687.507,79.0
3688.9822,58.0
3690.4578,97.0
3691.9338,91.0
3693.4106,96.0
3694.888,90.0
3696.366,76.0
3697.8445,82.0
3699.3237,89.0
3700.8035,105.0
3702.2837,93.0
3703.7646,86.0
3705.246,71.0
3706.7283,100.0
3708.211,111.0
3709.6943,149.0
3711.1782,128.0
3712.6626,100.0
3714.1477,88.0
3715.6333,102.0
3717.1196,105.0
3718.6064,97.0
3720.094,91.0
3721.582,116.0
3723.0706,98.0
3724.5598,95.0
3726.0496,94.0
3727.54,108.0
3729.031,91.0
3730.5227,93.0
3732.015,88.0
3733.5078,158.0
3735.0012,177.0
3736.495,137.0
3737.9897,113.0
3739.4849,80.0
3740.9807,100.0
3742.477,95.0
3743.974,123.0
3745.4717,114.0
3746.97,106.0
3748.4688,91.0
3749.968,254.0
3751.468,452.0
3752.9685,501.0
3754.4697,291.0
3755.9714,175.0
3757.4739,127.0
3758.9768,120.0
3760.4805,112.0
3761.9846,117.0
3763.4895,102.0
3764.9949,95.0
3766.501,113.0
3768.0076,104.0
3769.515,121.0
3771.0227,112.0
3772.531,124.0
3774.04,137.0
3775.5496,149.0
3777.0598,124.0
3778.5706,120.0
3780.082,119.0
3781.594,111.0
3783.1067,111.0
3784.6199,97.0
3786.1338,103.0
3787.6482,107.0
3789.1633,94.0
3790.679,105.0
3792.1953,95.0
3793.7122,85.0
3795.2297,94.0
3796.7478,128.0
3798.2666,115.0
3799.786,121.0
3801.306,101.0
3802.8264,116.0
3804.3477,112.0
3805.8694,95.0
3807.3918,88.0
3808.9148,107.0
3810.4385,105.0
3811.9626,96.0
3813.4875,120.0
3815.013,149.0
3816.539,137.0
3818.0657,135.0
3819.593,93.0
3821.1208,107.0
3822.6494,111.0
3824.1785,106.0
3825.7083,83.0
3827.2385,86.0
3828.7695,119.0
3830.301,108.0
3831.8333,134.0
3833.366,128.0
3834.8994,109.0
3836.4333,101.0
3837.968,103.0
3839.5032,118.0
3841.039,121.0
3842.5754,102.0
3844.1125,90.0
3845.6501,108.0
3847.1885,146.0
3848.7273,196.0
3850.2668,192.0
3851.807,108.0
3853.3477,103.0
3854.889,111.0
3856.431,103.0
3857.9734,96.0
3859.5166,126.0
3861.0603,94.0
3862.6047,111.0
3864.1497,108.0
3865.6953,113.0
3867.2417,138.0
3868.7886,112.0
3870.3362,102.0
3871.8843,113.0
3873.433,118.0
3874.9824,128.0
3876.5325,120.0
3878.083,100.0
3879.6343,108.0
3881.186,126.0
3882.7385,115.0
3884.2915,125.0
3885.8452,127.0
3887.3997,105.0
3888.9546,100.0
3890.5103,105.0
3892.0664,88.0
3893.6233,118.0
3895.1807,90.0
3896.7388,115.0
3898.2974,123.0
3899.8567,143.0
3901.4167,152.0
3902.9773,146.0
3904.5386,110.0
3906.1003,96.0
3907.6628,109.0
3909.2258,96.0
3910.7896,100.0
3912.3538,92.0
3913.9187,89.0
3915.4844,138.0
3917.0505,144.0
3918.6174,110.0
3920.1848,99.0
3921.753,89.0
3923.3215,104.0
3924.8909,110.0
3926.461,105.0
3928.0315,92.0
3929.6028,120.0
3931.1746,105.0
3932.747,115.0
3934.32,98.0
3935.8938,118.0
3937.4683,82.0
3939.0432,92.0
3940.619,116.0
3942.195,124.0
3943.772,85.0
3945.3494,82.0
3946.9275,116.0
3948.5063,98.0
3950.0857,105.0
3951.6658,111.0
3953.2463,90.0
3954.8276,103.0
3956.4097,96.0
3957.9922,94.0
3959.5754,106.0
3961.1592,112.0
3962.7437,83.0
3964.3289,117.0
3965.9146,92.0
3967.501,94.0
3969.088,91.0
3970.6755,112.0
3972.264,84.0
3973.8528,94.0
3975.4424,85.0
3977.0325,110.0
3978.6233,84.0
3980.2148,106.0
3981.807,100.0
3983.3997,113.0
3984.993,97.0
3986.587,106.0
3988.1816,85.0
3989.7769,99.0
3991.3728,108.0
3992.9692,115.0
3994.5664,123.0
3996.1643,97.0
3997.7627,106.0
3999.3618,96.0
4000.9617,92.0
4002.562,111.0
4004.163,121.0
4005.7646,95.0
4007.367,114.0
4008.97,96.0
4010.5735,123.0
4012.1777,118.0
4013.7827,119.0
4015.3882,92.0
4016.9944,102.0
4018.601,110.0
4020.2085,116.0
4021.8167,115.0
4023.4253,100.0
4025.0347,113.0
4026.6448,108.0
4028.2554,130.0
4029.8667,153.0
4031.4788,134.0
4033.0913,135.0
4034.7046,127.0
4036.3184,133.0
4037.9329,180.0
4039.548,168.0
4041.1638,157.0
4042.7803,201.0
4044.3975,185.0
4046.0151,148.0
4047.6335,133.0
4049.2527,163.0
4050.8723,251.0
4052.4927,247.0
4054.1138,212.0
4055.7354,192.0
4057.3577,188.0
4058.9807,280.0
4060.6042,296.0
4062.2285,242.0
4063.8535,242.0
4065.479,184.0
4067.1052,177.0
4068.7322,209.0
4070.3596,225.0
4071.9878,302.0
4073.6167,302.0
4075.246,244.0
4076.8762,224.0
4078.507,249.0
4080.1384,301.0
4081.7705,393.0
4083.4033,294.0
4085.0366,440.0
4086.6707,486.0
4088.3054,380.0
4089.9407,248.0
4091.5767,234.0
4093.2134,703.0
4094.8506,994.0
4096.489,572.0
4098.1274,303.0
4099.7666,213.0
4101.4067,746.0
4103.0474,2287.0
4104.6885,1695.0
4106.3306,584.0
4107.973,276.0
4109.616,212.0
4111.2603,183.0
4112.905,255.0
4114.55,326.0
4116.196,235.0
4117.8423,173.0
4119.4893,138.0
4121.137,126.0
4122.7856,155.0
4124.4346,145.0
4126.0845,137.0
4127.735,127.0
4129.3857,106.0
4131.0376,119.0
4132.69,127.0
4134.343,116.0
4135.9966,130.0
4137.651,98.0
4139.306,106.0
4140.962,108.0
4142.618,98.0
4144.2754,139.0
4145.933,134.0
4147.5913,97.0
4149.2505,115.0
4150.91,115.0
4152.5703,117.0
4154.2314,120.0
4155.893,128.0
4157.5557,135.0
4159.2188,129.0
4160.8823,101.0
4162.547,112.0
4164.212,126.0
4165.8774,162.0
4167.544,143.0
4169.211,135.0
4170.8784,112.0
4172.547,124.0
4174.216,142.0
4175.8857,177.0
4177.556,144.0
4179.227,134.0
4180.899,151.0
4182.5713,119.0
4184.244,108.0
4185.918,118.0
4187.5923,147.0
4189.267,146.0
4190.943,154.0
4192.619,99.0
4194.2964,128.0
4195.974,151.0
4197.6523,167.0
4199.3315,120.0
4201.011,116.0
4202.6914,108.0
4204.3726,138.0
4206.054,143.0
4207.737,125.0
4209.42,111.0
4211.1035,125.0
4212.788,111.0
4214.473,116.0
4216.1587,133.0
4217.845,108.0
4219.532,108.0
4221.22,99.0
4222.9087,107.0
4224.5977,108.0
4226.2876,117.0
4227.978,147.0
4229.6694,131.0
4231.3613,122.0
4233.0537,126.0
4234.747,142.0
4236.441,105.0
4238.1353,117.0
4239.8306,108.0
4241.5264,122.0
4243.223,118.0
4244.9204,110.0
4246.618,138.0
4248.317,123.0
4250.016,149.0
4251.7163,123.0
4253.417,116.0
4255.118,157.0
4256.8203,147.0
4258.523,140.0
4260.2266,169.0
4261.9307,141.0
4263.6353,151.0
4265.341,174.0
4267.047,180.0
4268.754,220.0
4270.4614,166.0
4272.1694,142.0
4273.8784,169.0
4275.588,193.0
4277.2983,308.0
4279.0093,210.0
4280.7207,148.0
4282.433,125.0
4284.146,263.0
4285.86,566.0
4287.574,368.0
4289.289,199.0
4291.005,156.0
4292.721,124.0
4294.4385,131.0
4296.1562,169.0
4297.8745,188.0
4299.5938,201.0
4301.3135,141.0
4303.034,142.0
4304.7554,140.0
4306.477,127.0
4308.1997,140.0
4309.923,137.0
4311.647,126.0
4313.3716,98.0
4315.097,121.0
4316.823,109.0
4318.55,130.0
4320.2773,115.0
4322.0054,130.0
4323.7344,128.0
4325.464,116.0
4327.194,130.0
4328.925,117.0
4330.6562,160.0
4332.3887,114.0
4334.1216,116.0
4335.8555,119.0
4337.59,120.0
4339.3247,126.0
4341.0605,131.0
4342.797,106.0
4344.534,126.0
4346.272,121.0
4348.0103,110.0
4349.7495,108.0
4351.4893,112.0
4353.23,97.0
4354.971,107.0
4356.7134,162.0
4358.456,133.0
4360.199,96.0
4361.9434,116.0
4363.688,132.0
4365.4336,121.0
4367.1797,124.0
4368.927,123.0
4370.6743,138.0
4372.4224,107.0
4374.1714,120.0
4375.921,110.0
4377.6714,127.0
4379.4224,108.0
4381.1743,144.0
4382.927,126.0
4384.6797,123.0
4386.4336,139.0
4388.188,129.0
4389.9434,129.0
4391.699,141.0
4393.456,109.0
4395.2134,117.0
4396.9717,127.0
4398.7305,144.0
4400.4897,145.0
4402.25,136.0
4404.0107,130.0
4405.7725,137.0
4407.5347,185.0
4409.298,173.0
4411.0615,162.0
4412.826,137.0
4414.5913,124.0
4416.357,206.0
4418.1235,241.0
4419.8906,175.0
4421.6587,155.0
4423.4272,137.0
4425.197,127.0
4426.967,131.0
4428.738,180.0
4430.5093,181.0
4432.2812,145.0
4434.054,123.0
4435.8276,133.0
4437.602,191.0
4439.377,258.0
4441.153,195.0
4442.929,176.0
4444.7065,152.0
4446.4844,149.0
4448.263,145.0
4450.0425,187.0
4451.8223,170.0
4453.603,161.0
4455.3843,123.0
4457.1665,134.0
4458.949,177.0
4460.733,190.0
4462.517,175.0
4464.3022,155.0
4466.088,166.0
4467.8745,234.0
4469.6616,209.0
4471.4497,184.0
4473.2383,182.0
4475.0273,134.0
4476.8174,145.0
4478.608,131.0
4480.3994,158.0
4482.1914,190.0
4483.9844,158.0
4485.778,135.0
4487.5723,161.0
4489.367,146.0
4491.163,196.0
4492.9595,142.0
4494.757,144.0
4496.5547,182.0
4498.3535,176.0
4500.153,176.0
4501.953,175.0
4503.754,193.0
4505.555,190.0
4507.3574,155.0
4509.16,158.0
4510.964,162.0
4512.768,176.0
4514.573,200.0
4516.379,172.0
4518.1855,161.0
4519.9927,176.0
4521.801,201.0
4523.6094,180.0
4525.419,137.0
4527.229,131.0
4529.04,176.0
4530.8516,265.0
4532.664,239.0
4534.477,165.0
4536.291,130.0
4538.1055,151.0
4539.921,144.0
4541.737,149.0
4543.5537,139.0
4545.371,130.0
4547.1895,127.0
4549.0083,151.0
4550.828,116.0
4552.6484,116.0
4554.4697,106.0
4556.2915,123.0
4558.1143,105.0
4559.9375,127.0
4561.7617,133.0
4563.5864,119.0
4565.4116,95.0
4567.238,133.0
4569.0645,129.0
4570.892,142.0
4572.72,114.0
4574.5493,124.0
4576.379,114.0
4578.2095,114.0
4580.0405,95.0
4581.8726,131.0
4583.705,126.0
4585.5386,118.0
4587.3726,112.0
4589.2075,112.0
4591.043,139.0
4592.8794,131.0
4594.7163,133.0
4596.554,118.0
4598.3926,140.0
4600.232,150.0
4602.0723,129.0
4603.913,157.0
4605.755,140.0
4607.597,113.0
4609.4404,116.0
4611.284,145.0
4613.129,138.0
4614.974,129.0
4616.8203,117.0
4618.667,115.0
4620.5146,141.0
4622.363,137.0
4624.212,121.0
4626.0615,122.0
4627.912,140.0
4629.763,108.0
4631.615,116.0
4633.468,122.0
4635.3213,135.0
4637.1753,125.0
4639.0303,130.0
4640.8857,127.0
4642.742,129.0
4644.599,124.0
4646.457,119.0
4648.3154,118.0
4650.175,111.0
4652.0347,127.0
4653.8955,110.0
4655.757,130.0
4657.619,124.0
4659.4824,110.0
4661.346,124.0
4663.211,166.0
4665.076,132.0
4666.9424,142.0
4668.809,134.0
4670.677,126.0
4672.545,119.0
4674.414,124.0
4676.2837,121.0
4678.1543,131.0
4680.0254,137.0
4681.8975,127.0
4683.77,130.0
4685.6436,111.0
4687.5176,135.0
4689.3926,117.0
4691.2686,96.0
4693.145,112.0
4695.0225,125.0
4696.9004,147.0
4698.7793,116.0
4700.6587,129.0
4702.539,109.0
4704.42,143.0
4706.302,132.0
4708.184,114.0
4710.0674,125.0
4711.951,134.0
4713.836,127.0
4715.7217,126.0
4717.608,125.0
4719.495,118.0
4721.383,125.0
4723.2715,107.0
4725.1606,140.0
4727.051,118.0
4728.9414,126.0
4730.833,157.0
4732.725,123.0
4734.618,105.0
4736.512,114.0
4738.4067,125.0
4740.3022,107.0
4742.198,130.0
4744.095,123.0
4745.9927,138.0
4747.891,124.0
4749.79,125.0
4751.69,112.0
4753.591,118.0
4755.492,99.0
4757.3945,111.0
4759.2974,114.0
4761.201,111.0
4763.1055,111.0
4765.0107,98.0
4766.9165,123.0
4768.823,114.0
4770.731,94.0
4772.639,101.0
4774.5483,141.0
4776.458,105.0
4778.3687,116.0
4780.28,102.0
4782.192,96.0
4784.105,80.0
4786.0186,98.0
4787.933,106.0
4789.848,104.0
4791.764,105.0
4793.6807,98.0
4795.598,102.0
4797.5166,93.0
4799.4355,111.0
4801.3555,125.0
4803.276,102.0
4805.1973,115.0
4807.119,117.0
4809.042,112.0
4810.966,106.0
4812.89,108.0
4814.8154,108.0
4816.741,95.0
4818.668,95.0
4820.595,90.0
4822.5234,100.0
4824.4526,81.0
4826.3823,123.0
4828.313,102.0
4830.244,113.0
4832.1763,127.0
4834.1094,115.0
4836.043,89.0
4837.9775,104.0
4839.9126,103.0
4841.8486,106.0
4843.785,98.0
4845.7227,98.0
4847.661,105.0
4849.6,96.0
4851.54,113.0
4853.4805,110.0
4855.422,120.0
4857.3643,98.0
4859.307,118.0
4861.251,94.0
4863.1953,104.0
4865.1406,88.0
4867.087,109.0
4869.0337,114.0
4870.9814,118.0
4872.9297,100.0
4874.879,106.0
4876.829,101.0
4878.78,95.0
4880.7314,82.0
4882.6836,113.0
4884.6367,112.0
4886.5903,107.0
4888.545,94.0
4890.5005,107.0
4892.4565,104.0
4894.4136,97.0
4896.3716,86.0
4898.33,99.0
4900.2896,96.0
4902.2495,106.0
4904.2104,115.0
4906.1724,92.0
4908.135,97.0
4910.098,107.0
4912.062,106.0
4914.027,99.0
4915.9927,97.0
4917.959,97.0
4919.9263,97.0
4921.894,104.0
4923.863,108.0
4925.8325,93.0
4927.8027,113.0
4929.774,120.0
4931.7456,114.0
4933.7183,119.0
4935.692,100.0
4937.666,117.0
4939.641,96.0
4941.617,103.0
4943.5938,93.0
4945.5713,114.0
4947.5493,89.0
4949.5283,113.0
4951.5083,105.0
4953.489,100.0
4955.47,124.0
4957.4526,112.0
4959.4355,104.0
4961.4194,116.0
4963.404,111.0
4965.389,90.0
4967.3755,119.0
4969.3623,108.0
4971.35,100.0
4973.339,131.0
4975.328,147.0
4977.3184,108.0
4979.309,120.0
4981.301,124.0
4983.2935,112.0
4985.2866,124.0
4987.281,123.0
4989.276,119.0
4991.2715,139.0
4993.268,111.0
4995.265,118.0
4997.263,136.0
4999.262,140.0
5001.2617,114.0
5003.262,98.0
5005.2637,121.0
5007.2656,133.0
5009.2686,137.0
5011.2725,110.0
5013.277,140.0
5015.282,120.0
5017.2886,106.0
5019.2954,139.0
5021.303,126.0
5023.3115,114.0
5025.321,115.0
5027.331,121.0
5029.342,123.0
5031.3535,122.0
5033.366,122.0
5035.3794,125.0
5037.3936,126.0
5039.4087,123.0
5041.4243,149.0
5043.441,119.0
5045.4585,119.0
5047.4766,131.0
5049.4956,128.0
5051.5156,134.0
5053.536,107.0
5055.5576,105.0
5057.58,118.0
5059.603,120.0
5061.627,102.0
5063.6514,120.0
5065.677,140.0
5067.703,117.0
5069.73,120.0
5071.758,115.0
5073.7866,130.0
5075.816,117.0
5077.846,124.0
5079.8774,116.0
5081.909,121.0
5083.942,103.0
5085.9756,128.0
5088.01,133.0
5090.045,126.0
5092.081,112.0
5094.1177,109.0
5096.1553,103.0
5098.194,84.0
5100.233,113.0
5102.273,129.0
5104.314,129.0
5106.3555,123.0
5108.398,116.0
5110.4414,109.0
5112.4854,137.0
5114.5303,141.0
5116.576,115.0
5118.6226,111.0
5120.67,108.0
5122.7183,89.0
5124.7676,135.0
5126.8174,126.0
5128.868,129.0
5130.92,130.0
5132.972,105.0
5135.0254,136.0
5137.0796,118.0
5139.1343,114.0
5141.19,126.0
5143.2466,123.0
5145.3037,149.0
5147.362,142.0
5149.421,128.0
5151.4805,127.0
5153.541,118.0
5155.6025,141.0
5157.6646,132.0
5159.7275,145.0
5161.7915,124.0
5163.8564,127.0
5165.922,117.0
5167.9883,107.0
5170.0557,107.0
5172.1235,142.0
5174.1924,123.0
5176.262,122.0
5178.3325,145.0
5180.404,155.0
5182.476,125.0
5184.549,116.0
5186.6226,150.0
5188.6973,116.0
5190.773,121.0
5192.849,103.0
5194.9263,132.0
5197.0044,133.0
5199.083,105.0
5201.1626,148.0
5203.243,153.0
5205.324,140.0
5207.4062,109.0
5209.4893,114.0
5211.573,133.0
5213.6577,118.0
5215.743,112.0
5217.8296,142.0
5219.9165,153.0
5222.0044,159.0
5224.0933,145.0
5226.183,150.0
5228.2734,159.0
5230.3647,130.0
5232.457,133.0
5234.55,124.0
5236.6436,115.0
5238.7383,132.0
5240.834,125.0
5242.93,124.0
5245.0273,135.0
5247.1255,129.0
5249.224,111.0
5251.3237,137.0
5253.4243,124.0
5255.526,117.0
5257.628,132.0
5259.731,118.0
5261.835,117.0
5263.9395,138.0
5266.045,134.0
5268.1514,149.0
5270.259,117.0
5272.3667,130.0
5274.4756,142.0
5276.5854,125.0
5278.6963,127.0
5280.8076,145.0
5282.92,148.0
5285.033,163.0
5287.147,143.0
5289.2617,112.0
5291.3774,124.0
5293.494,107.0
5295.6113,134.0
5297.7295,152.0
5299.8486,151.0
5301.9688,164.0
5304.0894,134.0
5306.211,121.0
5308.3335,116.0
5310.457,114.0
5312.581,122.0
5314.706,134.0
5316.832,180.0
5318.959,200.0
5321.0864,186.0
5323.215,136.0
5325.344,138.0
5327.4746,130.0
5329.6055,129.0
5331.7373,117.0
5333.87,130.0
5336.004,104.0
5338.138,134.0
5340.2734,136.0
5342.4097,136.0
5344.547,137.0
5346.6846,127.0
5348.823,139.0
5350.963,138.0
5353.1035,122.0
5355.2446,136.0
5357.3867,141.0
5359.53,138.0
5361.674,144.0
5363.8184,139.0
5365.964,145.0
5368.1104,94.0
5370.258,139.0
5372.406,132.0
5374.5547,149.0
5376.7046,172.0
5378.8555,162.0
5381.007,142.0
5383.159,137.0
5385.3125,147.0
5387.467,127.0
5389.6216,150.0
5391.7773,157.0
5393.934,157.0
5396.092,151.0
5398.25,140.0
5400.409,138.0
5402.5693,135.0
5404.7305,148.0
5406.8926,159.0
5409.055,145.0
5411.2188,162.0
5413.3833,156.0
5415.549,161.0
5417.715,144.0
5419.882,140.0
5422.05,160.0
5424.2188,168.0
5426.3887,150.0
5428.559,145.0
5430.7305,137.0
5432.903,148.0
5435.076,129.0
5437.25,124.0
5439.425,129.0
5441.6006,162.0
5443.7773,184.0
5445.955,154.0
5448.1333,133.0
5450.3125,143.0
5452.4927,119.0
5454.674,129.0
5456.8555,145.0
5459.038,140.0
5461.2217,152.0
5463.4062,143.0
5465.592,128.0
5467.778,139.0
5469.965,146.0
5472.153,178.0
5474.342,181.0
5476.5317,129.0
5478.722,153.0
5480.9136,157.0
5483.106,137.0
5485.2993,155.0
5487.4937,163.0
5489.6885,163.0
5491.8843,148.0
5494.081,148.0
5496.279,153.0
5498.4775,136.0
5500.677,146.0
5502.877,142.0
5505.078,171.0
5507.2803,194.0
5509.4834,159.0
5511.687,177.0
5513.8916,165.0
5516.097,137.0
5518.3037,133.0
5520.511,162.0
5522.719,156.0
5524.928,174.0
5527.138,150.0
5529.349,132.0
5531.561,177.0
5533.7734,145.0
5535.987,145.0
5538.201,151.0
5540.4165,184.0
5542.633,169.0
5544.85,143.0
5547.068,146.0
5549.2866,134.0
5551.5063,142.0
5553.727,152.0
5555.9487,167.0
5558.171,132.0
5560.394,165.0
5562.618,153.0
5564.8433,167.0
5567.0693,156.0
5569.2964,163.0
5571.524,140.0
5573.7524,149.0
5575.982,148.0
5578.2124,128.0
5580.444,146.0
5582.676,158.0
5584.9087,142.0
5587.1426,149.0
5589.3774,150.0
5591.6133,141.0
5593.85,131.0
5596.0874,142.0
5598.3257,163.0
5600.565,162.0
5602.805,154.0
5605.0464,150.0
5607.2886,130.0
5609.5312,139.0
5611.775,143.0
5614.0195,163.0
5616.265,130.0
5618.5117,151.0
5620.7593,128.0
5623.008,116.0
5625.257,131.0
5627.507,135.0
5629.758,139.0
5632.01,123.0
5634.2627,131.0
5636.5166,142.0
5638.771,138.0
5641.0264,132.0
5643.2827,128.0
5645.54,141.0
5647.7983,145.0
5650.0576,129.0
5652.318,131.0
5654.5786,122.0
5656.8403,160.0
5659.103,138.0
5661.3667,141.0
5663.6313,121.0
5665.897,126.0
5668.1636,143.0
5670.4307,149.0
5672.6987,150.0
5674.968,130.0
5677.238,170.0
5679.509,140.0
5681.781,119.0
5684.0537,160.0
5686.327,150.0
5688.6016,153.0
5690.877,145.0
5693.1533,164.0
5695.4307,153.0
5697.709,155.0
5699.9883,126.0
5702.268,141.0
5704.549,133.0
5706.8306,124.0
5709.1133,143.0
5711.397,163.0
5713.6816,145.0
5715.9673,167.0
5718.254,167.0
5720.541,171.0
5722.829,150.0
5725.118,143.0
5727.408,165.0
5729.699,134.0
5731.991,191.0
5734.284,148.0
5736.578,166.0
5738.8726,183.0
5741.168,154.0
5743.4644,164.0
5745.7617,166.0
5748.06,165.0
5750.3594,154.0
5752.6597,160.0
5754.961,189.0
5757.2627,146.0
5759.5654,171.0
5761.869,178.0
5764.174,163.0
5766.4795,145.0
5768.786,153.0
5771.0938,195.0
5773.4023,180.0
5775.712,197.0
5778.022,136.0
5780.333,189.0
5782.645,174.0
5784.958,151.0
5787.272,182.0
5789.587,161.0
5791.903,181.0
5794.2197,170.0
5796.5376,127.0
5798.8564,198.0
5801.176,166.0
5803.496,202.0
5805.8174,205.0
5808.1396,210.0
5810.463,158.0
5812.787,198.0
5815.1123,192.0
5817.4385,204.0
5819.7656,205.0
5822.0938,229.0
5824.4224,208.0
5826.752,194.0
5829.0825,193.0
5831.414,215.0
5833.7466,202.0
5836.08,221.0
5838.4146,244.0
5840.75,284.0
5843.0864,196.0
5845.424,188.0
5847.762,240.0
5850.101,209.0
5852.441,185.0
5854.7817,158.0
5857.1235,183.0
5859.4663,178.0
5861.81,216.0
5864.155,198.0
5866.5005,186.0
5868.847,195.0
5871.195,175.0
5873.5435,198.0
5875.893,201.0
5878.2437,202.0
5880.5947,211.0
5882.947,187.0
5885.3,214.0
5887.654,217.0
5890.009,198.0
5892.3647,207.0
5894.7217,197.0
5897.0796,216.0
5899.4385,198.0
5901.7983,210.0
5904.159,196.0
5906.521,240.0
5908.884,243.0
5911.2476,228.0
5913.612,201.0
5915.977,238.0
5918.3433,207.0
5920.7104,233.0
5923.0786,217.0
5925.4478,200.0
5927.818,236.0
5930.189,233.0
5932.561,225.0
5934.934,237.0
5937.308,240.0
5939.683,238.0
5942.059,258.0
5944.436,273.0
5946.814,248.0
5949.193,253.0
5951.5728,238.0
5953.9536,214.0
5956.335,230.0
5958.7173,259.0
5961.1006,268.0
5963.485,292.0
5965.87,253.0
5968.2563,238.0
5970.6436,225.0
5973.0317,260.0
5975.421,285.0
5977.811,274.0
5980.202,256.0
5982.594,257.0
5984.9873,261.0
5987.3813,242.0
5989.7764,250.0
5992.1724,258.0
5994.5693,296.0
5996.9673,272.0
5999.366,220.0
6001.766,305.0
6004.167,311.0
6006.569,264.0
6008.9717,281.0
6011.3755,336.0
6013.7803,251.0
6016.1855,248.0
6018.592,268.0
6020.999,277.0
6023.407,231.0
6025.8164,221.0
6028.2266,254.0
6030.6377,251.0
6033.05,267.0
6035.463,264.0
6037.877,292.0
6040.292,244.0
6042.708,257.0
6045.125,280.0
6047.543,219.0
6049.962,235.0
6052.382,201.0
6054.8027,219.0
6057.2246,211.0
6059.6475,237.0
6062.0713,277.0
6064.496,331.0
6066.922,257.0
6069.3486,234.0
6071.7764,212.0
6074.205,219.0
6076.635,215.0
6079.0654,211.0
6081.497,251.0
6083.9297,233.0
6086.3633,234.0
6088.798,231.0
6091.2334,235.0
6093.67,234.0
6096.1074,219.0
6098.546,267.0
6100.9854,275.0
6103.426,264.0
6105.867,238.0
6108.3096,258.0
6110.753,271.0
6113.1973,249.0
6115.6426,285.0
6118.089,281.0
6120.536,283.0
6122.9844,238.0
6125.4336,259.0
6127.884,273.0
6130.335,320.0
6132.787,364.0
6135.24,339.0
6137.6943,263.0
6140.1494,284.0
6142.6055,322.0
6145.0625,310.0
6147.5205,316.0
6149.9795,375.0
6152.4395,329.0
6154.9004,334.0
6157.3623,380.0
6159.825,423.0
6162.289,308.0
6164.754,321.0
6167.2197,276.0
6169.6865,279.0
6172.1543,333.0
6174.623,513.0
6177.093,558.0
6179.5635,377.0
6182.035,327.0
6184.508,350.0
6186.9814,298.0
6189.456,336.0
6191.9316,614.0
6194.408,596.0
6196.8857,484.0
6199.3643,421.0
6201.844,403.0
6204.325,310.0
6206.807,330.0
6209.29,303.0
6211.774,282.0
6214.259,349.0
6216.7446,396.0
6219.2314,404.0
6221.719,336.0
6224.208,287.0
6226.6978,302.0
6229.1885,392.0
6231.68,503.0
6234.173,488.0
6236.6665,411.0
6239.161,349.0
6241.6567,301.0
6244.1533,322.0
6246.651,427.0
6249.1494,498.0
6251.649,373.0
6254.1494,408.0
6256.651,425.0
6259.1533,432.0
6261.6567,366.0
6264.1616,296.0
6266.6675,260.0
6269.1743,289.0
6271.682,540.0
6274.191,782.0
6276.7007,582.0
6279.2114,371.0
6281.723,281.0
6284.236,244.0
6286.7495,315.0
6289.264,710.0
6291.78,1048.0
6294.2964,765.0
6296.814,435.0
6299.3325,329.0
6301.852,252.0
6304.3726,256.0
6306.8945,297.0
6309.4175,280.0
6311.9414,284.0
6314.4663,285.0
6316.992,269.0
6319.519,247.0
6322.047,234.0
6324.5757,237.0
6327.1055,253.0
6329.636,250.0
6332.168,228.0
6334.7007,244.0
6337.2344,293.0
6339.769,240.0
6342.305,245.0
6344.8423,248.0
6347.3804,263.0
6349.9194,252.0
6352.4595,247.0
6355.0005,241.0
6357.5425,234.0
6360.0854,250.0
6362.6294,263.0
6365.1743,245.0
6367.72,245.0
6370.267,270.0
6372.8154,255.0
6375.3647,245.0
6377.915,264.0
6380.4663,240.0
6383.0186,293.0
6385.572,292.0
6388.126,287.0
6390.681,239.0
6393.2373,283.0
6395.7944,240.0
6398.3525,245.0
6400.912,226.0
6403.4727,320.0
6406.034,292.0
6408.5967,289.0
6411.16,272.0
6413.7246,257.0
6416.29,239.0
6418.8564,240.0
6421.424,270.0
6423.992,248.0
6426.562,282.0
6429.133,294.0
6431.7046,298.0
6434.2773,274.0
6436.851,282.0
6439.426,250.0
6442.0015,255.0
6444.578,296.0
6447.156,313.0
6449.735,292.0
6452.315,283.0
6454.896,220.0
6457.478,261.0
6460.061,218.0
6462.645,258.0
6465.23,284.0
6467.816,250.0
6470.403,268.0
6472.991,235.0
6475.5806,261.0
6478.171,254.0
6480.762,267.0
6483.3545,270.0
6485.9478,253.0
6488.542,287.0
6491.137,303.0
6493.734,273.0
6496.3315,299.0
6498.93,291.0
6501.53,256.0
6504.1304,320.0
6506.732,294.0
6509.3345,274.0
6511.938,300.0
6514.543,330.0
6517.149,351.0
6519.756,300.0
6522.364,292.0
6524.9727,339.0
6527.5825,318.0
6530.1934,311.0
6532.8057,334.0
6535.419,281.0
6538.033,323.0
6540.6484,386.0
6543.2646,337.0
6545.882,310.0
6548.5,323.0
6551.1196,323.0
6553.74,335.0
6556.362,431.0
6558.9844,420.0
6561.608,411.0
6564.2324,344.0
6566.858,321.0
6569.485,306.0
6572.113,347.0
6574.7417,360.0
6577.3716,357.0
6580.0024,340.0
6582.6343,358.0
6585.267,312.0
6587.9014,298.0
6590.5366,327.0
6593.173,344.0
6595.81,333.0
6598.448,354.0
6601.0874,339.0
6603.728,293.0
6606.3696,325.0
6609.012,338.0
6611.656,359.0
6614.3003,336.0
6616.946,311.0
6619.593,350.0
6622.2407,363.0
6624.8896,328.0
6627.5396,350.0
6630.1904,322.0
6632.8423,312.0
6635.4956,314.0
6638.15,437.0
6640.805,385.0
6643.4614,384.0
6646.1187,335.0
6648.7773,311.0
6651.437,321.0
6654.0977,362.0
6656.7593,420.0
6659.422,381.0
6662.0854,357.0
6664.7505,315.0
6667.4165,305.0
6670.0835,291.0
6672.7515,283.0
6675.4204,288.0
6678.091,314.0
6680.762,306.0
6683.4346,350.0
6686.108,269.0
6688.782,261.0
6691.4575,302.0
6694.1343,311.0
6696.812,349.0
6699.4907,350.0
6702.1704,294.0
6704.851,305.0
6707.533,330.0
6710.2163,308.0
6712.9004,321.0
6715.5854,328.0
6718.2715,393.0
6720.959,315.0
6723.6475,349.0
6726.337,379.0
6729.0273,347.0
6731.7188,332.0
6734.4116,331.0
6737.1055,328.0
6739.8003,417.0
6742.496,448.0
6745.193,394.0
6747.891,352.0
6750.5903,314.0
6753.2905,331.0
6755.9917,393.0
6758.6943,502.0
6761.398,484.0
6764.1025,429.0
6766.808,445.0
6769.5146,319.0
6772.2227,348.0
6774.9316,383.0
6777.6416,392.0
6780.3525,450.0
6783.0645,437.0
6785.778,406.0
6788.492,361.0
6791.2075,429.0
6793.924,365.0
6796.6416,349.0
6799.3604,359.0
6802.08,350.0
6804.801,411.0
6807.5225,461.0
6810.2456,533.0
6812.9697,367.0
6815.695,328.0
6818.421,281.0
6821.1484,466.0
6823.877,655.0
6826.6064,598.0
6829.337,445.0
6832.069,323.0
6834.802,289.0
6837.5356,273.0
6840.2705,436.0
6843.007,582.0
6845.744,484.0
6848.4824,350.0
6851.2217,289.0
6853.9624,296.0
6856.704,322.0
6859.447,365.0
6862.1904,391.0
6864.9355,352.0
6867.6816,329.0
6870.4287,346.0
6873.177,288.0
6875.9263,305.0
6878.677,295.0
6881.428,315.0
6884.1807,282.0
6886.9346,295.0
6889.6895,246.0
6892.4453,288.0
6895.202,322.0
6897.9604,298.0
6900.7197,324.0
6903.48,312.0
6906.241,300.0
6909.004,308.0
6911.7676,380.0
6914.532,350.0
6917.298,354.0
6920.065,376.0
6922.833,341.0
6925.602,333.0
6928.372,349.0
6931.1436,386.0
6933.916,333.0
6936.6895,310.0
6939.4644,273.0
6942.24,294.0
6945.017,329.0
6947.795,374.0
6950.574,314.0
6953.3545,330.0
6956.1357,353.0
6958.918,344.0
6961.7017,332.0
6964.4863,338.0
6967.272,300.0
6970.059,354.0
6972.847,377.0
6975.636,393.0
6978.4263,402.0
6981.218,372.0
6984.0103,372.0
6986.8037,371.0
6989.5986,370.0
6992.3945,467.0
6995.1914,428.0
6997.9893,458.0
7000.7886,469.0
7003.589,451.0
7006.39,382.0
7009.193,412.0
7011.9966,388.0
7014.8013,445.0
7017.6074,537.0
7020.4146,482.0
7023.2227,521.0
7026.0317,608.0
7028.8423,487.0
7031.654,430.0
7034.4663,358.0
7037.2803,333.0
7040.095,485.0
7042.911,713.0
7045.7285,615.0
7048.547,399.0
7051.366,387.0
7054.1865,374.0
7057.0083,532.0
7059.831,1004.0
7062.655,916.0
7065.48,538.0
7068.306,393.0
7071.1333,382.0
7073.962,362.0
7076.7915,350.0
7079.622,391.0
7082.454,393.0
7085.287,376.0
7088.121,336.0
7090.9565,372.0
7093.793,404.0
7096.6304,451.0
7099.469,419.0
7102.309,398.0
7105.15,372.0
7107.992,455.0
7110.8354,428.0
7113.6797,507.0
7116.5254,451.0
7119.372,487.0
7122.2197,509.0
7125.069,567.0
7127.919,573.0
7130.77,490.0
7133.6226,470.0
7136.476,498.0
7139.3306,626.0
7142.1865,603.0
7145.0435,521.0
7147.9014,554.0
7150.7607,533.0
7153.621,554.0
7156.4824,810.0
7159.345,848.0
7162.209,664.0
7165.0737,529.0
7167.94,550.0
7170.807,655.0
7173.6753,735.0
7176.545,597.0
7179.4155,632.0
7182.287,571.0
7185.16,576.0
7188.034,659.0
7190.909,665.0
7193.7856,597.0
7196.663,749.0
7199.542,907.0
7202.422,623.0
7205.3027,476.0
7208.185,353.0
7211.0684,517.0
7213.9526,1025.0
7216.8384,1062.0
7219.725,610.0
7222.613,391.0
7225.502,347.0
7228.392,569.0
7231.283,1571.0
7234.176,1601.0
7237.0693,910.0
7239.9644,481.0
7242.8604,413.0
7245.7573,360.0
7248.656,352.0
7251.555,385.0
7254.4556,380.0
7257.3574,426.0
7260.2603,329.0
7263.1646,320.0
7266.07,340.0
7268.976,388.0
7271.884,386.0
7274.7925,331.0
7277.7026,387.0
7280.614,323.0
7283.526,379.0
7286.4395,415.0
7289.354,326.0
7292.2695,365.0
7295.1865,433.0
7298.1045,412.0
7301.024,353.0
7303.9443,298.0
7306.8657,297.0
7309.7886,371.0
7312.7124,561.0
7315.6377,519.0
7318.564,352.0
7321.491,300.0
7324.42,286.0
7327.3496,423.0
7330.281,607.0
7333.213,539.0
7336.146,428.0
7339.0806,324.0
7342.016,292.0
7344.953,334.0
7347.891,397.0
7350.83,379.0
7353.7705,341.0
7356.712,346.0
7359.655,311.0
7362.5986,266.0
7365.5435,280.0
7368.4897,301.0
7371.437,286.0
7374.3857,353.0
7377.3354,327.0
7380.2866,320.0
7383.239,362.0
7386.192,325.0
7389.1465,298.0
7392.102,291.0
7395.059,271.0
7398.017,353.0
7400.976,379.0
7403.9365,328.0
7406.898,317.0
7409.861,249.0
7412.8247,253.0
7415.79,344.0
7418.7563,344.0
7421.7236,324.0
7424.6924,267.0
7427.662,258.0
7430.6333,232.0
7433.6055,404.0
7436.579,351.0
7439.5537,311.0
7442.5293,294.0
7445.5063,284.0
7448.4844,238.0
7451.464,264.0
7454.4443,249.0
7457.4263,229.0
7460.409,244.0
7463.3936,205.0
7466.379,260.0
7469.365,260.0
7472.353,223.0
7475.342,208.0
7478.332,210.0
7481.323,235.0
7484.316,320.0
7487.3096,364.0
7490.3047,254.0
7493.301,216.0
7496.2983,203.0
7499.297,245.0
7502.2964,253.0
7505.2974,245.0
7508.2993,235.0
7511.3027,224.0
7514.307,180.0
7517.313,201.0
7520.32,232.0
7523.328,238.0
7526.3374,231.0
7529.348,244.0
7532.36,229.0
7535.373,218.0
7538.387,207.0
7541.4023,213.0
7544.419,234.0
7547.4365,249.0
7550.4556,230.0
7553.4756,227.0
7556.497,212.0
7559.5195,212.0
7562.5435,293.0
7565.5684,325.0
7568.5947,254.0
7571.622,227.0
7574.651,235.0
7577.6807,209.0
7580.712,201.0
7583.744,223.0
7586.778,214.0
7589.8125,207.0
7592.8486,200.0
7595.8857,205.0
7598.9243,238.0
7601.964,244.0
7605.005,219.0
7608.047,185.0
7611.0903,198.0
7614.135,244.0
7617.18,302.0
7620.227,249.0
7623.275,200.0
7626.324,214.0
7629.3745,189.0
7632.4263,187.0
7635.479,195.0
7638.533,210.0
7641.5884,221.0
7644.645,191.0
7647.7026,210.0
7650.7617,182.0
7653.8223,167.0
7656.884,234.0
7659.947,238.0
7663.0107,204.0
7666.076,197.0
7669.1426,233.0
7672.2104,201.0
7675.2793,209.0
7678.3496,223.0
7681.421,240.0
7684.4937,232.0
7687.5674,226.0
7690.6426,215.0
7693.7188,218.0
7696.7964,227.0
7699.875,229.0
7702.955,259.0
7706.036,228.0
7709.1187,252.0
7712.202,257.0
7715.287,252.0
7718.373,259.0
7721.4604,248.0
7724.549,249.0
7727.6387,298.0
7730.7295,283.0
7733.822,252.0
7736.9155,266.0
7740.0103,245.0
7743.1064,304.0
7746.2036,339.0
7749.3022,290.0
7752.402,310.0
7755.503,309.0
7758.605,263.0
7761.7085,278.0
7764.813,314.0
7767.919,322.0
7771.026,300.0
7774.1343,339.0
7777.244,285.0
7780.355,245.0
7783.4673,267.0
7786.5806,360.0
7789.6953,428.0
7792.811,374.0
7795.928,341.0
7799.0464,297.0
7802.166,282.0
7805.287,282.0
7808.409,327.0
7811.5327,359.0
7814.657,344.0
7817.783,330.0
7820.91,296.0
7824.0386,279.0
7827.168,395.0
7830.299,416.0
7833.431,347.0
7836.5645,312.0
7839.699,321.0
7842.835,320.0
7845.972,386.0
7849.1104,415.0
7852.25,358.0
7855.391,388.0
7858.533,348.0
7861.677,307.0
7864.8213,334.0
7867.9673,292.0
7871.1143,320.0
7874.2627,341.0
7877.4126,347.0
7880.5635,360.0
7883.716,405.0
7886.869,379.0
7890.024,324.0
7893.18,304.0
7896.3374,329.0
7899.496,467.0
7902.656,521.0
7905.817,418.0
7908.979,374.0
7912.1426,385.0
7915.3076,507.0
7918.4736,571.0
7921.641,502.0
7924.8096,445.0
7927.9795,412.0
7931.151,405.0
7934.323,429.0
7937.497,418.0
7940.672,535.0
7943.848,512.0
7947.026,455.0
7950.2046,471.0
7953.385,546.0
7956.566,560.0
7959.7485,537.0
7962.9326,494.0
7966.1177,560.0
7969.304,612.0
7972.4917,627.0
7975.6807,582.0
7978.871,619.0
7982.0625,632.0
7985.2554,729.0
7988.4497,751.0
7991.645,767.0
7994.842,718.0
7998.0396,698.0
8001.239,781.0
8004.4395,951.0
8007.641,1003.0
8010.844,864.0
8014.0483,864.0
8017.254,910.0
8020.461,950.0
8023.669,907.0
8026.8784,925.0
8030.0894,926.0
8033.3013,1011.0
8036.5146,1182.0
8039.7295,1290.0
8042.9453,1300.0
8046.1626,1109.0
8049.381,1121.0
8052.6006,1354.0
8055.822,1623.0
8059.044,1749.0
8062.2676,1458.0
8065.4927,1605.0
8068.7188,1714.0
8071.9463,1688.0
8075.1753,1939.0
8078.4053,2012.0
8081.6367,2335.0
8084.869,2548.0
8088.103,2234.0
8091.3384,1912.0
8094.5747,1850.0
8097.8125,2591.0
8101.052,3771.0
8104.292,3451.0
8107.5337,2988.0
8110.777,2508.0
8114.021,2362.0
8117.2666,4005.0
8120.5137,5133.0
8123.7617,4275.0
8127.011,4161.0
8130.262,3302.0
8133.514,2962.0
8136.7676,3293.0
8140.0225,4256.0
8143.2783,5930.0
8146.5356,5193.0
8149.7944,4023.0
8153.054,4856.0
8156.3154,4447.0
8159.578,5306.0
8162.842,6475.0
8166.107,5918.0
8169.3735,9269.0
8172.641,8775.0
8175.91,4870.0
8179.1807,2811.0
8182.452,3536.0
8185.725,14313.0
8188.9995,18058.0
8192.275,8075.0
8195.553,3315.0
8198.831,2613.0
8202.11,14529.0
8205.392,36118.0
8208.674,20518.0
8211.957,6583.0
8215.242,2673.0
8218.528,1748.0
8221.815,1570.0
8225.1045,2410.0
8228.395,3329.0
8231.686,2197.0
8234.979,1257.0
8238.272,869.0
8241.567,922.0
8244.864,1083.0
8248.162,1107.0
8251.461,979.0
8254.762,805.0
8258.063,706.0
8261.367,743.0
8264.672,786.0
8267.978,821.0
8271.285,862.0
8274.594,764.0
8277.903,611.0
8281.215,615.0
8284.527,655.0
8287.841,837.0
8291.156,785.0
8294.473,651.0
8297.79,621.0
8301.109,680.0
8304.43,793.0
8307.751,776.0
8311.074,767.0
8314.398,849.0
8317.725,777.0
8321.052,700.0
8324.38,633.0
8327.71,735.0
8331.041,1031.0
8334.373,996.0
8337.707,709.0
8341.042,697.0
8344.378,738.0
8347.716,1158.0
8351.055,1150.0
8354.3955,945.0
8357.737,871.0
8361.08,760.0
8364.425,583.0
8367.7705,567.0
8371.117,635.0
8374.466,861.0
8377.815,934.0
8381.167,598.0
8384.52,476.0
8387.873,583.0
8391.229,712.0
8394.585,837.0
8397.942,675.0
8401.302,531.0
8404.662,487.0
8408.024,633.0
8411.388,574.0
8414.752,520.0
8418.118,462.0
8421.485,441.0
8424.854,394.0
8428.224,425.0
8431.595,494.0
8434.968,460.0
8438.342,475.0
8441.717,461.0
8445.094,469.0
8448.472,564.0
8451.851,494.0
8455.231,537.0
8458.613,513.0
8461.997,556.0
8465.382,648.0
8468.768,634.0
8472.155,629.0
8475.544,592.0
8478.935,604.0
8482.326,571.0
8485.719,683.0
8489.113,813.0
8492.509,938.0
8495.906,786.0
8499.305,696.0
8502.704,799.0
8506.105,1021.0
8509.508,1125.0
8512.911,1029.0
8516.316,1060.0
8519.723,1193.0
8523.131,999.0
8526.54,1205.0
8529.95,1188.0
8533.362,1693.0
8536.775,2028.0
8540.19,1374.0
8543.606,849.0
8547.023,812.0
8550.442,2196.0
8553.862,3170.0
8557.284,1889.0
8560.707,1023.0
8564.131,861.0
8567.557,2753.0
8570.983,5191.0
8574.412,3046.0
8577.842,1463.0
8581.272,891.0
8584.705,702.0
8588.139,567.0
8591.574,876.0
8595.011,1227.0
8598.449,1031.0
8601.889,621.0
8605.329,491.0
8608.771,455.0
8612.215,444.0
8615.66,408.0
8619.106,464.0
8622.554,455.0
8626.003,425.0
8629.453,347.0
8632.905,384.0
8636.358,423.0
8639.8125,425.0
8643.269,421.0
8646.726,409.0
8650.185,408.0
8653.645,413.0
8657.106,425.0
8660.569,408.0
8664.033,379.0
8667.499,429.0
8670.966,436.0
8674.435,443.0
8677.904,470.0
8681.375,472.0
8684.848,445.0
8688.321,430.0
8691.797,452.0
8695.273,521.0
8698.752,598.0
8702.231,490.0
8705.712,498.0
8709.194,545.0
8712.678,625.0
8716.163,662.0
8719.649,638.0
8723.138,586.0
8726.627,624.0
8730.117,616.0
8733.609,634.0
8737.103,700.0
8740.598,675.0
8744.094,677.0
8747.592,616.0
8751.091,729.0
8754.591,850.0
8758.093,845.0
8761.596,753.0
8765.101,750.0
8768.606,901.0
8772.114,1059.0
8775.623,926.0
8779.133,957.0
8782.645,977.0
8786.157,944.0
8789.672,1058.0
8793.1875,1060.0
8796.705,1369.0
8800.224,1516.0
8803.744,1090.0
8807.266,826.0
8810.788,960.0
8814.3125,1954.0
8817.838,2135.0
8821.365,1289.0
8824.894,962.0
8828.424,1095.0
8831.955,2303.0
8835.488,2496.0
8839.022,1575.0
8842.558,1356.0
8846.095,1045.0
8849.633,885.0
8853.173,956.0
8856.714,1484.0
8860.257,1762.0
8863.801,1222.0
8867.347,1017.0
8870.894,1026.0
8874.442,1668.0
8877.992,2474.0
8881.543,1756.0
8885.096,1249.0
8888.649,1024.0
8892.205,1072.0
8895.762,1103.0
8899.32,1451.0
8902.88,1381.0
8906.441,1161.0
8910.004,956.0
8913.568,1080.0
8917.134,1672.0
8920.7,1533.0
8924.269,1176.0
8927.838,1051.0
8931.409,1236.0
8934.981,1915.0
8938.556,1683.0
8942.131,1318.0
8945.708,1122.0
8949.286,938.0
8952.866,842.0
8956.447,958.0
8960.03,1293.0
8963.614,1242.0
8967.199,949.0
8970.786,833.0
8974.374,920.0
8977.964,1098.0
8981.555,1047.0
8985.147,888.0
8988.741,804.0
8992.337,1017.0
8995.934,1017.0
8999.532,1047.0
9003.132,806.0
9006.733,908.0
9010.336,934.0
9013.94,894.0
9017.546,787.0
9021.153,921.0
9024.762,1036.0
9028.372,1121.0
9031.983,822.0
9035.597,600.0
9039.211,758.0
9042.826,1118.0
9046.443,1004.0
9050.062,673.0
9053.682,583.0
9057.303,868.0
9060.926,1537.0
9064.55,1186.0
9068.176,702.0
9071.803,525.0
9075.432,652.0
9079.062,810.0
9082.693,693.0
9086.326,540.0
9089.961,494.0
9093.597,568.0
9097.234,667.0
9100.873,592.0
9104.514,575.0
9108.155,496.0
9111.799,411.0
9115.443,374.0
9119.09,561.0
9122.737,621.0
9126.387,475.0
9130.037,439.0
9133.689,459.0
9137.343,554.0
9140.998,625.0
9144.654,539.0
9148.3125,514.0
9151.972,461.0
9155.633,446.0
9159.295,452.0
9162.959,610.0
9166.624,646.0
9170.291,519.0
9173.959,372.0
9177.629,492.0
9181.3,844.0
9184.973,815.0
9188.646,533.0
9192.322,422.0
9195.999,560.0
9199.678,766.0
9203.357,610.0
9207.039,524.0
9210.722,432.0
9214.406,319.0
9218.092,291.0
9221.779,420.0
9225.468,602.0
9229.158,422.0
9232.85,300.0
9236.543,288.0
9240.237,491.0
9243.934,606.0
9247.631,472.0
9251.33,335.0
9255.03,254.0
9258.732,225.0
9262.436,216.0
9266.141,316.0
9269.847,271.0
9273.555,220.0
9277.264,195.0
9280.975,225.0
9284.687,235.0
9288.4,228.0
9292.116,205.0
9295.833,206.0
9299.552,193.0
9303.271,187.0
9306.993,200.0
9310.716,180.0
9314.44,187.0
9318.166,149.0
9321.894,168.0
9325.622,194.0
9329.353,170.0
9333.084,181.0
9336.817,136.0
9340.552,151.0
9344.288,148.0
9348.025,151.0
9351.765,170.0
9355.505,159.0
9359.247,151.0
9362.991,134.0
9366.736,155.0
9370.483,137.0
9374.231,138.0
9377.981,157.0
9381.732,164.0
9385.485,157.0
9389.239,164.0
9392.995,135.0
9396.752,140.0
9400.511,153.0
9404.2705,137.0
9408.032,144.0
9411.796,174.0
9415.561,130.0
9419.327,144.0
9423.095,135.0
9426.864,175.0
9430.635,165.0
9434.407,142.0
9438.181,135.0
9441.956,155.0
9445.732,196.0
9449.511,149.0
9453.291,123.0
9457.072,142.0
9460.855,192.0
9464.64,184.0
9468.426,147.0
9472.213,128.0
9476.002,116.0
9479.792,103.0
9483.584,111.0
9487.377,152.0
9491.172,151.0
9494.969,135.0
9498.767,125.0
9502.566,131.0
9506.367,154.0
9510.17,166.0
9513.974,126.0
9517.779,125.0
9521.586,106.0
9525.395,97.0
9529.205,143.0
9533.017,135.0
9536.83,123.0
9540.645,115.0
9544.461,119.0
9548.278,172.0
9552.098,194.0
9555.919,131.0
9559.741,97.0
9563.565,112.0
9567.391,110.0
9571.218,111.0
9575.046,116.0
9578.876,84.0
9582.708,91.0
9586.541,84.0
9590.376,118.0
9594.212,100.0
9598.05,90.0
9601.889,89.0
9605.7295,81.0
9609.572,106.0
9613.416,92.0
9617.262,89.0
9621.108,102.0
9624.957,78.0
9628.807,85.0
9632.658,95.0
9636.512,95.0
9640.366,84.0
9644.223,75.0
9648.08,92.0
9651.939,86.0
9655.8,83.0
9659.662,88.0
9663.526,86.0
9667.392,81.0
9671.259,69.0
9675.127,91.0
9678.997,80.0
9682.869,75.0
9686.742,90.0
9690.617,73.0
9694.493,78.0
9698.371,73.0
9702.25,78.0
9706.131,68.0
9710.014,72.0
9713.897,90.0
9717.783,78.0
9721.67,90.0
9725.559,88.0
9729.449,87.0
9733.341,57.0
9737.234,65.0
9741.129,71.0
9745.025,64.0
9748.924,90.0
9752.823,62.0
9756.725,84.0
9760.627,91.0
9764.531,68.0
9768.4375,86.0
9772.345,66.0
9776.254,77.0
9780.164,67.0
9784.076,64.0
9787.99,69.0
9791.905,82.0
9795.822,82.0
9799.74,74.0
9803.66,66.0
9807.582,76.0
9811.505,93.0
9815.43,87.0
9819.355,80.0
9823.283,80.0
9827.213,99.0
9831.144,76.0
9835.076,90.0
9839.01,93.0
9842.945,106.0
9846.883,87.0
9850.821,87.0
9854.762,82.0
9858.704,96.0
9862.647,84.0
9866.593,83.0
9870.539,78.0
9874.487,76.0
9878.4375,75.0
9882.389,74.0
9886.342,79.0
9890.296,81.0
9894.252,72.0
9898.21,103.0
9902.169,79.0
9906.13,69.0
9910.093,89.0
9914.057,65.0
9918.022,93.0
9921.989,90.0
9925.958,98.0
9929.929,101.0
9933.9,85.0
9937.874,82.0
9941.85,79.0
9945.826,82.0
9949.805,96.0
9953.784,99.0
9957.766,77.0
9961.749,77.0
9965.733,71.0
9969.72,89.0
9973.708,77.0
9977.697,85.0
9981.688,74.0
9985.681,74.0
9989.675,78.0
9993.671,80.0
9997.668,75.0
10001.667,87.0
10005.668,79.0
10009.67,61.0
10013.674,67.0
10017.68,82.0
10021.687,87.0
10025.695,88.0
10029.706,71.0
10033.718,73.0
10037.731,67.0
10041.746,74.0
10045.763,78.0
10049.781,76.0
10053.801,72.0
10057.822,72.0
10061.846,78.0
10065.87,68.0
10069.896,76.0
10073.925,90.0
10077.954,98.0
10081.985,67.0
10086.019,66.0
10090.053,89.0
10094.089,64.0
10098.127,83.0
10102.166,68.0
10106.207,78.0
10110.25,70.0
10114.294,78.0
10118.34,82.0
10122.387,86.0
10126.436,76.0
10130.486,68.0
10134.538,75.0
10138.592,83.0
10142.647,93.0
10146.704,84.0
10150.763,101.0
10154.823,96.0
10158.885,112.0
10162.948,118.0
10167.014,81.0
10171.08,77.0
10175.148,74.0
10179.219,90.0
10183.29,91.0
10187.363,89.0
10191.438,81.0
10195.515,87.0
10199.593,86.0
10203.673,93.0
10207.754,78.0
10211.837,69.0
10215.922,101.0
10220.008,94.0
10224.096,81.0
10228.186,84.0
10232.276,77.0
10236.369,80.0
10240.464,96.0
10244.56,100.0
10248.657,96.0
10252.757,91.0
10256.858,88.0
10260.961,89.0
10265.065,104.0
10269.172,81.0
10273.279,72.0
10277.389,88.0
10281.5,98.0
10285.612,65.0
10289.727,89.0
10293.843,96.0
10297.96,93.0
10302.079,93.0
10306.2,79.0
10310.322,82.0
10314.446,93.0
10318.572,87.0
10322.699,86.0
10326.828,92.0
10330.959,85.0
10335.092,103.0
10339.226,98.0
10343.361,85.0
10347.499,92.0
10351.638,92.0
10355.778,109.0
10359.921,77.0
10364.064,106.0
10368.21,83.0
10372.357,103.0
10376.507,80.0
10380.657,96.0
10384.81,89.0
10388.964,94.0
10393.119,91.0
10397.276,90.0
10401.436,68.0
10405.596,90.0
10409.758,80.0
10413.922,80.0
10418.088,77.0
10422.255,87.0
10426.424,77.0
10430.595,80.0
10434.767,82.0
10438.94,82.0
10443.116,93.0
10447.294,89.0
10451.473,90.0
10455.653,104.0
10459.836,105.0
10464.02,73.0
10468.205,88.0
10472.393,83.0
10476.581,90.0
10480.771,76.0
10484.964,82.0
10489.158,87.0
10493.354,110.0
10497.551,102.0
10501.75,81.0
10505.951,90.0
10510.153,81.0
10514.357,103.0
10518.563,87.0
10522.7705,106.0
10526.9795,81.0
10531.19,88.0
10535.403,82.0
10539.617,88.0
10543.833,92.0
10548.051,87.0
10552.27,89.0
10556.49,109.0
10560.713,97.0
10564.9375,86.0
10569.163,90.0
10573.391,94.0
10577.62,100.0
10581.852,95.0
10586.084,77.0
10590.318,98.0
10594.555,83.0
10598.793,88.0
10603.032,88.0
10607.273,102.0
10611.517,78.0
10615.761,81.0
10620.007,85.0
10624.255,81.0
10628.505,83.0
10632.756,88.0
10637.009,103.0
10641.264,82.0
10645.5205,84.0
10649.778,76.0
10654.038,85.0
10658.3,95.0
10662.563,85.0
10666.828,83.0
10671.095,90.0
10675.363,93.0
10679.634,106.0
10683.905,85.0
10688.179,87.0
10692.454,92.0
10696.731,90.0
10701.01,92.0
10705.29,87.0
10709.572,102.0
10713.856,73.0
10718.142,92.0
10722.429,100.0
10726.718,82.0
10731.009,97.0
10735.301,90.0
10739.595,102.0
10743.891,105.0
10748.188,99.0
10752.487,118.0
10756.788,103.0
10761.091,108.0
10765.3955,98.0
10769.702,70.0
10774.01,101.0
10778.319,107.0
10782.631,105.0
10786.944,82.0
10791.259,101.0
10795.575,85.0
10799.894,80.0
10804.214,90.0
10808.535,82.0
10812.858,87.0
10817.184,86.0
10821.511,90.0
10825.839,91.0
10830.169,99.0
10834.501,92.0
10838.835,94.0
10843.171,119.0
10847.508,109.0
10851.847,70.0
10856.1875,106.0
10860.53,92.0
10864.874,83.0
10869.22,106.0
10873.567,113.0
10877.917,95.0
10882.269,86.0
10886.621,94.0
10890.976,111.0
10895.332,90.0
10899.69,99.0
10904.051,101.0
10908.412,109.0
10912.775,108.0
10917.141,89.0
10921.508,103.0
10925.876,80.0
10930.246,106.0
10934.618,82.0
10938.992,93.0
10943.368,100.0
10947.745,135.0
10952.124,93.0
10956.505,91.0
10960.888,104.0
10965.272,100.0
10969.658,113.0
10974.046,89.0
10978.436,83.0
10982.827,81.0
10987.221,119.0
10991.615,91.0
10996.012,73.0
11000.41,112.0
11004.811,104.0
11009.213,126.0
11013.616,102.0
11018.021,79.0
11022.429,106.0
11026.838,104.0
11031.249,107.0
11035.661,85.0
11040.075,89.0
11044.491,91.0
11048.909,103.0
11053.329,103.0
11057.75,106.0
11062.173,89.0
11066.598,98.0
11071.024,88.0
11075.453,108.0
11079.884,98.0
11084.315,118.0
11088.749,109.0
11093.185,119.0
11097.622,93.0
11102.062,101.0
11106.502,106.0
11110.944,120.0
11115.389,105.0
11119.835,105.0
11124.283,110.0
11128.733,121.0
11133.185,121.0
11137.638,97.0
11142.093,119.0
11146.55,115.0
11151.009,98.0
11155.469,126.0
11159.931,117.0
11164.395,114.0
11168.86,110.0
11173.328,120.0
11177.798,121.0
11182.269,99.0
11186.741,102.0
11191.216,117.0
11195.692,117.0
11200.171,119.0
11204.651,110.0
11209.133,119.0
11213.616,125.0
11218.102,112.0
11222.589,119.0
11227.078,111.0
11231.569,116.0
11236.062,109.0
11240.556,128.0
11245.052,118.0
11249.55,143.0
11254.05,130.0
11258.552,112.0
11263.056,142.0
11267.561,133.0
11272.067,121.0
11276.576,138.0
11281.087,128.0
11285.6,140.0
11290.114,150.0
11294.63,161.0
11299.147,159.0
11303.667,148.0
11308.188,155.0
11312.712,143.0
11317.237,141.0
11321.765,170.0
11326.293,156.0
11330.823,154.0
11335.355,181.0
11339.89,132.0
11344.426,154.0
11348.964,199.0
11353.504,150.0
11358.045,195.0
11362.588,160.0
11367.133,211.0
11371.68,208.0
11376.229,168.0
11380.779,179.0
11385.332,195.0
11389.886,203.0
11394.441,201.0
11398.999,224.0
11403.559,207.0
11408.12,215.0
11412.684,231.0
11417.249,252.0
11421.816,222.0
11426.385,267.0
11430.955,284.0
11435.527,247.0
11440.102,263.0
11444.678,262.0
11449.256,306.0
11453.836,292.0
11458.417,279.0
11463.0,302.0
11467.585,295.0
11472.172,308.0
11476.761,327.0
11481.352,319.0
11485.944,329.0
11490.539,310.0
11495.136,355.0
11499.733,365.0
11504.333,316.0
11508.935,397.0
11513.538,330.0
11518.144,361.0
11522.751,347.0
11527.36,416.0
11531.972,416.0
11536.584,348.0
11541.198,411.0
11545.814,466.0
11550.433,448.0
11555.053,401.0
11559.675,422.0
11564.299,455.0
11568.925,423.0
11573.553,407.0
11578.183,503.0
11582.813,448.0
11587.446,410.0
11592.081,440.0
11596.718,487.0
11601.356,436.0
11605.997,427.0
11610.64,549.0
11615.284,555.0
11619.931,457.0
11624.579,485.0
11629.229,471.0
11633.88,474.0
11638.533,439.0
11643.188,604.0
11647.846,428.0
11652.505,374.0
11657.166,538.0
11661.829,613.0
11666.494,404.0
11671.161,398.0
11675.83,682.0
11680.5,659.0
11685.172,393.0
11689.846,339.0
11694.521,364.0
11699.199,324.0
11703.879,268.0
11708.561,266.0
11713.244,250.0
11717.93,223.0
11722.617,224.0
11727.307,205.0
11731.998,189.0
11736.69,151.0
11741.385,169.0
11746.081,156.0
11750.779,185.0
11755.4795,182.0
11760.182,170.0
11764.886,170.0
11769.592,153.0
11774.3,173.0
11779.01,163.0
11783.722,175.0
11788.436,178.0
11793.151,164.0
11797.868,148.0
11802.587,180.0
11807.308,174.0
11812.03,134.0
11816.755,137.0
11821.481,197.0
11826.21,164.0
11830.94,164.0
11835.673,154.0
11840.407,136.0
11845.144,138.0
11849.882,120.0
11854.622,122.0
11859.364,136.0
11864.108,128.0
11868.8545,138.0
11873.602,117.0
11878.351,109.0
11883.102,109.0
11887.8545,126.0
11892.609,119.0
11897.366,102.0
11902.125,123.0
11906.886,95.0
11911.648,103.0
11916.413,121.0
11921.18,109.0
11925.948,110.0
11930.719,101.0
11935.491,111.0
11940.266,106.0
11945.042,114.0
11949.82,98.0
11954.601,134.0
11959.383,106.0
11964.167,111.0
11968.953,119.0
11973.74,111.0
11978.529,112.0
11983.32,111.0
11988.113,83.0
11992.908,117.0
