M/Z,Intensity
800.0,60.0
800.32,67.0
800.64014,23.0
800.9604,61.0
801.28076,99.0
801.60126,28.0
801.9219,47.0
802.2426,79.0
802.56354,37.0
802.8846,59.0
803.20575,65.0
803.52704,38.0
803.84845,39.0
804.17,81.0
804.49164,34.0
804.8134,33.0
805.1353,44.0
805.4574,35.0
805.7796,37.0
806.1019,67.0
806.4244,49.0
806.74695,29.0
807.06964,68.0
807.39246,39.0
807.7154,20.0
808.03845,55.0
808.3617,71.0
808.68506,19.0
809.00854,46.0
809.33215,81.0
809.6559,24.0
809.97974,35.0
810.3037,68.0
810.6278,25.0
810.9521,45.0
811.2765,81.0
811.601,20.0
811.92566,31.0
812.2504,65.0
812.5753,22.0
812.9003,43.0
813.22546,60.0
813.5508,30.0
813.8762,34.0
814.2018,63.0
814.52747,35.0
814.8533,34.0
815.1792,62.0
815.50525,33.0
815.8314,36.0
816.1578,75.0
816.48425,37.0
816.81085,45.0
817.1376,62.0
817.4644,50.0
817.7914,27.0
818.11847,62.0
818.44574,39.0
818.77313,23.0
819.10065,51.0
819.4283,38.0
819.75604,19.0
820.0839,53.0
820.412,47.0
820.7402,18.0
821.0685,48.0
821.3969,48.0
821.72546,18.0
822.05414,55.0
822.38293,44.0
822.7119,24.0
823.041,65.0
823.37024,65.0
823.6996,24.0
824.02905,39.0
824.35864,55.0
824.6884,49.0
825.0183,364.0
825.3483,56.0
825.67847,29.0
826.0087,170.0
826.3391,62.0
826.6696,39.0
827.0003,77.0
827.3311,49.0
827.66205,30.0
827.9931,56.0
828.3243,50.0
828.65564,27.0
828.9871,43.0
829.3187,45.0
829.65045,29.0
829.9823,42.0
830.3143,68.0
830.6464,26.0
830.9787,39.0
831.3111,42.0
831.6436,23.0
831.97626,34.0
832.309,69.0
832.64197,26.0
832.97504,36.0
833.3082,48.0
833.64154,24.0
833.975,40.0
834.3086,45.0
834.64233,18.0
834.9762,38.0
835.3102,55.0
835.6443,27.0
835.9785,48.0
836.3129,61.0
836.64746,22.0
836.9821,49.0
837.3169,68.0
837.6518,23.0
837.9869,42.0
838.3221,48.0
838.6574,16.0
838.99286,93.0
839.3284,60.0
839.6642,34.0
840.00006,67.0
840.33606,42.0
840.6722,41.0
841.0084,98.0
841.34485,73.0
841.6814,21.0
842.01807,65.0
842.35486,77.0
842.6918,28.0
843.0289,51.0
843.3661,48.0
843.7034,22.0
844.0409,51.0
844.37854,56.0
844.7163,31.0
845.0542,105.0
845.3922,88.0
845.73035,31.0
846.06866,57.0
846.4071,55.0
846.74567,24.0
847.08435,57.0
847.42316,46.0
847.76215,37.0
848.10126,43.0
848.4405,57.0
848.77985,27.0
849.1194,58.0
849.45905,38.0
849.7988,23.0
850.13873,51.0
850.47876,42.0
850.819,28.0
851.1593,49.0
851.49976,31.0
851.84033,29.0
852.1811,54.0
852.522,35.0
852.863,34.0
853.2041,43.0
853.5454,24.0
853.88684,45.0
854.2284,56.0
854.57007,44.0
854.9119,72.0
855.2539,71.0
855.596,27.0
855.93823,59.0
856.2806,52.0
856.6231,24.0
856.96576,64.0
857.30853,67.0
857.6514,28.0
857.9945,47.0
858.3377,71.0
858.681,31.0
859.0245,59.0
859.3681,51.0
859.71185,23.0
860.0557,45.0
860.3997,47.0
860.7439,142.0
861.0882,151.0
861.4326,49.0
861.77716,95.0
862.1219,68.0
862.46674,42.0
862.8117,53.0
863.15686,59.0
863.50214,31.0
863.84753,32.0
864.19305,52.0
864.53876,22.0
864.8846,44.0
865.2305,71.0
865.5766,42.0
865.92285,32.0
866.2692,71.0
866.6157,29.0
866.96234,69.0
867.30914,54.0
867.65607,25.0
868.0031,49.0
868.35034,35.0
868.6977,27.0
869.04517,54.0
869.39276,31.0
869.74054,36.0
870.08844,49.0
870.43646,41.0
870.7846,26.0
871.13293,41.0
871.4814,42.0
871.82996,27.0
872.1787,48.0
872.5276,39.0
872.8766,50.0
873.2257,55.0
873.575,24.0
873.92444,27.0
874.274,60.0
874.6237,30.0
874.9736,35.0
875.32355,49.0
875.6737,17.0
876.024,39.0
876.3744,50.0
876.7249,54.0
877.0756,72.0
877.42645,51.0
877.7774,43.0
878.12854,43.0
878.4798,33.0
878.8312,34.0
879.18274,59.0
879.5344,39.0
879.8862,24.0
880.23816,78.0
880.5903,31.0
880.9425,40.0
881.29486,48.0
881.6474,25.0
882.00006,36.0
882.35284,52.0
882.7058,33.0
883.0589,51.0
883.4121,41.0
883.7655,28.0
884.119,51.0
884.47266,33.0
884.8264,24.0
885.18036,58.0
885.5344,36.0
885.8886,42.0
886.243,47.0
886.5975,34.0
886.9521,43.0
887.3069,57.0
887.6618,29.0
888.01685,45.0
888.3721,51.0
888.7274,25.0
889.0829,39.0
889.43854,59.0
889.7943,20.0
890.1502,50.0
890.5063,42.0
890.8625,29.0
891.2188,50.0
891.5753,28.0
891.93195,33.0
892.2887,60.0
892.6456,24.0
893.0027,47.0
893.35986,51.0
893.7172,23.0
894.0747,55.0
894.4323,51.0
894.7901,42.0
895.148,57.0
895.50604,38.0
895.86426,26.0
896.2226,45.0
896.58105,25.0
896.9397,19.0
897.29846,34.0
897.6574,25.0
898.0165,31.0
898.3757,34.0
898.73505,29.0
899.09454,49.0
899.45416,30.0
899.81396,29.0
900.1739,56.0
900.53394,36.0
900.89417,26.0
901.2545,56.0
901.615,22.0
901.97565,29.0
902.3364,53.0
902.6974,26.0
903.0585,37.0
903.4197,61.0
903.78107,35.0
904.1426,52.0
904.5042,43.0
904.866,36.0
905.22797,81.0
905.5901,30.0
905.95233,34.0
906.3147,48.0
906.67725,26.0
907.0399,44.0
907.4027,47.0
907.7657,24.0
908.1288,55.0
908.49207,53.0
908.85547,29.0
909.219,53.0
909.5827,18.0
909.94653,36.0
910.3105,49.0
910.6746,18.0
911.0389,46.0
911.4033,44.0
911.7679,25.0
912.13257,45.0
912.49744,32.0
912.8624,29.0
913.2276,55.0
913.5929,25.0
913.9583,24.0
914.3239,47.0
914.68964,22.0
915.05554,39.0
915.4216,45.0
915.7877,19.0
916.15405,46.0
916.5205,49.0
916.88715,31.0
917.2539,50.0
917.6208,16.0
917.98785,42.0
918.35504,41.0
918.7224,19.0
919.0899,47.0
919.4575,57.0
919.8253,26.0
920.19324,60.0
920.56134,33.0
920.92957,34.0
921.2979,56.0
921.66644,27.0
922.0351,29.0
922.40393,42.0
922.7729,25.0
923.14197,63.0
923.5112,49.0
923.8806,35.0
924.2502,51.0
924.6199,25.0
924.98975,26.0
925.35974,38.0
925.72986,32.0
926.10016,51.0
926.4706,35.0
926.8412,26.0
927.2119,42.0
927.5828,31.0
927.95386,36.0
928.325,51.0
928.69635,19.0
929.0678,33.0
929.43945,57.0
929.8112,37.0
930.18317,59.0
930.55524,41.0
930.9274,34.0
931.2998,53.0
931.6723,16.0
932.045,18.0
932.4178,44.0
932.7908,18.0
933.1639,47.0
933.5372,32.0
933.9106,27.0
934.2841,70.0
934.65784,30.0
935.0317,33.0
935.4057,49.0
935.77985,29.0
936.1542,50.0
936.5286,37.0
936.90326,31.0
937.278,63.0
937.65295,31.0
938.028,32.0
938.4032,47.0
938.77856,18.0
939.15405,49.0
939.5297,29.0
939.9055,27.0
940.2815,48.0
940.6576,33.0
941.0339,38.0
941.4103,43.0
941.78687,27.0
942.1636,47.0
942.54047,26.0
942.9175,23.0
943.2947,46.0
943.672,17.0
944.04944,37.0
944.42706,58.0
944.8048,24.0
945.18274,54.0
945.5608,37.0
945.939,31.0
946.3174,46.0
946.6959,26.0
947.0746,36.0
947.4534,47.0
947.8324,29.0
948.21155,64.0
948.5908,19.0
948.9703,23.0
949.34985,48.0
949.7296,22.0
950.1095,47.0
950.48956,30.0
950.86975,39.0
951.2501,46.0
951.6306,31.0
952.0113,31.0
952.3921,33.0
952.7731,22.0
953.1542,53.0
953.53546,41.0
953.9169,31.0
954.29846,60.0
954.6802,25.0
955.0621,26.0
955.4441,63.0
955.8263,22.0
956.2086,52.0
956.5911,29.0
956.97375,39.0
957.35657,44.0
957.7395,29.0
958.1226,41.0
958.50586,42.0
958.8893,19.0
959.2728,54.0
959.65656,35.0
960.0404,36.0
960.42444,49.0
960.8086,21.0
961.19293,56.0
961.5774,35.0
961.96204,34.0
962.3468,49.0
962.73175,21.0
963.1168,49.0
963.5021,35.0
963.88745,21.0
964.273,44.0
964.6587,30.0
965.04456,33.0
965.4306,46.0
965.8168,20.0
966.2031,50.0
966.5896,28.0
966.97626,30.0
967.36304,38.0
967.75,26.0
968.1371,62.0
968.52435,39.0
968.91174,35.0
969.2993,74.0
969.687,28.0
970.0749,46.0
970.4629,59.0
970.8511,31.0
971.23944,58.0
971.6279,21.0
972.0166,28.0
972.4054,31.0
972.7944,22.0
973.1835,56.0
973.57275,43.0
973.96216,43.0
974.35175,54.0
974.7415,20.0
975.1314,41.0
975.5215,38.0
975.9117,27.0
976.30206,49.0
976.69257,20.0
977.08325,43.0
977.47406,57.0
977.86505,24.0
978.2562,58.0
978.6475,24.0
979.039,34.0
979.4306,49.0
979.8224,27.0
980.2143,42.0
980.6064,30.0
980.99866,32.0
981.39105,52.0
981.7836,38.0
982.17633,51.0
982.5692,35.0
982.9622,29.0
983.3554,54.0
983.7488,26.0
984.1423,40.0
984.53595,31.0
984.92975,31.0
985.3237,45.0
985.71783,23.0
986.1121,33.0
986.5066,34.0
986.9012,29.0
987.29596,54.0
987.69086,20.0
988.08594,31.0
988.4812,48.0
988.8766,33.0
989.27216,47.0
989.66785,29.0
990.0637,43.0
990.4597,47.0
990.8559,32.0
991.25226,52.0
991.64874,28.0
992.0454,36.0
992.4422,56.0
992.8392,35.0
993.2363,65.0
993.6336,38.0
994.03107,27.0
994.42865,49.0
994.8264,29.0
995.22437,49.0
995.62244,25.0
996.0207,37.0
996.4191,32.0
996.8177,26.0
997.21643,49.0
997.6153,26.0
998.01434,28.0
998.4136,51.0
998.8129,32.0
999.21246,55.0
999.6121,28.0
1000.01196,46.0
1000.412,55.0
1000.81213,28.0
1001.21246,58.0
1001.613,38.0
1002.0136,46.0
1002.4144,52.0
1002.81537,23.0
1003.2165,42.0
1003.6178,29.0
1004.0192,35.0
1004.42084,54.0
1004.82263,21.0
1005.22455,57.0
1005.62665,30.0
1006.0289,48.0
1006.4313,43.0
1006.83386,29.0
1007.2366,69.0
1007.63947,38.0
1008.04254,47.0
1008.44574,47.0
1008.8491,44.0
1009.2527,57.0
1009.6564,24.0
1010.06024,30.0
1010.4643,53.0
1010.86847,37.0
1011.2728,49.0
1011.6773,30.0
1012.082,52.0
1012.4868,36.0
1012.8918,34.0
1013.29694,49.0
1013.7023,36.0
1014.1077,57.0
1014.51337,41.0
1014.9192,37.0
1015.32513,55.0
1015.73126,34.0
1016.1376,44.0
1016.544,52.0
1016.9506,28.0
1017.3574,52.0
1017.76434,30.0
1018.17145,32.0
1018.57874,33.0
1018.98615,33.0
1019.39374,55.0
1019.8015,36.0
1020.2094,51.0
1020.6175,28.0
1021.02576,38.0
1021.43414,49.0
1021.8427,27.0
1022.25146,75.0
1022.66034,39.0
1023.0694,38.0
1023.47864,54.0
1023.888,32.0
1024.2976,43.0
1024.7073,33.0
1025.1172,41.0
1025.5272,45.0
1025.9374,31.0
1026.3478,59.0
1026.7583,24.0
1027.169,49.0
1027.5798,29.0
1027.9908,51.0
1028.4021,38.0
1028.8135,29.0
1029.225,32.0
1029.6367,36.0
1030.0486,50.0
1030.4606,57.0
1030.8728,49.0
1031.2852,57.0
1031.6976,41.0
1032.1104,41.0
1032.5232,41.0
1032.9362,33.0
1033.3494,61.0
1033.7627,32.0
1034.1761,47.0
1034.5898,43.0
1035.0037,35.0
1035.4177,49.0
1035.8319,35.0
1036.2462,53.0
1036.6608,26.0
1037.0754,35.0
1037.4902,51.0
1037.9053,32.0
1038.3204,51.0
1038.7357,29.0
1039.1512,50.0
1039.5669,29.0
1039.9827,35.0
1040.3987,56.0
1040.8148,40.0
1041.2312,49.0
1041.6477,43.0
1042.0643,39.0
1042.4812,44.0
1042.8982,34.0
1043.3153,72.0
1043.7327,46.0
1044.1501,54.0
1044.5677,49.0
1044.9856,22.0
1045.4036,34.0
1045.8218,38.0
1046.2401,57.0
1046.6586,20.0
1047.0773,40.0
1047.4961,47.0
1047.915,29.0
1048.3342,51.0
1048.7535,27.0
1049.1731,52.0
1049.5928,53.0
1050.0126,43.0
1050.4326,56.0
1050.8528,51.0
1051.2731,46.0
1051.6936,35.0
1052.1143,46.0
1052.5352,42.0
1052.9562,41.0
1053.3773,44.0
1053.7987,28.0
1054.2202,54.0
1054.6418,26.0
1055.0637,33.0
1055.4857,41.0
1055.908,36.0
1056.3303,53.0
1056.7528,29.0
1057.1755,59.0
1057.5984,50.0
1058.0215,34.0
1058.4447,55.0
1058.868,28.0
1059.2916,47.0
1059.7153,24.0
1060.1392,65.0
1060.5632,64.0
1060.9874,35.0
1061.4119,57.0
1061.8364,33.0
1062.2611,63.0
1062.686,28.0
1063.1111,37.0
1063.5364,40.0
1063.9618,28.0
1064.3873,40.0
1064.8131,24.0
1065.239,44.0
1065.6652,66.0
1066.0914,65.0
1066.5178,52.0
1066.9445,50.0
1067.3712,44.0
1067.7982,38.0
1068.2253,52.0
1068.6526,28.0
1069.0801,36.0
1069.5077,41.0
1069.9355,35.0
1070.3635,47.0
1070.7916,36.0
1071.22,47.0
1071.6484,37.0
1072.0771,46.0
1072.506,63.0
1072.9349,37.0
1073.3641,62.0
1073.7935,34.0
1074.223,59.0
1074.6527,29.0
1075.0825,37.0
1075.5126,35.0
1075.9427,29.0
1076.3732,46.0
1076.8037,24.0
1077.2344,39.0
1077.6653,34.0
1078.0963,34.0
1078.5276,54.0
1078.959,54.0
1079.3906,54.0
1079.8224,29.0
1080.2543,55.0
1080.6864,28.0
1081.1187,40.0
1081.5511,35.0
1081.9838,25.0
1082.4165,42.0
1082.8495,26.0
1083.2826,60.0
1083.716,29.0
1084.1494,40.0
1084.5831,52.0
1085.017,34.0
1085.4509,45.0
1085.8851,27.0
1086.3195,52.0
1086.754,34.0
1087.1887,50.0
1087.6235,37.0
1088.0586,38.0
1088.4938,47.0
1088.9292,38.0
1089.3647,42.0
1089.8005,31.0
1090.2365,65.0
1090.6725,42.0
1091.1088,36.0
1091.5452,50.0
1091.9818,31.0
1092.4186,50.0
1092.8556,31.0
1093.2927,56.0
1093.7301,29.0
1094.1676,49.0
1094.6052,38.0
1095.0431,40.0
1095.4811,53.0
1095.9193,38.0
1096.3577,46.0
1096.7963,29.0
1097.235,49.0
1097.6738,36.0
1098.1129,41.0
1098.5521,43.0
1098.9916,33.0
1099.4312,55.0
1099.871,43.0
1100.3109,45.0
1100.751,26.0
1101.1913,42.0
1101.6317,37.0
1102.0724,39.0
1102.5132,45.0
1102.9542,26.0
1103.3954,55.0
1103.8368,26.0
1104.2783,55.0
1104.72,20.0
1105.1619,49.0
1105.6039,30.0
1106.0461,45.0
1106.4885,51.0
1106.9312,25.0
1107.3739,30.0
1107.8169,37.0
1108.26,63.0
1108.7034,35.0
1109.1469,34.0
1109.5905,28.0
1110.0343,32.0
1110.4783,41.0
1110.9225,31.0
1111.3668,47.0
1111.8114,21.0
1112.2561,47.0
1112.701,38.0
1113.1461,46.0
1113.5914,45.0
1114.0369,36.0
1114.4824,55.0
1114.9282,26.0
1115.3741,38.0
1115.8203,31.0
1116.2666,48.0
1116.7131,25.0
1117.1598,37.0
1117.6067,33.0
1118.0537,39.0
1118.501,29.0
1118.9484,36.0
1119.396,50.0
1119.8438,28.0
1120.2917,42.0
1120.7399,21.0
1121.1881,49.0
1121.6366,35.0
1122.0852,36.0
1122.534,41.0
1122.983,23.0
1123.4323,50.0
1123.8816,22.0
1124.3312,52.0
1124.7809,40.0
1125.2308,42.0
1125.6809,26.0
1126.1312,38.0
1126.5817,57.0
1127.0323,30.0
1127.4832,36.0
1127.9342,26.0
1128.3854,47.0
1128.8367,23.0
1129.2882,44.0
1129.7399,28.0
1130.1918,48.0
1130.6438,34.0
1131.0961,31.0
1131.5485,49.0
1132.0011,45.0
1132.4539,53.0
1132.9069,27.0
1133.36,51.0
1133.8134,27.0
1134.2668,48.0
1134.7206,29.0
1135.1744,53.0
1135.6285,33.0
1136.0828,41.0
1136.5372,52.0
1136.9918,36.0
1137.4467,61.0
1137.9016,39.0
1138.3568,46.0
1138.8121,34.0
1139.2677,52.0
1139.7234,31.0
1140.1793,38.0
1140.6354,33.0
1141.0917,27.0
1141.5481,51.0
1142.0048,31.0
1142.4615,41.0
1142.9186,39.0
1143.3757,37.0
1143.8331,36.0
1144.2906,48.0
1144.7484,31.0
1145.2063,60.0
1145.6644,28.0
1146.1227,34.0
1146.5812,37.0
1147.0398,44.0
1147.4987,57.0
1147.9576,26.0
1148.4169,80.0
1148.8762,24.0
1149.3358,59.0
1149.7955,37.0
1150.2555,58.0
1150.7156,22.0
1151.1759,55.0
1151.6364,36.0
1152.097,46.0
1152.5579,46.0
1153.0189,32.0
1153.4801,40.0
1153.9415,27.0
1154.4031,41.0
1154.8649,34.0
1155.3268,57.0
1155.789,30.0
1156.2512,59.0
1156.7137,40.0
1157.1764,48.0
1157.6393,39.0
1158.1023,41.0
1158.5656,39.0
1159.0289,34.0
1159.4926,37.0
1159.9563,25.0
1160.4203,61.0
1160.8844,29.0
1161.3488,40.0
1161.8134,21.0
1162.2781,45.0
1162.743,21.0
1163.2081,60.0
1163.6735,35.0
1164.1389,35.0
1164.6046,41.0
1165.0704,25.0
1165.5365,48.0
1166.0027,25.0
1166.4691,42.0
1166.9357,42.0
1167.4025,49.0
1167.8694,33.0
1168.3365,62.0
1168.8038,25.0
1169.2714,54.0
1169.739,23.0
1170.2069,50.0
1170.675,35.0
1171.1433,35.0
1171.6118,46.0
1172.0804,37.0
1172.5493,41.0
1173.0183,31.0
1173.4875,61.0
1173.9569,28.0
1174.4265,68.0
1174.8962,24.0
1175.3662,64.0
1175.8363,28.0
1176.3066,42.0
1176.7772,40.0
1177.2479,45.0
1177.7189,30.0
1178.19,41.0
1178.6613,33.0
1179.1327,39.0
1179.6044,43.0
1180.0762,37.0
1180.5482,45.0
1181.0204,24.0
1181.4928,46.0
1181.9655,36.0
1182.4382,45.0
1182.9113,31.0
1183.3844,45.0
1183.8578,22.0
1184.3313,52.0
1184.805,36.0
1185.2789,52.0
1185.753,24.0
1186.2273,46.0
1186.7018,31.0
1187.1765,40.0
1187.6514,41.0
1188.1265,35.0
1188.6017,39.0
1189.0771,29.0
1189.5527,32.0
1190.0286,32.0
1190.5045,48.0
1190.9807,38.0
1191.4572,52.0
1191.9337,28.0
1192.4105,59.0
1192.8875,27.0
1193.3646,51.0
1193.8419,36.0
1194.3195,39.0
1194.7972,46.0
1195.2751,57.0
1195.7533,29.0
1196.2316,33.0
1196.7101,37.0
1197.1887,33.0
1197.6676,36.0
1198.1467,43.0
1198.626,39.0
1199.1055,34.0
1199.5851,48.0
1200.065,33.0
1200.5449,53.0
1201.0251,34.0
1201.5056,35.0
1201.9862,37.0
1202.467,45.0
1202.948,29.0
1203.4292,53.0
1203.9105,34.0
1204.3921,54.0
1204.8739,33.0
1205.3558,34.0
1205.838,24.0
1206.3203,78.0
1206.8029,25.0
1207.2855,51.0
1207.7684,28.0
1208.2516,42.0
1208.7349,30.0
1209.2184,50.0
1209.702,36.0
1210.1859,46.0
1210.67,43.0
1211.1543,36.0
1211.6388,41.0
1212.1234,40.0
1212.6083,37.0
1213.0933,43.0
1213.5785,33.0
1214.064,35.0
1214.5496,37.0
1215.0354,30.0
1215.5214,51.0
1216.0076,38.0
1216.494,45.0
1216.9806,22.0
1217.4674,37.0
1217.9543,23.0
1218.4415,41.0
1218.929,37.0
1219.4165,59.0
1219.9043,36.0
1220.3922,54.0
1220.8804,33.0
1221.3688,53.0
1221.8573,31.0
1222.3461,41.0
1222.835,27.0
1223.3241,45.0
1223.8135,37.0
1224.303,46.0
1224.7927,26.0
1225.2826,60.0
1225.7727,38.0
1226.2631,40.0
1226.7535,33.0
1227.2443,37.0
1227.7351,29.0
1228.2262,41.0
1228.7175,35.0
1229.209,50.0
1229.7007,42.0
1230.1925,58.0
1230.6846,35.0
1231.1769,49.0
1231.6693,31.0
1232.162,39.0
1232.6549,41.0
1233.148,39.0
1233.6412,45.0
1234.1346,29.0
1234.6283,36.0
1235.1222,25.0
1235.6162,50.0
1236.1105,31.0
1236.6049,33.0
1237.0995,27.0
1237.5944,41.0
1238.0894,29.0
1238.5846,51.0
1239.0801,30.0
1239.5757,42.0
1240.0715,39.0
1240.5675,33.0
1241.0637,35.0
1241.5602,51.0
1242.0568,35.0
1242.5536,44.0
1243.0507,37.0
1243.5479,50.0
1244.0453,27.0
1244.5428,41.0
1245.0406,25.0
1245.5387,52.0
1246.0369,43.0
1246.5353,57.0
1247.0339,41.0
1247.5327,68.0
1248.0317,38.0
1248.531,60.0
1249.0304,34.0
1249.53,48.0
1250.0298,31.0
1250.5298,41.0
1251.03,30.0
1251.5304,46.0
1252.031,34.0
1252.5319,41.0
1253.0328,34.0
1253.534,48.0
1254.0355,42.0
1254.5371,50.0
1255.039,34.0
1255.541,42.0
1256.0432,29.0
1256.5457,38.0
1257.0482,33.0
1257.551,36.0
1258.0541,37.0
1258.5573,47.0
1259.0607,42.0
1259.5643,38.0
1260.0681,20.0
1260.5721,60.0
1261.0764,23.0
1261.5808,38.0
1262.0854,37.0
1262.5903,41.0
1263.0953,42.0
1263.6006,38.0
1264.1061,32.0
1264.6117,49.0
1265.1176,31.0
1265.6237,48.0
1266.1299,32.0
1266.6364,30.0
1267.1431,45.0
1267.6499,36.0
1268.157,35.0
1268.6642,37.0
1269.1716,37.0
1269.6793,34.0
1270.1871,43.0
1270.6952,36.0
1271.2035,45.0
1271.7119,38.0
1272.2206,39.0
1272.7295,29.0
1273.2385,44.0
1273.7478,47.0
1274.2573,40.0
1274.767,33.0
1275.2769,46.0
1275.787,27.0
1276.2972,45.0
1276.8077,40.0
1277.3185,35.0
1277.8295,48.0
1278.3406,46.0
1278.8519,43.0
1279.3635,47.0
1279.8752,26.0
1280.3872,38.0
1280.8994,31.0
1281.4117,38.0
1281.9243,24.0
1282.4371,52.0
1282.9501,28.0
1283.4633,51.0
1283.9767,35.0
1284.4902,58.0
1285.004,33.0
1285.5181,35.0
1286.0322,33.0
1286.5466,43.0
1287.0613,43.0
1287.576,39.0
1288.0911,39.0
1288.6063,41.0
1289.1218,55.0
1289.6375,31.0
1290.1533,50.0
1290.6694,42.0
1291.1857,48.0
1291.7021,43.0
1292.2189,40.0
1292.7357,39.0
1293.2528,34.0
1293.7701,33.0
1294.2876,46.0
1294.8053,34.0
1295.3232,44.0
1295.8414,23.0
1296.3597,31.0
1296.8783,23.0
1297.3971,33.0
1297.916,29.0
1298.4352,39.0
1298.9546,23.0
1299.4741,40.0
1299.9939,27.0
1300.5139,45.0
1301.0342,26.0
1301.5546,47.0
1302.0752,33.0
1302.5961,49.0
1303.1171,35.0
1303.6383,54.0
1304.1598,44.0
1304.6814,38.0
1305.2032,33.0
1305.7253,38.0
1306.2477,48.0
1306.7701,34.0
1307.2928,47.0
1307.8158,36.0
1308.3389,51.0
1308.8622,22.0
1309.3857,40.0
1309.9095,34.0
1310.4335,40.0
1310.9576,28.0
1311.482,41.0
1312.0066,35.0
1312.5314,38.0
1313.0564,27.0
1313.5817,44.0
1314.107,34.0
1314.6327,39.0
1315.1586,36.0
1315.6847,31.0
1316.2109,37.0
1316.7374,38.0
1317.2642,52.0
1317.791,35.0
1318.3181,39.0
1318.8455,40.0
1319.373,46.0
1319.9008,31.0
1320.4287,51.0
1320.9569,24.0
1321.4854,41.0
1322.0139,39.0
1322.5427,40.0
1323.0718,39.0
1323.601,51.0
1324.1304,38.0
1324.66,24.0
1325.19,39.0
1325.72,27.0
1326.2502,47.0
1326.7808,30.0
1327.3115,40.0
1327.8424,33.0
1328.3735,46.0
1328.9049,35.0
1329.4365,54.0
1329.9683,29.0
1330.5002,44.0
1331.0325,30.0
1331.565,41.0
1332.0975,27.0
1332.6304,43.0
1333.1635,36.0
1333.6968,42.0
1334.2302,27.0
1334.7639,35.0
1335.2979,31.0
1335.832,30.0
1336.3663,49.0
1336.9009,31.0
1337.4357,51.0
1337.9707,35.0
1338.5059,44.0
1339.0413,24.0
1339.5769,33.0
1340.1128,34.0
1340.6488,40.0
1341.185,30.0
1341.7216,41.0
1342.2583,37.0
1342.7952,36.0
1343.3323,46.0
1343.8696,28.0
1344.4072,40.0
1344.945,38.0
1345.4829,46.0
1346.0211,31.0
1346.5596,42.0
1347.0981,27.0
1347.637,50.0
1348.176,45.0
1348.7153,37.0
1349.2548,40.0
1349.7944,37.0
1350.3344,47.0
1350.8745,32.0
1351.4149,36.0
1351.9554,35.0
1352.4962,38.0
1353.0372,29.0
1353.5785,46.0
1354.1199,38.0
1354.6615,48.0
1355.2034,39.0
1355.7455,38.0
1356.2878,23.0
1356.8303,38.0
1357.373,47.0
1357.916,25.0
1358.4592,56.0
1359.0026,27.0
1359.5461,36.0
1360.09,33.0
1360.634,49.0
1361.1783,37.0
1361.7228,31.0
1362.2675,59.0
1362.8124,41.0
1363.3575,56.0
1363.9028,34.0
1364.4484,52.0
1364.9941,20.0
1365.5402,46.0
1366.0864,28.0
1366.6328,38.0
1367.1794,32.0
1367.7263,41.0
1368.2734,41.0
1368.8208,28.0
1369.3683,41.0
1369.916,17.0
1370.464,24.0
1371.0122,34.0
1371.5607,45.0
1372.1093,32.0
1372.6581,48.0
1373.2072,44.0
1373.7565,48.0
1374.306,53.0
1374.8557,48.0
1375.4056,48.0
1375.9558,24.0
1376.5062,45.0
1377.0569,31.0
1377.6077,48.0
1378.1587,41.0
1378.71,52.0
1379.2615,47.0
1379.8132,37.0
1380.3651,50.0
1380.9172,34.0
1381.4696,49.0
1382.0222,37.0
1382.5751,38.0
1383.128,32.0
1383.6813,43.0
1384.2347,33.0
1384.7885,31.0
1385.3424,46.0
1385.8965,30.0
1386.4508,32.0
1387.0054,31.0
1387.5602,52.0
1388.1152,30.0
1388.6705,48.0
1389.226,42.0
1389.7816,37.0
1390.3375,60.0
1390.8937,31.0
1391.4501,60.0
1392.0067,30.0
1392.5635,52.0
1393.1205,43.0
1393.6777,52.0
1394.2352,35.0
1394.793,39.0
1395.3508,55.0
1395.9089,34.0
1396.4673,44.0
1397.0259,29.0
1397.5847,45.0
1398.1438,33.0
1398.703,49.0
1399.2625,41.0
1399.8221,36.0
1400.3821,51.0
1400.9423,29.0
1401.5027,54.0
1402.0632,43.0
1402.624,44.0
1403.185,47.0
1403.7463,50.0
1404.3079,46.0
1404.8696,34.0
1405.4315,55.0
1405.9937,33.0
1406.556,66.0
1407.1187,50.0
1407.6815,43.0
1408.2446,28.0
1408.808,33.0
1409.3715,42.0
1409.9352,30.0
1410.4991,59.0
1411.0634,28.0
1411.6278,38.0
1412.1925,35.0
1412.7573,37.0
1413.3224,50.0
1413.8877,44.0
1414.4532,57.0
1415.019,35.0
1415.5851,53.0
1416.1514,46.0
1416.7178,37.0
1417.2844,38.0
1417.8513,45.0
1418.4185,45.0
1418.9858,40.0
1419.5535,52.0
1420.1213,40.0
1420.6893,52.0
1421.2576,50.0
1421.826,35.0
1422.3948,69.0
1422.9637,35.0
1423.533,68.0
1424.1024,49.0
1424.672,45.0
1425.2418,53.0
1425.8119,47.0
1426.3822,53.0
1426.9528,36.0
1427.5236,53.0
1428.0946,40.0
1428.6659,47.0
1429.2373,51.0
1429.809,30.0
1430.3809,56.0
1430.953,35.0
1431.5254,50.0
1432.098,36.0
1432.6709,56.0
1433.244,44.0
1433.8173,48.0
1434.3907,49.0
1434.9645,27.0
1435.5385,50.0
1436.1127,40.0
1436.6871,54.0
1437.2618,51.0
1437.8368,49.0
1438.412,43.0
1438.9873,28.0
1439.5629,50.0
1440.1387,34.0
1440.7147,45.0
1441.291,48.0
1441.8676,36.0
1442.4443,56.0
1443.0214,35.0
1443.5985,43.0
1444.1759,34.0
1444.7535,47.0
1445.3314,38.0
1445.9095,32.0
1446.4879,30.0
1447.0665,40.0
1447.6454,60.0
1448.2245,50.0
1448.8038,39.0
1449.3833,69.0
1449.963,36.0
1450.543,56.0
1451.1232,39.0
1451.7036,47.0
1452.2843,53.0
1452.8652,43.0
1453.4464,46.0
1454.0278,39.0
1454.6095,40.0
1455.1913,43.0
1455.7733,50.0
1456.3556,42.0
1456.9381,48.0
1457.5209,42.0
1458.1039,25.0
1458.6871,51.0
1459.2706,45.0
1459.8544,42.0
1460.4384,38.0
1461.0226,26.0
1461.6069,55.0
1462.1915,44.0
1462.7764,42.0
1463.3615,48.0
1463.9468,39.0
1464.5323,52.0
1465.1182,37.0
1465.7042,43.0
1466.2905,38.0
1466.8771,36.0
1467.4639,47.0
1468.0509,27.0
1468.6382,44.0
1469.2256,48.0
1469.8132,34.0
1470.4011,53.0
1470.9893,31.0
1471.5776,53.0
1472.1663,35.0
1472.7551,47.0
1473.3442,46.0
1473.9336,44.0
1474.5232,54.0
1475.113,35.0
1475.7031,51.0
1476.2935,56.0
1476.884,47.0
1477.4747,76.0
1478.0657,32.0
1478.6569,64.0
1479.2483,45.0
1479.84,42.0
1480.4319,54.0
1481.024,35.0
1481.6165,54.0
1482.2091,51.0
1482.802,35.0
1483.3951,40.0
1483.9885,39.0
1484.5822,41.0
1485.176,38.0
1485.7701,35.0
1486.3645,54.0
1486.9591,36.0
1487.5538,51.0
1488.1488,33.0
1488.744,44.0
1489.3395,39.0
1489.9352,31.0
1490.5311,52.0
1491.1273,30.0
1491.7238,47.0
1492.3204,47.0
1492.9174,23.0
1493.5145,43.0
1494.1119,36.0
1494.7096,45.0
1495.3075,56.0
1495.9056,40.0
1496.504,66.0
1497.1027,38.0
1497.7015,48.0
1498.3007,37.0
1498.9,32.0
1499.4996,43.0
1500.0995,35.0
1500.6996,38.0
1501.2998,49.0
1501.9003,35.0
1502.501,42.0
1503.1019,33.0
1503.7031,44.0
1504.3046,43.0
1504.9062,39.0
1505.5082,49.0
1506.1104,45.0
1506.7128,48.0
1507.3154,49.0
1507.9183,35.0
1508.5215,49.0
1509.1249,31.0
1509.7285,52.0
1510.3324,47.0
1510.9365,28.0
1511.5409,49.0
1512.1455,49.0
1512.7504,112.0
1513.3555,104.0
1513.9608,44.0
1514.5664,67.0
1515.1722,31.0
1515.7783,60.0
1516.3846,45.0
1516.9912,32.0
1517.598,39.0
1518.2051,46.0
1518.8124,47.0
1519.4199,43.0
1520.0277,34.0
1520.6357,55.0
1521.244,46.0
1521.8525,36.0
1522.4613,53.0
1523.0703,36.0
1523.6796,45.0
1524.2891,39.0
1524.8988,39.0
1525.5088,67.0
1526.119,44.0
1526.7295,39.0
1527.3402,52.0
1527.9512,36.0
1528.5624,54.0
1529.1738,34.0
1529.7855,45.0
1530.3975,55.0
1531.0096,24.0
1531.6221,39.0
1532.2347,41.0
1532.8477,28.0
1533.4608,37.0
1534.0742,34.0
1534.6879,50.0
1535.3018,45.0
1535.9159,34.0
1536.5303,53.0
1537.1449,38.0
1537.7598,40.0
1538.3749,47.0
1538.9902,33.0
1539.6058,57.0
1540.2217,40.0
1540.8378,38.0
1541.4541,42.0
1542.0707,43.0
1542.6875,55.0
1543.3046,35.0
1543.9219,39.0
1544.5394,44.0
1545.1572,33.0
1545.7753,34.0
1546.3936,43.0
1547.0121,32.0
1547.6309,59.0
1548.2499,37.0
1548.8691,22.0
1549.4886,53.0
1550.1084,44.0
1550.7284,42.0
1551.3486,56.0
1551.9691,31.0
1552.5898,54.0
1553.2109,43.0
1553.8323,47.0
1554.4539,54.0
1555.0757,32.0
1555.6978,44.0
1556.3201,45.0
1556.9426,24.0
1557.5654,42.0
1558.1885,34.0
1558.8118,41.0
1559.4353,68.0
1560.0591,41.0
1560.6831,50.0
1561.3074,35.0
1561.9319,39.0
1562.5566,60.0
1563.1816,31.0
1563.8069,38.0
1564.4324,46.0
1565.0581,32.0
1565.6841,40.0
1566.3103,40.0
1566.9368,33.0
1567.5636,45.0
1568.1907,41.0
1568.818,46.0
1569.4456,35.0
1570.0734,28.0
1570.7014,44.0
1571.3297,59.0
1571.9583,35.0
1572.587,46.0
1573.2161,41.0
1573.8453,46.0
1574.4749,51.0
1575.1046,33.0
1575.7346,38.0
1576.3649,40.0
1576.9954,37.0
1577.6261,42.0
1578.2572,43.0
1578.8885,37.0
1579.5201,43.0
1580.152,28.0
1580.784,51.0
1581.4164,46.0
1582.049,39.0
1582.6818,45.0
1583.3148,55.0
1583.9481,35.0
1584.5817,57.0
1585.2155,45.0
1585.8495,37.0
1586.4839,65.0
1587.1185,38.0
1587.7534,56.0
1588.3885,51.0
1589.0239,35.0
1589.6595,44.0
1590.2954,46.0
1590.9315,39.0
1591.5679,44.0
1592.2045,37.0
1592.8413,40.0
1593.4784,56.0
1594.1158,34.0
1594.7535,47.0
1595.3915,44.0
1596.0297,34.0
1596.6681,53.0
1597.3068,44.0
1597.9457,33.0
1598.5848,47.0
1599.2242,44.0
1599.8639,34.0
1600.5038,50.0
1601.144,31.0
1601.7845,58.0
1602.4253,65.0
1603.0663,41.0
1603.7075,56.0
1604.349,40.0
1604.9907,44.0
1605.6327,55.0
1606.2749,47.0
1606.9174,35.0
1607.5602,37.0
1608.2032,47.0
1608.8466,43.0
1609.4901,45.0
1610.1339,42.0
1610.778,39.0
1611.4222,49.0
1612.0668,44.0
1612.7115,49.0
1613.3567,46.0
1614.0021,39.0
1614.6477,47.0
1615.2936,44.0
1615.9397,38.0
1616.586,50.0
1617.2327,41.0
1617.8795,40.0
1618.5266,56.0
1619.1741,39.0
1619.8218,43.0
1620.4697,62.0
1621.1179,48.0
1621.7664,48.0
1622.415,48.0
1623.064,40.0
1623.7131,47.0
1624.3627,36.0
1625.0125,41.0
1625.6625,56.0
1626.3127,43.0
1626.9633,47.0
1627.614,32.0
1628.265,47.0
1628.9163,47.0
1629.5679,48.0
1630.2197,46.0
1630.8718,51.0
1631.5242,54.0
1632.1768,38.0
1632.8296,54.0
1633.4827,52.0
1634.1361,43.0
1634.7898,40.0
1635.4437,63.0
1636.0979,41.0
1636.7523,52.0
1637.407,45.0
1638.0619,33.0
1638.7172,50.0
1639.3727,56.0
1640.0284,40.0
1640.6844,51.0
1641.3407,53.0
1641.9972,29.0
1642.6539,49.0
1643.311,41.0
1643.9684,47.0
1644.626,87.0
1645.2838,74.0
1645.9419,47.0
1646.6002,61.0
1647.2589,62.0
1647.9178,46.0
1648.577,65.0
1649.2365,37.0
1649.8961,38.0
1650.556,44.0
1651.2163,38.0
1651.8768,41.0
1652.5376,46.0
1653.1986,46.0
1653.8599,43.0
1654.5214,45.0
1655.1832,44.0
1655.8453,43.0
1656.5077,45.0
1657.1703,35.0
1657.8331,43.0
1658.4962,39.0
1659.1597,45.0
1659.8234,33.0
1660.4873,33.0
1661.1515,49.0
1661.8159,59.0
1662.4806,39.0
1663.1456,59.0
1663.8109,38.0
1664.4764,45.0
1665.1422,34.0
1665.8082,49.0
1666.4746,43.0
1667.1412,41.0
1667.8081,43.0
1668.4752,46.0
1669.1426,28.0
1669.8102,44.0
1670.4781,44.0
1671.1464,29.0
1671.8148,41.0
1672.4835,37.0
1673.1525,49.0
1673.8218,46.0
1674.4913,40.0
1675.1611,44.0
1675.8312,47.0
1676.5015,46.0
1677.1721,38.0
1677.843,42.0
1678.5142,51.0
1679.1855,47.0
1679.8572,43.0
1680.5292,42.0
1681.2014,36.0
1681.8739,48.0
1682.5466,41.0
1683.2196,39.0
1683.893,48.0
1684.5665,49.0
1685.2404,46.0
1685.9144,40.0
1686.5887,40.0
1687.2634,35.0
1687.9384,37.0
1688.6135,45.0
1689.289,44.0
1689.9646,41.0
1690.6406,39.0
1691.3169,46.0
1691.9934,37.0
1692.6702,40.0
1693.3473,43.0
1694.0247,34.0
1694.7023,36.0
1695.3801,46.0
1696.0582,37.0
1696.7367,37.0
1697.4154,56.0
1698.0944,46.0
1698.7736,37.0
1699.4531,47.0
1700.1329,41.0
1700.813,39.0
1701.4933,59.0
1702.1738,26.0
1702.8547,45.0
1703.5359,46.0
1704.2173,40.0
1704.8989,41.0
1705.5809,49.0
1706.2632,42.0
1706.9457,39.0
1707.6284,32.0
1708.3115,40.0
1708.9949,31.0
1709.6785,35.0
1710.3623,38.0
1711.0465,34.0
1711.731,55.0
1712.4156,38.0
1713.1006,36.0
1713.7858,35.0
1714.4713,37.0
1715.1571,28.0
1715.8431,35.0
1716.5294,34.0
1717.2161,28.0
1717.903,36.0
1718.5901,45.0
1719.2775,41.0
1719.9652,35.0
1720.6532,38.0
1721.3414,42.0
1722.0299,37.0
1722.7188,48.0
1723.4078,45.0
1724.0972,40.0
1724.7869,45.0
1725.4768,33.0
1726.167,44.0
1726.8574,37.0
1727.5482,52.0
1728.2393,37.0
1728.9305,28.0
1729.6221,42.0
1730.314,52.0
1731.0061,36.0
1731.6985,52.0
1732.3911,37.0
1733.0841,30.0
1733.7773,28.0
1734.4708,31.0
1735.1647,26.0
1735.8588,36.0
1736.5531,49.0
1737.2477,36.0
1737.9426,36.0
1738.6378,40.0
1739.3333,43.0
1740.0289,20.0
1740.725,42.0
1741.4213,41.0
1742.1178,42.0
1742.8147,43.0
1743.5118,39.0
1744.2092,34.0
1744.9069,48.0
1745.6049,48.0
1746.3031,51.0
1747.0016,30.0
1747.7004,36.0
1748.3995,40.0
1749.0989,35.0
1749.7985,39.0
1750.4984,31.0
1751.1986,43.0
1751.899,47.0
1752.5999,46.0
1753.3009,46.0
1754.0022,24.0
1754.7039,41.0
1755.4058,36.0
1756.1079,31.0
1756.8103,36.0
1757.5131,52.0
1758.2161,40.0
1758.9193,28.0
1759.6229,50.0
1760.3268,30.0
1761.0309,29.0
1761.7354,42.0
1762.4401,43.0
1763.145,33.0
1763.8502,39.0
1764.5558,52.0
1765.2616,38.0
1765.9677,43.0
1766.6741,51.0
1767.3807,41.0
1768.0876,28.0
1768.7949,47.0
1769.5024,43.0
1770.2102,43.0
1770.9183,40.0
1771.6267,32.0
1772.3353,32.0
1773.0443,43.0
1773.7535,33.0
1774.463,34.0
1775.1729,39.0
1775.8829,43.0
1776.5933,36.0
1777.304,29.0
1778.0149,33.0
1778.7261,45.0
1779.4376,33.0
1780.1494,33.0
1780.8615,39.0
1781.5739,37.0
1782.2865,27.0
1782.9994,37.0
1783.7126,31.0
1784.4261,45.0
1785.1399,40.0
1785.854,47.0
1786.5684,47.0
1787.283,32.0
1787.9979,50.0
1788.7131,52.0
1789.4286,33.0
1790.1444,39.0
1790.8605,40.0
1791.5768,40.0
1792.2935,34.0
1793.0104,47.0
1793.7275,31.0
1794.4451,38.0
1795.1628,32.0
1795.8809,32.0
1796.5992,42.0
1797.3179,36.0
1798.0367,30.0
1798.756,45.0
1799.4755,48.0
1800.1953,34.0
1800.9154,31.0
1801.6357,47.0
1802.3564,32.0
1803.0774,40.0
1803.7986,31.0
1804.5201,49.0
1805.242,31.0
1805.964,42.0
1806.6864,68.0
1807.409,51.0
1808.1321,36.0
1808.8553,65.0
1809.5789,42.0
1810.3027,22.0
1811.0269,42.0
1811.7512,44.0
1812.476,39.0
1813.2009,35.0
1813.9261,36.0
1814.6517,52.0
1815.3776,37.0
1816.1038,35.0
1816.8302,46.0
1817.5569,33.0
1818.2839,30.0
1819.0112,34.0
1819.7389,49.0
1820.4668,41.0
1821.195,49.0
1821.9235,36.0
1822.6522,38.0
1823.3812,35.0
1824.1106,39.0
1824.8402,33.0
1825.5702,37.0
1826.3004,37.0
1827.0309,29.0
1827.7617,52.0
1828.4928,47.0
1829.2242,39.0
1829.9559,35.0
1830.6879,44.0
1831.4202,45.0
1832.1527,38.0
1832.8856,34.0
1833.6188,31.0
1834.3522,40.0
1835.0859,26.0
1835.82,24.0
1836.5543,43.0
1837.289,43.0
1838.0238,46.0
1838.759,57.0
1839.4945,44.0
1840.2303,31.0
1840.9664,42.0
1841.7028,53.0
1842.4395,44.0
1843.1764,46.0
1843.9137,32.0
1844.6512,44.0
1845.3892,20.0
1846.1273,39.0
1846.8657,26.0
1847.6045,41.0
1848.3435,43.0
1849.0829,37.0
1849.8225,34.0
1850.5624,56.0
1851.3026,38.0
1852.0431,38.0
1852.7839,30.0
1853.525,46.0
1854.2665,39.0
1855.0082,37.0
1855.7501,39.0
1856.4924,42.0
1857.235,39.0
1857.9779,75.0
1858.7211,71.0
1859.4646,60.0
1860.2084,32.0
1860.9525,39.0
1861.6969,43.0
1862.4415,37.0
1863.1865,28.0
1863.9318,37.0
1864.6774,43.0
1865.4232,37.0
1866.1694,29.0
1866.9159,45.0
1867.6627,50.0
1868.4098,54.0
1869.1571,43.0
1869.9048,37.0
1870.6527,26.0
1871.401,34.0
1872.1495,32.0
1872.8984,43.0
1873.6476,52.0
1874.3971,41.0
1875.1469,30.0
1875.8969,58.0
1876.6472,58.0
1877.3978,45.0
1878.1488,39.0
1878.9,41.0
1879.6516,53.0
1880.4034,37.0
1881.1556,29.0
1881.9081,35.0
1882.6609,51.0
1883.414,46.0
1884.1674,52.0
1884.921,139.0
1885.675,199.0
1886.4293,108.0
1887.1838,62.0
1887.9387,70.0
1888.6938,54.0
1889.4493,41.0
1890.2051,40.0
1890.9612,29.0
1891.7175,34.0
1892.4742,44.0
1893.2312,36.0
1893.9885,31.0
1894.7461,45.0
1895.504,40.0
1896.2622,32.0
1897.0208,44.0
1897.7795,53.0
1898.5387,49.0
1899.2981,32.0
1900.0579,33.0
1900.8179,33.0
1901.5782,40.0
1902.3389,34.0
1903.0999,33.0
1903.8611,28.0
1904.6227,39.0
1905.3845,24.0
1906.1467,31.0
1906.9092,50.0
1907.672,56.0
1908.435,34.0
1909.1985,37.0
1909.9622,21.0
1910.7262,36.0
1911.4905,54.0
1912.2551,41.0
1913.02,53.0
1913.7853,160.0
1914.5508,159.0
1915.3167,70.0
1916.0828,86.0
1916.8492,53.0
1917.616,48.0
1918.383,42.0
1919.1504,33.0
1919.9181,32.0
1920.686,44.0
1921.4543,25.0
1922.2229,33.0
1922.9918,32.0
1923.761,38.0
1924.5305,35.0
1925.3003,44.0
1926.0704,37.0
1926.8408,35.0
1927.6116,37.0
1928.3826,32.0
1929.1539,26.0
1929.9255,35.0
1930.6975,32.0
1931.4698,33.0
1932.2424,30.0
1933.0154,40.0
1933.7886,31.0
1934.5621,42.0
1935.3359,32.0
1936.1101,36.0
1936.8845,34.0
1937.6593,47.0
1938.4343,41.0
1939.2097,31.0
1939.9854,29.0
1940.7614,37.0
1941.5376,42.0
1942.3142,30.0
1943.0912,38.0
1943.8684,24.0
1944.646,39.0
1945.4238,35.0
1946.202,33.0
1946.9805,30.0
1947.7593,27.0
1948.5383,42.0
1949.3177,27.0
1950.0975,38.0
1950.8776,33.0
1951.658,29.0
1952.4386,44.0
1953.2196,28.0
1954.0009,35.0
1954.7825,50.0
1955.5643,32.0
1956.3466,19.0
1957.1292,28.0
1957.912,26.0
1958.6952,32.0
1959.4786,43.0
1960.2625,37.0
1961.0465,22.0
1961.8309,46.0
1962.6157,23.0
1963.4008,28.0
1964.1862,30.0
1964.9718,37.0
1965.7578,40.0
1966.5441,45.0
1967.3307,37.0
1968.1177,46.0
1968.9049,47.0
1969.6925,58.0
1970.4803,37.0
1971.2686,29.0
1972.057,31.0
1972.8458,35.0
1973.635,34.0
1974.4244,31.0
1975.2142,22.0
1976.0043,40.0
1976.7947,35.0
1977.5854,36.0
1978.3765,34.0
1979.1678,34.0
1979.9595,19.0
1980.7515,35.0
1981.5438,31.0
1982.3364,38.0
1983.1294,38.0
1983.9226,42.0
1984.7162,34.0
1985.5101,42.0
1986.3043,28.0
1987.0989,33.0
1987.8937,27.0
1988.6888,41.0
1989.4844,30.0
1990.2802,32.0
1991.0763,17.0
1991.8727,40.0
1992.6694,33.0
1993.4666,50.0
1994.2639,37.0
1995.0616,45.0
1995.8596,33.0
1996.658,46.0
1997.4567,49.0
1998.2556,22.0
1999.0549,31.0
1999.8546,55.0
2000.6545,42.0
2001.4548,28.0
2002.2554,38.0
2003.0563,35.0
2003.8575,38.0
2004.659,31.0
2005.4609,34.0
2006.2631,24.0
2007.0656,35.0
2007.8684,38.0
2008.6715,30.0
2009.475,48.0
2010.2788,48.0
2011.0829,43.0
2011.8873,56.0
2012.6921,66.0
2013.4972,47.0
2014.3026,34.0
2015.1083,35.0
2015.9143,49.0
2016.7207,38.0
2017.5273,32.0
2018.3344,28.0
2019.1417,32.0
2019.9493,34.0
2020.7573,33.0
2021.5657,31.0
2022.3743,30.0
2023.1832,26.0
2023.9926,25.0
2024.8021,23.0
2025.612,50.0
2026.4224,69.0
2027.2329,42.0
2028.0438,39.0
2028.855,67.0
2029.6665,43.0
2030.4784,41.0
2031.2905,28.0
2032.103,31.0
2032.9159,37.0
2033.729,41.0
2034.5425,30.0
2035.3563,27.0
2036.1704,25.0
2036.9849,44.0
2037.7997,38.0
2038.6147,37.0
2039.4302,55.0
2040.246,22.0
2041.062,39.0
2041.8784,31.0
2042.6952,32.0
2043.5123,27.0
2044.3297,27.0
2045.1475,30.0
2045.9656,37.0
2046.7839,33.0
2047.6027,26.0
2048.4216,33.0
2049.241,33.0
2050.0605,26.0
2050.8806,31.0
2051.701,37.0
2052.5217,44.0
2053.3428,34.0
2054.164,38.0
2054.9858,44.0
2055.8079,43.0
2056.6301,39.0
2057.453,30.0
2058.276,41.0
2059.099,32.0
2059.9229,31.0
2060.7468,29.0
2061.571,36.0
2062.3958,45.0
2063.2207,33.0
2064.046,34.0
2064.8716,44.0
2065.6975,42.0
2066.5237,43.0
2067.3503,28.0
2068.1772,25.0
2069.0046,40.0
2069.8323,39.0
2070.6602,30.0
2071.4885,43.0
2072.3171,43.0
2073.146,27.0
2073.9753,32.0
2074.805,31.0
2075.6348,43.0
2076.465,39.0
2077.2957,38.0
2078.1265,29.0
2078.9578,40.0
2079.7893,35.0
2080.6213,29.0
2081.4536,42.0
2082.2861,42.0
2083.1191,54.0
2083.9524,76.0
2084.786,52.0
2085.6199,51.0
2086.454,30.0
2087.2886,29.0
2088.1235,26.0
2088.9587,33.0
2089.7944,27.0
2090.6304,35.0
2091.4666,31.0
2092.3032,36.0
2093.1401,27.0
2093.9773,28.0
2094.815,34.0
2095.6528,29.0
2096.4912,33.0
2097.3298,37.0
2098.1687,34.0
2099.008,30.0
2099.8477,33.0
2100.6875,35.0
2101.5278,34.0
2102.3684,28.0
2103.2095,23.0
2104.0508,22.0
2104.8923,32.0
2105.7344,41.0
2106.5767,28.0
2107.4192,37.0
2108.2622,23.0
2109.1055,28.0
2109.9492,39.0
2110.7932,48.0
2111.6375,46.0
2112.4822,40.0
2113.3271,36.0
2114.1724,31.0
2115.018,27.0
2115.864,43.0
2116.7104,38.0
2117.5571,24.0
2118.404,35.0
2119.2515,42.0
2120.099,27.0
2120.9473,39.0
2121.7957,40.0
2122.6443,35.0
2123.4934,33.0
2124.3428,34.0
2125.1926,32.0
2126.0427,38.0
2126.893,28.0
2127.744,30.0
2128.595,46.0
2129.4463,32.0
2130.298,25.0
2131.1501,24.0
2132.0027,34.0
2132.8555,28.0
2133.7085,38.0
2134.562,45.0
2135.4158,29.0
2136.27,31.0
2137.1245,29.0
2137.9792,40.0
2138.8345,44.0
2139.69,40.0
2140.546,42.0
2141.402,51.0
2142.2585,40.0
2143.1155,54.0
2143.9727,54.0
2144.8303,36.0
2145.6882,39.0
2146.5464,35.0
2147.405,33.0
2148.264,25.0
2149.1233,26.0
2149.983,32.0
2150.843,42.0
2151.7034,24.0
2152.564,28.0
2153.425,27.0
2154.2864,24.0
2155.1482,31.0
2156.0103,47.0
2156.8726,39.0
2157.7354,36.0
2158.5984,32.0
2159.462,26.0
2160.3257,31.0
2161.1897,28.0
2162.0542,28.0
2162.919,39.0
2163.7842,38.0
2164.6497,46.0
2165.5156,32.0
2166.3818,33.0
2167.2483,27.0
2168.1152,29.0
2168.9824,43.0
2169.85,35.0
2170.718,43.0
2171.5864,39.0
2172.455,36.0
2173.324,29.0
2174.1934,27.0
2175.063,49.0
2175.933,37.0
2176.8035,45.0
2177.674,38.0
2178.5452,32.0
2179.4165,51.0
2180.2883,47.0
2181.1604,40.0
2182.033,25.0
2182.9058,40.0
2183.7788,44.0
2184.6523,31.0
2185.5261,32.0
2186.4004,30.0
2187.275,28.0
2188.15,25.0
2189.0251,36.0
2189.9006,38.0
2190.7766,33.0
2191.6528,31.0
2192.5295,40.0
2193.4065,42.0
2194.284,34.0
2195.1616,35.0
2196.0398,44.0
2196.9182,39.0
2197.7969,42.0
2198.676,33.0
2199.5554,45.0
2200.4353,34.0
2201.3154,37.0
2202.196,27.0
2203.077,32.0
2203.9583,41.0
2204.8398,21.0
2205.7217,33.0
2206.604,28.0
2207.4866,34.0
2208.3696,33.0
2209.253,37.0
2210.1367,25.0
2211.0208,35.0
2211.9053,43.0
2212.79,40.0
2213.675,43.0
2214.5605,33.0
2215.4463,46.0
2216.3325,32.0
2217.219,28.0
2218.106,38.0
2218.9932,33.0
2219.8809,40.0
2220.7688,37.0
2221.6572,27.0
2222.546,41.0
2223.4348,46.0
2224.3242,32.0
2225.2139,28.0
2226.104,29.0
2226.9944,37.0
2227.8853,26.0
2228.7764,45.0
2229.668,36.0
2230.5598,39.0
2231.4521,38.0
2232.3447,33.0
2233.2375,36.0
2234.1309,42.0
2235.0244,39.0
2235.9185,59.0
2236.8127,48.0
2237.7075,42.0
2238.6025,33.0
2239.498,46.0
2240.3938,31.0
2241.29,30.0
2242.1865,29.0
2243.0835,36.0
2243.9807,31.0
2244.8784,36.0
2245.7764,38.0
2246.6746,32.0
2247.5732,36.0
2248.4722,30.0
2249.3716,42.0
2250.2712,31.0
2251.1714,43.0
2252.0718,32.0
2252.9727,27.0
2253.8738,31.0
2254.7754,46.0
2255.6772,36.0
2256.5796,44.0
2257.4822,37.0
2258.3853,44.0
2259.2886,47.0
2260.1924,48.0
2261.0964,41.0
2262.001,48.0
2262.9058,39.0
2263.811,46.0
2264.7166,42.0
2265.6226,42.0
2266.5288,40.0
2267.4353,38.0
2268.3423,39.0
2269.2495,39.0
2270.1572,41.0
2271.0652,38.0
2271.9736,43.0
2272.8823,39.0
2273.7915,32.0
2274.701,49.0
2275.6108,49.0
2276.521,61.0
2277.4316,51.0
2278.3425,53.0
2279.254,40.0
2280.1655,47.0
2281.0776,43.0
2281.99,39.0
2282.9028,47.0
2283.816,35.0
2284.7295,37.0
2285.6433,46.0
2286.5576,28.0
2287.4722,41.0
2288.3872,30.0
2289.3025,36.0
2290.2183,42.0
2291.1343,38.0
2292.0508,41.0
2292.9675,40.0
2293.8848,47.0
2294.8022,46.0
2295.7202,49.0
2296.6384,36.0
2297.5571,41.0
2298.476,45.0
2299.3955,47.0
2300.3152,41.0
2301.2354,27.0
2302.1558,54.0
2303.0767,46.0
2303.9978,46.0
2304.9194,41.0
2305.8413,26.0
2306.7637,33.0
2307.6863,50.0
2308.6094,40.0
2309.5327,44.0
2310.4565,47.0
2311.3806,39.0
2312.3052,32.0
2313.23,39.0
2314.1553,35.0
2315.081,40.0
2316.007,38.0
2316.9336,33.0
2317.8604,40.0
2318.7876,64.0
2319.715,61.0
2320.643,56.0
2321.5713,41.0
2322.5,40.0
2323.429,41.0
2324.3584,55.0
2325.288,38.0
2326.2183,49.0
2327.1487,52.0
2328.0796,55.0
2329.0107,44.0
2329.9424,41.0
2330.8743,45.0
2331.8066,47.0
2332.7393,43.0
2333.6724,27.0
2334.6057,43.0
2335.5396,47.0
2336.4739,39.0
2337.4084,46.0
2338.3435,29.0
2339.2788,34.0
2340.2146,37.0
2341.1506,35.0
2342.0872,35.0
2343.024,39.0
2343.9612,50.0
2344.8987,47.0
2345.8367,50.0
2346.775,53.0
2347.7136,48.0
2348.6526,49.0
2349.592,30.0
2350.532,44.0
2351.4722,38.0
2352.4128,52.0
2353.3538,29.0
2354.2952,40.0
2355.2368,43.0
2356.179,45.0
2357.1213,51.0
2358.0642,32.0
2359.0073,32.0
2359.951,33.0
2360.895,31.0
2361.8394,54.0
2362.7842,50.0
2363.7292,38.0
2364.6748,45.0
2365.6206,33.0
2366.567,49.0
2367.5134,41.0
2368.4604,46.0
2369.4077,39.0
2370.3555,36.0
2371.3037,39.0
2372.2522,30.0
2373.2012,34.0
2374.1504,45.0
2375.1,32.0
2376.05,30.0
2377.0005,31.0
2377.9512,46.0
2378.9023,38.0
2379.854,33.0
2380.806,45.0
2381.7583,43.0
2382.711,43.0
2383.664,26.0
2384.6174,51.0
2385.5713,28.0
2386.5256,39.0
2387.4802,64.0
2388.4353,53.0
2389.3906,48.0
2390.3464,61.0
2391.3025,46.0
2392.259,38.0
2393.2158,54.0
2394.173,44.0
2395.1309,44.0
2396.0889,40.0
2397.0474,44.0
2398.006,39.0
2398.9653,35.0
2399.9248,37.0
2400.8848,36.0
2401.8452,29.0
2402.806,34.0
2403.767,42.0
2404.7285,36.0
2405.6904,51.0
2406.6526,43.0
2407.6152,46.0
2408.5784,30.0
2409.5417,34.0
2410.5056,33.0
2411.4697,39.0
2412.4343,35.0
2413.3994,44.0
2414.3647,46.0
2415.3306,44.0
2416.2966,34.0
2417.2632,30.0
2418.23,36.0
2419.1973,31.0
2420.165,36.0
2421.133,36.0
2422.1016,44.0
2423.0703,49.0
2424.0396,37.0
2425.0093,38.0
2425.9792,43.0
2426.9497,42.0
2427.9204,38.0
2428.8916,38.0
2429.863,49.0
2430.835,44.0
2431.8074,47.0
2432.78,40.0
2433.7532,46.0
2434.7266,46.0
2435.7004,42.0
2436.6748,31.0
2437.6494,44.0
2438.6245,43.0
2439.5999,31.0
2440.5757,37.0
2441.552,42.0
2442.5286,35.0
2443.5056,39.0
2444.483,19.0
2445.4607,45.0
2446.439,40.0
2447.4175,35.0
2448.3965,46.0
2449.3757,43.0
2450.3555,28.0
2451.3357,35.0
2452.3162,38.0
2453.297,37.0
2454.2783,43.0
2455.26,40.0
2456.2422,38.0
2457.2246,34.0
2458.2075,28.0
2459.191,45.0
2460.1746,32.0
2461.1587,33.0
2462.143,27.0
2463.128,50.0
2464.1133,45.0
2465.0989,46.0
2466.085,55.0
2467.0713,40.0
2468.058,39.0
2469.0454,46.0
2470.033,46.0
2471.021,32.0
2472.0095,34.0
2472.9983,49.0
2473.9875,36.0
2474.977,22.0
2475.967,23.0
2476.9575,31.0
2477.9482,29.0
2478.9395,32.0
2479.931,46.0
2480.9229,42.0
2481.9153,45.0
2482.908,43.0
2483.9011,44.0
2484.8948,32.0
2485.8887,38.0
2486.883,51.0
2487.878,44.0
2488.873,40.0
2489.8687,37.0
2490.8645,41.0
2491.8608,32.0
2492.8577,33.0
2493.8547,37.0
2494.8523,39.0
2495.8503,33.0
2496.8486,46.0
2497.8474,43.0
2498.8464,40.0
2499.846,42.0
2500.846,37.0
2501.8462,38.0
2502.847,41.0
2503.8481,25.0
2504.8496,39.0
2505.8516,29.0
2506.854,43.0
2507.8567,40.0
2508.8599,37.0
2509.8635,32.0
2510.8674,48.0
2511.8718,38.0
2512.8765,31.0
2513.8816,34.0
2514.8872,41.0
2515.893,42.0
2516.8994,46.0
2517.9062,41.0
2518.9133,42.0
2519.921,27.0
2520.929,39.0
2521.9373,43.0
2522.946,30.0
2523.9553,46.0
2524.9648,30.0
2525.9749,48.0
2526.9854,44.0
2527.996,42.0
2529.0073,25.0
2530.019,38.0
2531.031,38.0
2532.0435,33.0
2533.0562,50.0
2534.0693,38.0
2535.083,46.0
2536.097,29.0
2537.1113,46.0
2538.1262,29.0
2539.1414,29.0
2540.157,27.0
2541.173,37.0
2542.1895,36.0
2543.2063,43.0
2544.2236,33.0
2545.2412,45.0
2546.2593,35.0
2547.2778,39.0
2548.2966,48.0
2549.316,38.0
2550.3357,27.0
2551.3557,28.0
2552.3762,33.0
2553.3972,36.0
2554.4185,27.0
2555.4402,32.0
2556.4624,38.0
2557.485,35.0
2558.508,37.0
2559.5315,36.0
2560.5554,40.0
2561.5796,25.0
2562.6042,39.0
2563.6294,37.0
2564.6548,40.0
2565.6807,46.0
2566.707,42.0
2567.7336,41.0
2568.7607,41.0
2569.7883,38.0
2570.8162,44.0
2571.8445,30.0
2572.8733,29.0
2573.9023,42.0
2574.932,41.0
2575.962,44.0
2576.9922,41.0
2578.023,33.0
2579.0542,43.0
2580.086,33.0
2581.118,33.0
2582.1504,35.0
2583.1833,27.0
2584.2166,34.0
2585.2502,31.0
2586.2844,37.0
2587.3188,34.0
2588.3538,38.0
2589.3892,33.0
2590.4248,46.0
2591.461,44.0
2592.4976,60.0
2593.5347,45.0
2594.572,37.0
2595.6099,40.0
2596.6482,42.0
2597.6868,38.0
2598.7258,33.0
2599.7654,44.0
2600.8052,31.0
2601.8455,41.0
2602.8862,52.0
2603.9275,39.0
2604.969,30.0
2606.011,38.0
2607.0535,32.0
2608.0962,47.0
2609.1394,45.0
2610.183,51.0
2611.2273,33.0
2612.2717,36.0
2613.3167,40.0
2614.362,25.0
2615.4077,42.0
2616.4539,41.0
2617.5005,41.0
2618.5476,44.0
2619.595,37.0
2620.6428,29.0
2621.6912,48.0
2622.7397,34.0
2623.7888,26.0
2624.8384,33.0
2625.8884,35.0
2626.9387,39.0
2627.9895,47.0
2629.0408,45.0
2630.0923,43.0
2631.1443,34.0
2632.1968,50.0
2633.2498,40.0
2634.303,50.0
2635.3567,48.0
2636.411,40.0
2637.4653,33.0
2638.5203,41.0
2639.5757,41.0
2640.6316,37.0
2641.6877,47.0
2642.7444,49.0
2643.8015,36.0
2644.8591,52.0
2645.917,37.0
2646.9753,51.0
2648.0342,41.0
2649.0935,41.0
2650.153,38.0
2651.2131,41.0
2652.2737,37.0
2653.3345,38.0
2654.3958,43.0
2655.4575,38.0
2656.5198,42.0
2657.5823,32.0
2658.6453,44.0
2659.7087,31.0
2660.7727,53.0
2661.837,36.0
2662.9016,42.0
2663.9668,45.0
2665.0325,53.0
2666.0984,50.0
2667.1648,63.0
2668.2317,47.0
2669.299,43.0
2670.3667,45.0
2671.4348,41.0
2672.5034,34.0
2673.5725,35.0
2674.6418,35.0
2675.7117,44.0
2676.782,41.0
2677.8528,33.0
2678.9238,47.0
2679.9954,53.0
2681.0674,48.0
2682.14,41.0
2683.2126,49.0
2684.286,39.0
2685.3596,40.0
2686.4338,30.0
2687.5083,49.0
2688.5833,37.0
2689.6587,40.0
2690.7346,34.0
2691.8108,44.0
2692.8875,32.0
2693.9646,50.0
2695.0422,36.0
2696.1204,39.0
2697.1987,54.0
2698.2776,43.0
2699.357,63.0
2700.4368,39.0
2701.5168,46.0
2702.5974,48.0
2703.6785,41.0
2704.76,44.0
2705.8418,48.0
2706.924,63.0
2708.0068,40.0
2709.09,50.0
2710.1738,44.0
2711.2578,54.0
2712.3423,38.0
2713.4272,42.0
2714.5127,42.0
2715.5984,38.0
2716.6846,47.0
2717.7712,37.0
2718.8584,46.0
2719.946,36.0
2721.034,34.0
2722.1223,50.0
2723.2112,53.0
2724.3005,38.0
2725.3901,45.0
2726.4802,46.0
2727.5708,46.0
2728.6619,50.0
2729.7534,53.0
2730.8452,34.0
2731.9375,38.0
2733.0303,46.0
2734.1235,45.0
2735.2173,70.0
2736.3113,88.0
2737.4058,64.0
2738.5007,40.0
2739.5962,36.0
2740.6921,34.0
2741.7883,38.0
2742.885,25.0
2743.9822,40.0
2745.0798,39.0
2746.178,42.0
2747.2764,44.0
2748.3752,31.0
2749.4746,34.0
2750.5745,34.0
2751.6748,39.0
2752.7754,42.0
2753.8765,49.0
2754.978,45.0
2756.08,41.0
2757.1826,42.0
2758.2854,43.0
2759.3887,52.0
2760.4924,33.0
2761.5967,41.0
2762.7014,49.0
2763.8064,40.0
2764.9119,36.0
2766.0178,33.0
2767.1243,34.0
2768.2312,30.0
2769.3384,30.0
2770.446,32.0
2771.5542,34.0
2772.6628,36.0
2773.772,42.0
2774.8816,36.0
2775.9915,29.0
2777.1018,53.0
2778.2126,40.0
2779.324,36.0
2780.4358,40.0
2781.5479,42.0
2782.6604,49.0
2783.7734,42.0
2784.887,41.0
2786.001,41.0
2787.1155,39.0
2788.2302,43.0
2789.3455,41.0
2790.4612,38.0
2791.5774,29.0
2792.694,46.0
2793.8113,47.0
2794.9287,55.0
2796.0466,70.0
2797.165,72.0
2798.284,61.0
2799.4033,64.0
2800.5232,63.0
2801.6433,48.0
2802.764,55.0
2803.885,55.0
2805.0066,63.0
2806.1287,55.0
2807.2512,67.0
2808.374,50.0
2809.4973,51.0
2810.621,54.0
2811.7454,41.0
2812.87,58.0
2813.9954,69.0
2815.1208,69.0
2816.2468,53.0
2817.3733,64.0
2818.5002,55.0
2819.6277,75.0
2820.7556,48.0
2821.884,67.0
2823.0127,63.0
2824.1418,46.0
2825.2715,51.0
2826.4016,54.0
2827.5322,67.0
2828.6633,69.0
2829.7947,66.0
2830.9265,60.0
2832.0588,50.0
2833.1917,53.0
2834.325,64.0
2835.4587,66.0
2836.593,54.0
2837.7275,49.0
2838.8625,58.0
2839.998,51.0
2841.134,67.0
2842.2705,72.0
2843.4075,54.0
2844.545,57.0
2845.6829,48.0
2846.821,53.0
2847.9597,65.0
2849.0989,64.0
2850.2385,53.0
2851.3787,67.0
2852.5193,68.0
2853.6604,62.0
2854.8018,50.0
2855.9436,58.0
2857.086,58.0
2858.2288,65.0
2859.372,81.0
2860.5159,62.0
2861.6602,47.0
2862.805,60.0
2863.95,60.0
2865.0955,64.0
2866.2415,58.0
2867.388,63.0
2868.535,68.0
2869.6824,56.0
2870.8303,47.0
2871.9788,60.0
2873.1274,66.0
2874.2766,65.0
2875.4263,64.0
2876.5764,46.0
2877.727,46.0
2878.8782,67.0
2880.0298,63.0
2881.182,65.0
2882.3345,72.0
2883.4873,64.0
2884.6406,55.0
2885.7944,45.0
2886.9487,57.0
2888.1035,61.0
2889.2588,69.0
2890.4146,69.0
2891.5708,64.0
2892.7275,77.0
2893.8845,63.0
2895.042,66.0
2896.2,61.0
2897.3584,50.0
2898.5173,57.0
2899.6768,61.0
2900.8367,56.0
2901.997,65.0
2903.158,66.0
2904.3193,79.0
2905.481,81.0
2906.643,98.0
2907.8057,91.0
2908.9688,74.0
2910.1323,76.0
2911.2964,85.0
2912.461,58.0
2913.626,53.0
2914.7915,60.0
2915.9575,56.0
2917.124,55.0
2918.2908,55.0
2919.458,49.0
2920.6257,58.0
2921.794,87.0
2922.9626,99.0
2924.1318,123.0
2925.3015,115.0
2926.4717,82.0
2927.6423,75.0
2928.8135,61.0
2929.985,52.0
2931.157,68.0
2932.3293,67.0
2933.5022,56.0
2934.6755,55.0
2935.8494,67.0
2937.0237,59.0
2938.1985,59.0
2939.3738,86.0
2940.5496,72.0
2941.7258,77.0
2942.9026,49.0
2944.0798,72.0
2945.2576,64.0
2946.4358,59.0
2947.6143,57.0
2948.7932,63.0
2949.9727,65.0
2951.1526,62.0
2952.333,71.0
2953.514,75.0
2954.6953,68.0
2955.8772,44.0
2957.0596,56.0
2958.2424,56.0
2959.4258,67.0
2960.6096,65.0
2961.794,72.0
2962.9788,57.0
2964.164,63.0
2965.3496,47.0
2966.5356,64.0
2967.7222,48.0
2968.9092,61.0
2970.0967,57.0
2971.2847,63.0
2972.4731,69.0
2973.662,74.0
2974.8516,72.0
2976.0415,71.0
2977.232,64.0
2978.4229,73.0
2979.6143,50.0
2980.8062,49.0
2981.9985,67.0
2983.1914,86.0
2984.3848,54.0
2985.5786,58.0
2986.773,57.0
2987.9678,61.0
2989.1628,68.0
2990.3584,54.0
2991.5544,71.0
2992.751,58.0
2993.948,63.0
2995.1455,63.0
2996.3435,69.0
2997.542,65.0
2998.741,67.0
2999.9404,53.0
3001.1404,60.0
3002.3408,66.0
3003.5417,60.0
3004.7432,62.0
3005.945,76.0
3007.1475,60.0
3008.3503,73.0
3009.5537,64.0
3010.7576,71.0
3011.962,52.0
3013.1667,56.0
3014.372,70.0
3015.578,66.0
3016.7842,61.0
3017.991,66.0
3019.1982,50.0
3020.406,74.0
3021.6143,78.0
3022.823,71.0
3024.0322,62.0
3025.242,70.0
3026.4521,75.0
3027.6628,47.0
3028.874,60.0
3030.0857,66.0
3031.2976,57.0
3032.51,65.0
3033.723,65.0
3034.9363,57.0
3036.1501,62.0
3037.3645,68.0
3038.5793,68.0
3039.7947,51.0
3041.0105,63.0
3042.2268,49.0
3043.4436,71.0
3044.661,61.0
3045.8787,71.0
3047.097,57.0
3048.3157,53.0
3049.535,57.0
3050.7546,49.0
3051.9749,51.0
3053.1956,63.0
3054.4167,83.0
3055.6384,71.0
3056.8606,65.0
3058.0833,54.0
3059.3064,69.0
3060.53,57.0
3061.7542,62.0
3062.9788,60.0
3064.2039,66.0
3065.4294,68.0
3066.6555,43.0
3067.882,63.0
3069.1091,58.0
3070.3367,71.0
3071.5647,60.0
3072.7932,80.0
3074.0222,62.0
3075.2517,63.0
3076.4817,69.0
3077.7124,74.0
3078.9436,59.0
3080.1753,63.0
3081.4075,56.0
3082.6401,62.0
3083.8733,52.0
3085.107,47.0
3086.341,73.0
3087.5757,70.0
3088.8108,56.0
3090.0464,48.0
3091.2825,61.0
3092.519,53.0
3093.756,55.0
3094.9937,61.0
3096.2317,46.0
3097.4702,68.0
3098.7092,65.0
3099.9487,57.0
3101.1887,56.0
3102.4292,63.0
3103.6702,38.0
3104.9116,61.0
3106.1536,53.0
3107.396,55.0
3108.639,74.0
3109.8823,61.0
3111.1262,72.0
3112.3706,59.0
3113.6155,56.0
3114.8608,49.0
3116.1067,63.0
3117.353,61.0
3118.5999,70.0
3119.8474,57.0
3121.0955,53.0
3122.344,62.0
3123.593,69.0
3124.8425,64.0
3126.0925,53.0
3127.343,54.0
3128.594,67.0
3129.8455,48.0
3131.0974,57.0
3132.3499,53.0
3133.6028,54.0
3134.8562,58.0
3136.11,61.0
3137.3645,72.0
3138.6194,67.0
3139.8748,61.0
3141.1306,55.0
3142.387,72.0
3143.6438,57.0
3144.9014,73.0
3146.1594,72.0
3147.418,55.0
3148.677,73.0
3149.9365,57.0
3151.1965,62.0
3152.457,67.0
3153.718,63.0
3154.9795,60.0
3156.2415,57.0
3157.504,55.0
3158.7668,60.0
3160.0303,51.0
3161.2942,64.0
3162.5586,78.0
3163.8237,55.0
3165.0894,54.0
3166.3555,63.0
3167.622,64.0
3168.8892,56.0
3170.1567,70.0
3171.4248,71.0
3172.6934,72.0
3173.9624,62.0
3175.232,73.0
3176.502,62.0
3177.7725,53.0
3179.0435,85.0
3180.3152,55.0
3181.5874,58.0
3182.86,67.0
3184.1333,59.0
3185.407,61.0
3186.6812,58.0
3187.9558,71.0
3189.231,63.0
3190.5066,62.0
3191.7827,51.0
3193.0593,58.0
3194.3367,69.0
3195.6145,75.0
3196.8928,41.0
3198.1716,61.0
3199.451,52.0
3200.7307,78.0
3202.011,57.0
3203.2917,62.0
3204.573,75.0
3205.8547,57.0
3207.137,61.0
3208.42,53.0
3209.7034,51.0
3210.9873,77.0
3212.2717,54.0
3213.5566,58.0
3214.842,60.0
3216.128,66.0
3217.4143,58.0
3218.7012,61.0
3219.9888,68.0
3221.2769,46.0
3222.5654,82.0
3223.8545,64.0
3225.144,91.0
3226.434,59.0
3227.7246,84.0
3229.0156,71.0
3230.3071,51.0
3231.5994,73.0
3232.892,58.0
3234.1853,53.0
3235.479,57.0
3236.7732,60.0
3238.0679,62.0
3239.363,74.0
3240.6587,67.0
3241.9548,68.0
3243.2517,58.0
3244.549,76.0
3245.847,53.0
3247.1453,55.0
3248.444,61.0
3249.7434,67.0
3251.0432,54.0
3252.3438,61.0
3253.6448,70.0
3254.9463,58.0
3256.2483,65.0
3257.5508,64.0
3258.8538,61.0
3260.1572,43.0
3261.4612,55.0
3262.7659,63.0
3264.071,58.0
3265.3767,57.0
3266.6829,73.0
3267.9895,60.0
3269.2966,55.0
3270.6042,79.0
3271.9126,78.0
3273.2214,51.0
3274.5308,74.0
3275.8406,51.0
3277.151,65.0
3278.4617,71.0
3279.773,76.0
3281.085,70.0
3282.3975,81.0
3283.7104,65.0
3285.024,63.0
3286.338,66.0
3287.6523,90.0
3288.9673,69.0
3290.283,89.0
3291.599,73.0
3292.9158,65.0
3294.233,57.0
3295.5505,57.0
3296.8687,73.0
3298.1875,55.0
3299.5068,71.0
3300.8267,54.0
3302.147,62.0
3303.4678,68.0
3304.789,76.0
3306.111,68.0
3307.4336,73.0
3308.7566,62.0
3310.08,57.0
3311.404,63.0
3312.7285,77.0
3314.0537,52.0
3315.3794,60.0
3316.7056,47.0
3318.0322,60.0
3319.3594,66.0
3320.687,83.0
3322.0154,68.0
3323.3442,75.0
3324.6736,67.0
3326.0034,74.0
3327.3337,75.0
3328.6648,86.0
3329.9963,58.0
3331.3284,73.0
3332.661,59.0
3333.994,62.0
3335.3274,63.0
3336.6616,82.0
3337.9963,57.0
3339.3315,77.0
3340.6672,75.0
3342.0034,78.0
3343.3403,76.0
3344.6777,64.0
3346.0156,63.0
3347.354,71.0
3348.6929,56.0
3350.0322,63.0
3351.3723,69.0
3352.713,71.0
3354.054,71.0
3355.3955,81.0
3356.7375,65.0
3358.0803,64.0
3359.4236,74.0
3360.7673,69.0
3362.1116,60.0
3363.4563,65.0
3364.8018,54.0
3366.1477,70.0
3367.4941,87.0
3368.841,64.0
3370.1887,70.0
3371.5369,71.0
3372.8855,67.0
3374.2346,68.0
3375.5842,65.0
3376.9346,57.0
3378.2854,70.0
3379.6367,68.0
3380.9885,79.0
3382.3408,85.0
3383.6938,65.0
3385.0474,68.0
3386.4014,77.0
3387.7559,66.0
3389.1108,60.0
3390.4666,75.0
3391.8228,67.0
3393.1794,76.0
3394.5366,87.0
3395.8945,57.0
3397.253,64.0
3398.6118,63.0
3399.9712,58.0
3401.3313,66.0
3402.692,83.0
3404.053,74.0
3405.4146,82.0
3406.7766,67.0
3408.1394,58.0
3409.5027,66.0
3410.8665,65.0
3412.2307,84.0
3413.5957,81.0
3414.9612,61.0
3416.3271,88.0
3417.6936,67.0
3419.0608,82.0
3420.4285,76.0
3421.7966,64.0
3423.1653,62.0
3424.5347,81.0
3425.9045,63.0
3427.275,56.0
3428.6458,75.0
3430.017,57.0
3431.3892,53.0
3432.7617,71.0
3434.1348,69.0
3435.5083,65.0
3436.8826,72.0
3438.2573,53.0
3439.6326,74.0
3441.0083,55.0
3442.3848,80.0
3443.7617,60.0
3445.1392,64.0
3446.5173,70.0
3447.896,57.0
3449.2751,69.0
3450.6548,75.0
3452.0352,79.0
3453.416,64.0
3454.7974,59.0
3456.1792,74.0
3457.5618,74.0
3458.9448,66.0
3460.3284,58.0
3461.7124,78.0
3463.0972,51.0
3464.4824,66.0
3465.8682,59.0
3467.2544,74.0
3468.6414,79.0
3470.0288,71.0
3471.4167,74.0
3472.8054,72.0
3474.1946,82.0
3475.5842,73.0
3476.9744,74.0
3478.3652,66.0
3479.7566,83.0
3481.1484,66.0
3482.541,91.0
3483.934,76.0
3485.3276,78.0
3486.7217,75.0
3488.1165,57.0
3489.5117,85.0
3490.9075,81.0
3492.304,77.0
3493.701,79.0
3495.0984,88.0
3496.4963,90.0
3497.895,72.0
3499.2942,86.0
3500.6938,76.0
3502.0942,66.0
3503.495,90.0
3504.8965,62.0
3506.2983,76.0
3507.701,75.0
3509.104,84.0
3510.5076,72.0
3511.9119,73.0
3513.3167,89.0
3514.722,95.0
3516.128,61.0
3517.5344,79.0
3518.9414,71.0
3520.3489,65.0
3521.757,82.0
3523.1658,95.0
3524.575,81.0
3525.9849,72.0
3527.3953,74.0
3528.8062,65.0
3530.2178,108.0
3531.63,102.0
3533.0425,82.0
3534.4558,77.0
3535.8696,82.0
3537.284,66.0
3538.6987,72.0
3540.1143,58.0
3541.5303,55.0
3542.9468,56.0
3544.364,82.0
3545.7817,70.0
3547.2,79.0
3548.619,70.0
3550.0383,80.0
3551.4583,77.0
3552.879,72.0
3554.3,81.0
3555.7217,91.0
3557.144,85.0
3558.567,76.0
3559.9902,89.0
3561.4143,80.0
3562.8389,82.0
3564.264,75.0
3565.6897,80.0
3567.116,71.0
3568.5427,89.0
3569.9702,88.0
3571.3982,84.0
3572.8267,85.0
3574.2559,84.0
3575.6855,65.0
3577.1157,75.0
3578.5466,87.0
3579.978,85.0
3581.41,77.0
3582.8425,80.0
3584.2756,73.0
3585.7092,98.0
3587.1436,75.0
3588.5784,77.0
3590.014,77.0
3591.45,105.0
3592.8865,75.0
3594.3237,95.0
3595.7615,99.0
3597.1997,103.0
3598.6387,100.0
3600.0781,125.0
3601.518,89.0
3602.9587,106.0
3604.4,72.0
3605.8416,82.0
3607.284,132.0
3608.7268,115.0
3610.1704,74.0
3611.6145,95.0
3613.059,71.0
3614.5044,105.0
3615.9502,141.0
3617.3965,158.0
3618.8435,105.0
3620.291,85.0
3621.739,81.0
3623.1877,87.0
3624.637,95.0
3626.087,73.0
3627.5374,98.0
3628.9883,96.0
3630.44,107.0
3631.892,77.0
3633.3447,87.0
3634.798,98.0
3636.252,79.0
3637.7065,88.0
3639.1616,76.0
3640.6172,87.0
3642.0735,89.0
3643.5303,102.0
3644.9878,110.0
3646.4458,85.0
3647.9043,80.0
3649.3635,88.0
3650.8232,80.0
3652.2837,78.0
3653.7446,104.0
3655.206,66.0
3656.6682,79.0
3658.1309,84.0
3659.594,88.0
3661.0579,116.0
3662.5222,87.0
3663.9873,100.0
3665.453,100.0
3666.919,90.0
3668.3857,81.0
3669.853,74.0
3671.321,73.0
3672.7896,77.0
3674.2585,81.0
3675.7283,78.0
3677.1985,92.0
3678.6694,107.0
3680.1409,97.0
3681.613,88.0
3683.0857,59.0
3684.5588,94.0
3686.0327,101.0
3687.507,90.0
3688.9822,73.0
3690.4578,91.0
3691.9338,87.0
3693.4106,104.0
3694.888,92.0
3696.366,110.0
3697.8445,95.0
3699.3237,90.0
3700.8035,90.0
3702.2837,79.0
3703.7646,79.0
3705.246,97.0
3706.7283,134.0
3708.211,108.0
3709.6943,127.0
3711.1782,111.0
3712.6626,121.0
3714.1477,83.0
3715.6333,101.0
3717.1196,100.0
3718.6064,99.0
3720.094,87.0
3721.582,104.0
3723.0706,106.0
3724.5598,90.0
3726.0496,113.0
3727.54,93.0
3729.031,98.0
3730.5227,101.0
3732.015,106.0
3733.5078,139.0
3735.0012,159.0
3736.495,112.0
3737.9897,109.0
3739.4849,85.0
3740.9807,92.0
3742.477,110.0
3743.974,123.0
3745.4717,107.0
3746.97,103.0
3748.4688,97.0
3749.968,187.0
3751.468,375.0
3752.9685,415.0
3754.4697,233.0
3755.9714,167.0
3757.4739,99.0
3758.9768,101.0
3760.4805,109.0
3761.9846,113.0
3763.4895,89.0
3764.9949,100.0
3766.501,111.0
3768.0076,107.0
3769.515,123.0
3771.0227,98.0
3772.531,109.0
3774.04,102.0
3775.5496,97.0
3777.0598,107.0
3778.5706,123.0
3780.082,96.0
3781.594,105.0
3783.1067,110.0
3784.6199,121.0
3786.1338,105.0
3787.6482,96.0
3789.1633,93.0
3790.679,79.0
3792.1953,88.0
3793.7122,97.0
3795.2297,93.0
3796.7478,109.0
3798.2666,107.0
3799.786,123.0
3801.306,100.0
3802.8264,86.0
3804.3477,83.0
3805.8694,95.0
3807.3918,115.0
3808.9148,128.0
3810.4385,117.0
3811.9626,108.0
3813.4875,105.0
3815.013,135.0
3816.539,122.0
3818.0657,109.0
3819.593,98.0
3821.1208,103.0
3822.6494,98.0
3824.1785,90.0
3825.7083,97.0
3827.2385,100.0
3828.7695,98.0
3830.301,114.0
3831.8333,131.0
3833.366,102.0
3834.8994,95.0
3836.4333,100.0
3837.968,96.0
3839.5032,99.0
3841.039,88.0
3842.5754,84.0
3844.1125,99.0
3845.6501,105.0
3847.1885,137.0
3848.7273,160.0
3850.2668,118.0
3851.807,122.0
3853.3477,111.0
3854.889,96.0
3856.431,103.0
3857.9734,94.0
3859.5166,97.0
3861.0603,96.0
3862.6047,81.0
3864.1497,116.0
3865.6953,104.0
3867.2417,90.0
3868.7886,102.0
3870.3362,98.0
3871.8843,97.0
3873.433,108.0
3874.9824,125.0
3876.5325,95.0
3878.083,114.0
3879.6343,128.0
3881.186,120.0
3882.7385,128.0
3884.2915,122.0
3885.8452,129.0
3887.3997,107.0
3888.9546,101.0
3890.5103,104.0
3892.0664,108.0
3893.6233,108.0
3895.1807,111.0
3896.7388,128.0
3898.2974,114.0
3899.8567,123.0
3901.4167,115.0
3902.9773,118.0
3904.5386,100.0
3906.1003,101.0
3907.6628,121.0
3909.2258,85.0
3910.7896,108.0
3912.3538,99.0
3913.9187,115.0
3915.4844,107.0
3917.0505,117.0
3918.6174,110.0
3920.1848,99.0
3921.753,95.0
3923.3215,89.0
3924.8909,92.0
3926.461,88.0
3928.0315,106.0
3929.6028,116.0
3931.1746,105.0
3932.747,116.0
3934.32,102.0
3935.8938,98.0
3937.4683,67.0
3939.0432,105.0
3940.619,109.0
3942.195,119.0
3943.772,96.0
3945.3494,88.0
3946.9275,100.0
3948.5063,92.0
3950.0857,112.0
3951.6658,105.0
3953.2463,97.0
3954.8276,93.0
3956.4097,90.0
3957.9922,92.0
3959.5754,93.0
3961.1592,111.0
3962.7437,94.0
3964.3289,103.0
3965.9146,91.0
3967.501,106.0
3969.088,92.0
3970.6755,101.0
3972.264,104.0
3973.8528,94.0
3975.4424,86.0
3977.0325,102.0
3978.6233,103.0
3980.2148,105.0
3981.807,106.0
3983.3997,111.0
3984.993,97.0
3986.587,117.0
3988.1816,110.0
3989.7769,108.0
3991.3728,114.0
3992.9692,106.0
3994.5664,119.0
3996.1643,104.0
3997.7627,100.0
3999.3618,106.0
4000.9617,90.0
4002.562,111.0
4004.163,112.0
4005.7646,140.0
4007.367,128.0
4008.97,103.0
4010.5735,114.0
4012.1777,115.0
4013.7827,118.0
4015.3882,108.0
4016.9944,105.0
4018.601,134.0
4020.2085,128.0
4021.8167,140.0
4023.4253,111.0
4025.0347,118.0
4026.6448,142.0
4028.2554,159.0
4029.8667,156.0
4031.4788,137.0
4033.0913,132.0
4034.7046,123.0
4036.3184,160.0
4037.9329,207.0
4039.548,190.0
4041.1638,174.0
4042.7803,206.0
4044.3975,190.0
4046.0151,152.0
4047.6335,138.0
4049.2527,161.0
4050.8723,256.0
4052.4927,256.0
4054.1138,195.0
4055.7354,182.0
4057.3577,178.0
4058.9807,390.0
4060.6042,489.0
4062.2285,330.0
4063.8535,212.0
4065.479,169.0
4067.1052,199.0
4068.7322,224.0
4070.3596,218.0
4071.9878,274.0
4073.6167,272.0
4075.246,199.0
4076.8762,241.0
4078.507,226.0
4080.1384,268.0
4081.7705,314.0
4083.4033,283.0
4085.0366,319.0
4086.6707,386.0
4088.3054,281.0
4089.9407,204.0
4091.5767,190.0
4093.2134,552.0
4094.8506,709.0
4096.489,428.0
4098.1274,212.0
4099.7666,169.0
4101.4067,623.0
4103.0474,1668.0
4104.6885,1222.0
4106.3306,470.0
4107.973,201.0
4109.616,219.0
4111.2603,172.0
4112.905,191.0
4114.55,239.0
4116.196,214.0
4117.8423,165.0
4119.4893,129.0
4121.137,134.0
4122.7856,168.0
4124.4346,148.0
4126.0845,116.0
4127.735,126.0
4129.3857,110.0
4131.0376,127.0
4132.69,136.0
4134.343,130.0
4135.9966,125.0
4137.651,131.0
4139.306,127.0
4140.962,134.0
4142.618,115.0
4144.2754,119.0
4145.933,135.0
4147.5913,110.0
4149.2505,107.0
4150.91,116.0
4152.5703,128.0
4154.2314,146.0
4155.893,138.0
4157.5557,126.0
4159.2188,116.0
4160.8823,131.0
4162.547,96.0
4164.212,107.0
4165.8774,155.0
4167.544,120.0
4169.211,118.0
4170.8784,110.0
4172.547,123.0
4174.216,148.0
4175.8857,142.0
4177.556,121.0
4179.227,136.0
4180.899,126.0
4182.5713,154.0
4184.244,130.0
4185.918,134.0
4187.5923,157.0
4189.267,143.0
4190.943,143.0
4192.619,119.0
4194.2964,110.0
4195.974,132.0
4197.6523,139.0
4199.3315,128.0
4201.011,115.0
4202.6914,112.0
4204.3726,126.0
4206.054,133.0
4207.737,139.0
4209.42,127.0
4211.1035,144.0
4212.788,110.0
4214.473,118.0
4216.1587,116.0
4217.845,134.0
4219.532,122.0
4221.22,121.0
4222.9087,122.0
4224.5977,126.0
4226.2876,114.0
4227.978,120.0
4229.6694,116.0
4231.3613,126.0
4233.0537,140.0
4234.747,117.0
4236.441,131.0
4238.1353,113.0
4239.8306,135.0
4241.5264,125.0
4243.223,137.0
4244.9204,131.0
4246.618,136.0
4248.317,156.0
4250.016,124.0
4251.7163,129.0
4253.417,137.0
4255.118,176.0
4256.8203,147.0
4258.523,123.0
4260.2266,121.0
4261.9307,154.0
4263.6353,141.0
4265.341,122.0
4267.047,172.0
4268.754,177.0
4270.4614,155.0
4272.1694,118.0
4273.8784,143.0
4275.588,178.0
4277.2983,249.0
4279.0093,180.0
4280.7207,142.0
4282.433,127.0
4284.146,234.0
4285.86,417.0
4287.574,251.0
4289.289,202.0
4291.005,137.0
4292.721,138.0
4294.4385,106.0
4296.1562,156.0
4297.8745,163.0
4299.5938,149.0
4301.3135,133.0
4303.034,119.0
4304.7554,120.0
4306.477,132.0
4308.1997,115.0
4309.923,124.0
4311.647,119.0
4313.3716,101.0
4315.097,106.0
4316.823,109.0
4318.55,113.0
4320.2773,110.0
4322.0054,125.0
4323.7344,118.0
4325.464,102.0
4327.194,110.0
4328.925,122.0
4330.6562,144.0
4332.3887,117.0
4334.1216,148.0
4335.8555,113.0
4337.59,104.0
4339.3247,115.0
4341.0605,110.0
4342.797,97.0
4344.534,124.0
4346.272,113.0
4348.0103,118.0
4349.7495,121.0
4351.4893,105.0
4353.23,110.0
4354.971,115.0
4356.7134,148.0
4358.456,137.0
4360.199,118.0
4361.9434,133.0
4363.688,115.0
4365.4336,111.0
4367.1797,115.0
4368.927,118.0
4370.6743,128.0
4372.4224,122.0
4374.1714,127.0
4375.921,106.0
4377.6714,131.0
4379.4224,142.0
4381.1743,111.0
4382.927,121.0
4384.6797,131.0
4386.4336,125.0
4388.188,124.0
4389.9434,118.0
4391.699,148.0
4393.456,103.0
4395.2134,142.0
4396.9717,140.0
4398.7305,147.0
4400.4897,144.0
4402.25,153.0
4404.0107,167.0
4405.7725,131.0
4407.5347,171.0
4409.298,176.0
4411.0615,165.0
4412.826,130.0
4414.5913,154.0
4416.357,175.0
4418.1235,210.0
4419.8906,158.0
4421.6587,181.0
4423.4272,150.0
4425.197,142.0
4426.967,156.0
4428.738,175.0
4430.5093,201.0
4432.2812,136.0
4434.054,162.0
4435.8276,168.0
4437.602,197.0
4439.377,223.0
4441.153,207.0
4442.929,183.0
4444.7065,161.0
4446.4844,170.0
4448.263,160.0
4450.0425,176.0
4451.8223,157.0
4453.603,167.0
4455.3843,167.0
4457.1665,191.0
4458.949,183.0
4460.733,207.0
4462.517,180.0
4464.3022,196.0
4466.088,208.0
4467.8745,215.0
4469.6616,222.0
4471.4497,206.0
4473.2383,192.0
4475.0273,170.0
4476.8174,184.0
4478.608,166.0
4480.3994,196.0
4482.1914,214.0
4483.9844,203.0
4485.778,151.0
4487.5723,193.0
4489.367,166.0
4491.163,222.0
4492.9595,169.0
4494.757,159.0
4496.5547,239.0
4498.3535,212.0
4500.153,223.0
4501.953,190.0
4503.754,222.0
4505.555,210.0
4507.3574,206.0
4509.16,191.0
4510.964,206.0
4512.768,233.0
4514.573,247.0
4516.379,191.0
4518.1855,145.0
4519.9927,174.0
4521.801,271.0
4523.6094,240.0
4525.419,170.0
4527.229,170.0
4529.04,207.0
4530.8516,336.0
4532.664,318.0
4534.477,194.0
4536.291,153.0
4538.1055,171.0
4539.921,171.0
4541.737,183.0
4543.5537,160.0
4545.371,129.0
4547.1895,136.0
4549.0083,152.0
4550.828,137.0
4552.6484,150.0
4554.4697,125.0
4556.2915,143.0
4558.1143,122.0
4559.9375,137.0
4561.7617,140.0
4563.5864,143.0
4565.4116,107.0
4567.238,126.0
4569.0645,139.0
4570.892,148.0
4572.72,126.0
4574.5493,142.0
4576.379,147.0
4578.2095,143.0
4580.0405,123.0
4581.8726,136.0
4583.705,126.0
4585.5386,120.0
4587.3726,126.0
4589.2075,105.0
4591.043,156.0
4592.8794,167.0
4594.7163,159.0
4596.554,147.0
4598.3926,132.0
4600.232,153.0
4602.0723,128.0
4603.913,167.0
4605.755,155.0
4607.597,133.0
4609.4404,143.0
4611.284,128.0
4613.129,131.0
4614.974,139.0
4616.8203,159.0
4618.667,144.0
4620.5146,124.0
4622.363,139.0
4624.212,134.0
4626.0615,158.0
4627.912,158.0
4629.763,153.0
4631.615,128.0
4633.468,137.0
4635.3213,142.0
4637.1753,133.0
4639.0303,124.0
4640.8857,138.0
4642.742,147.0
4644.599,135.0
4646.457,146.0
4648.3154,129.0
4650.175,137.0
4652.0347,158.0
4653.8955,143.0
4655.757,139.0
4657.619,126.0
4659.4824,108.0
4661.346,148.0
4663.211,142.0
4665.076,158.0
4666.9424,139.0
4668.809,141.0
4670.677,144.0
4672.545,135.0
4674.414,135.0
4676.2837,154.0
4678.1543,164.0
4680.0254,163.0
4681.8975,131.0
4683.77,116.0
4685.6436,127.0
4687.5176,157.0
4689.3926,160.0
4691.2686,127.0
4693.145,136.0
4695.0225,170.0
4696.9004,142.0
4698.7793,114.0
4700.6587,125.0
4702.539,128.0
4704.42,130.0
4706.302,145.0
4708.184,133.0
4710.0674,150.0
4711.951,155.0
4713.836,122.0
4715.7217,135.0
4717.608,137.0
4719.495,130.0
4721.383,149.0
4723.2715,153.0
4725.1606,115.0
4727.051,154.0
4728.9414,151.0
4730.833,143.0
4732.725,140.0
4734.618,123.0
4736.512,128.0
4738.4067,141.0
4740.3022,127.0
4742.198,119.0
4744.095,128.0
4745.9927,115.0
4747.891,137.0
4749.79,117.0
4751.69,130.0
4753.591,121.0
4755.492,143.0
4757.3945,127.0
4759.2974,117.0
4761.201,116.0
4763.1055,148.0
4765.0107,132.0
4766.9165,98.0
4768.823,106.0
4770.731,94.0
4772.639,88.0
4774.5483,104.0
4776.458,118.0
4778.3687,119.0
4780.28,148.0
4782.192,127.0
4784.105,118.0
4786.0186,90.0
4787.933,108.0
4789.848,87.0
4791.764,89.0
4793.6807,91.0
4795.598,125.0
4797.5166,116.0
4799.4355,99.0
4801.3555,107.0
4803.276,102.0
4805.1973,98.0
4807.119,101.0
4809.042,97.0
4810.966,92.0
4812.89,105.0
4814.8154,129.0
4816.741,107.0
4818.668,99.0
4820.595,95.0
4822.5234,111.0
4824.4526,108.0
4826.3823,118.0
4828.313,97.0
4830.244,116.0
4832.1763,88.0
4834.1094,105.0
4836.043,105.0
4837.9775,97.0
4839.9126,99.0
4841.8486,109.0
4843.785,84.0
4845.7227,96.0
4847.661,96.0
4849.6,93.0
4851.54,93.0
4853.4805,108.0
4855.422,89.0
4857.3643,106.0
4859.307,94.0
4861.251,87.0
4863.1953,94.0
4865.1406,110.0
4867.087,107.0
4869.0337,102.0
4870.9814,102.0
4872.9297,108.0
4874.879,114.0
4876.829,101.0
4878.78,98.0
4880.7314,99.0
4882.6836,108.0
4884.6367,97.0
4886.5903,95.0
4888.545,95.0
4890.5005,100.0
4892.4565,103.0
4894.4136,114.0
4896.3716,97.0
4898.33,94.0
4900.2896,96.0
4902.2495,101.0
4904.2104,107.0
4906.1724,85.0
4908.135,90.0
4910.098,95.0
4912.062,85.0
4914.027,94.0
4915.9927,87.0
4917.959,90.0
4919.9263,91.0
4921.894,98.0
4923.863,105.0
4925.8325,108.0
4927.8027,97.0
4929.774,97.0
4931.7456,108.0
4933.7183,95.0
4935.692,100.0
4937.666,123.0
4939.641,93.0
4941.617,98.0
4943.5938,97.0
4945.5713,89.0
4947.5493,101.0
4949.5283,98.0
4951.5083,99.0
4953.489,99.0
4955.47,107.0
4957.4526,82.0
4959.4355,104.0
4961.4194,96.0
4963.404,97.0
4965.389,135.0
4967.3755,118.0
4969.3623,103.0
4971.35,73.0
4973.339,103.0
4975.328,101.0
4977.3184,111.0
4979.309,114.0
4981.301,98.0
4983.2935,103.0
4985.2866,118.0
4987.281,118.0
4989.276,104.0
4991.2715,116.0
4993.268,105.0
4995.265,97.0
4997.263,112.0
4999.262,125.0
5001.2617,102.0
5003.262,96.0
5005.2637,109.0
5007.2656,117.0
5009.2686,106.0
5011.2725,119.0
5013.277,100.0
5015.282,105.0
5017.2886,102.0
5019.2954,113.0
5021.303,98.0
5023.3115,114.0
5025.321,119.0
5027.331,102.0
5029.342,112.0
5031.3535,125.0
5033.366,105.0
5035.3794,87.0
5037.3936,121.0
5039.4087,97.0
5041.4243,128.0
5043.441,110.0
5045.4585,112.0
5047.4766,114.0
5049.4956,117.0
5051.5156,104.0
5053.536,100.0
5055.5576,89.0
5057.58,114.0
5059.603,125.0
5061.627,113.0
5063.6514,101.0
5065.677,122.0
5067.703,106.0
5069.73,111.0
5071.758,119.0
5073.7866,124.0
5075.816,98.0
5077.846,127.0
5079.8774,108.0
5081.909,108.0
5083.942,107.0
5085.9756,120.0
5088.01,115.0
5090.045,115.0
5092.081,97.0
5094.1177,105.0
5096.1553,107.0
5098.194,119.0
5100.233,108.0
5102.273,121.0
5104.314,108.0
5106.3555,129.0
5108.398,103.0
5110.4414,119.0
5112.4854,123.0
5114.5303,126.0
5116.576,104.0
5118.6226,118.0
5120.67,101.0
5122.7183,110.0
5124.7676,90.0
5126.8174,112.0
5128.868,109.0
5130.92,113.0
5132.972,111.0
5135.0254,115.0
5137.0796,108.0
5139.1343,89.0
5141.19,106.0
5143.2466,111.0
5145.3037,124.0
5147.362,133.0
5149.421,118.0
5151.4805,104.0
5153.541,110.0
5155.6025,125.0
5157.6646,100.0
5159.7275,119.0
5161.7915,131.0
5163.8564,103.0
5165.922,92.0
5167.9883,105.0
5170.0557,112.0
5172.1235,94.0
5174.1924,124.0
5176.262,115.0
5178.3325,111.0
5180.404,119.0
5182.476,114.0
5184.549,108.0
5186.6226,130.0
5188.6973,125.0
5190.773,118.0
5192.849,107.0
5194.9263,113.0
5197.0044,131.0
5199.083,122.0
5201.1626,129.0
5203.243,142.0
5205.324,128.0
5207.4062,116.0
5209.4893,122.0
5211.573,120.0
5213.6577,133.0
5215.743,96.0
5217.8296,130.0
5219.9165,126.0
5222.0044,127.0
5224.0933,125.0
5226.183,128.0
5228.2734,109.0
5230.3647,106.0
5232.457,120.0
5234.55,112.0
5236.6436,130.0
5238.7383,134.0
5240.834,145.0
5242.93,140.0
5245.0273,140.0
5247.1255,141.0
5249.224,100.0
5251.3237,117.0
5253.4243,92.0
5255.526,135.0
5257.628,120.0
5259.731,132.0
5261.835,140.0
5263.9395,111.0
5266.045,121.0
5268.1514,112.0
5270.259,129.0
5272.3667,133.0
5274.4756,147.0
5276.5854,137.0
5278.6963,140.0
5280.8076,151.0
5282.92,159.0
5285.033,129.0
5287.147,139.0
5289.2617,132.0
5291.3774,117.0
5293.494,129.0
5295.6113,132.0
5297.7295,132.0
5299.8486,160.0
5301.9688,167.0
5304.0894,137.0
5306.211,136.0
5308.3335,139.0
5310.457,113.0
5312.581,134.0
5314.706,141.0
5316.832,144.0
5318.959,180.0
5321.0864,162.0
5323.215,122.0
5325.344,143.0
5327.4746,116.0
5329.6055,117.0
5331.7373,136.0
5333.87,130.0
5336.004,121.0
5338.138,146.0
5340.2734,108.0
5342.4097,132.0
5344.547,150.0
5346.6846,127.0
5348.823,141.0
5350.963,133.0
5353.1035,120.0
5355.2446,132.0
5357.3867,141.0
5359.53,143.0
5361.674,165.0
5363.8184,158.0
5365.964,140.0
5368.1104,129.0
5370.258,137.0
5372.406,123.0
5374.5547,148.0
5376.7046,146.0
5378.8555,149.0
5381.007,133.0
5383.159,140.0
5385.3125,145.0
5387.467,136.0
5389.6216,138.0
5391.7773,154.0
5393.934,145.0
5396.092,140.0
5398.25,151.0
5400.409,149.0
5402.5693,154.0
5404.7305,138.0
5406.8926,148.0
5409.055,168.0
5411.2188,197.0
5413.3833,174.0
5415.549,152.0
5417.715,128.0
5419.882,144.0
5422.05,138.0
5424.2188,141.0
5426.3887,151.0
5428.559,160.0
5430.7305,147.0
5432.903,155.0
5435.076,159.0
5437.25,140.0
5439.425,162.0
5441.6006,159.0
5443.7773,163.0
5445.955,142.0
5448.1333,164.0
5450.3125,141.0
5452.4927,163.0
5454.674,168.0
5456.8555,146.0
5459.038,143.0
5461.2217,150.0
5463.4062,129.0
5465.592,157.0
5467.778,157.0
5469.965,167.0
5472.153,160.0
5474.342,145.0
5476.5317,158.0
5478.722,181.0
5480.9136,157.0
5483.106,159.0
5485.2993,154.0
5487.4937,154.0
5489.6885,164.0
5491.8843,156.0
5494.081,189.0
5496.279,152.0
5498.4775,164.0
5500.677,144.0
5502.877,193.0
5505.078,173.0
5507.2803,172.0
5509.4834,183.0
5511.687,182.0
5513.8916,159.0
5516.097,157.0
5518.3037,158.0
5520.511,177.0
5522.719,170.0
5524.928,145.0
5527.138,161.0
5529.349,146.0
5531.561,155.0
5533.7734,172.0
5535.987,154.0
5538.201,178.0
5540.4165,192.0
5542.633,178.0
5544.85,149.0
5547.068,170.0
5549.2866,173.0
5551.5063,166.0
5553.727,147.0
5555.9487,160.0
5558.171,158.0
5560.394,158.0
5562.618,164.0
5564.8433,173.0
5567.0693,176.0
5569.2964,165.0
5571.524,141.0
5573.7524,143.0
5575.982,162.0
5578.2124,149.0
5580.444,167.0
5582.676,183.0
5584.9087,202.0
5587.1426,143.0
5589.3774,156.0
5591.6133,162.0
5593.85,141.0
5596.0874,165.0
5598.3257,159.0
5600.565,169.0
5602.805,175.0
5605.0464,156.0
5607.2886,139.0
5609.5312,150.0
5611.775,145.0
5614.0195,162.0
5616.265,156.0
5618.5117,133.0
5620.7593,143.0
5623.008,124.0
5625.257,146.0
5627.507,146.0
5629.758,132.0
5632.01,169.0
5634.2627,122.0
5636.5166,164.0
5638.771,147.0
5641.0264,144.0
5643.2827,172.0
5645.54,133.0
5647.7983,161.0
5650.0576,136.0
5652.318,131.0
5654.5786,144.0
5656.8403,150.0
5659.103,159.0
5661.3667,133.0
5663.6313,162.0
5665.897,165.0
5668.1636,123.0
5670.4307,145.0
5672.6987,149.0
5674.968,145.0
5677.238,149.0
5679.509,147.0
5681.781,128.0
5684.0537,146.0
5686.327,123.0
5688.6016,151.0
5690.877,128.0
5693.1533,154.0
5695.4307,148.0
5697.709,155.0
5699.9883,156.0
5702.268,166.0
5704.549,188.0
5706.8306,136.0
5709.1133,132.0
5711.397,148.0
5713.6816,137.0
5715.9673,162.0
5718.254,152.0
5720.541,164.0
5722.829,158.0
5725.118,141.0
5727.408,140.0
5729.699,150.0
5731.991,184.0
5734.284,171.0
5736.578,143.0
5738.8726,172.0
5741.168,175.0
5743.4644,153.0
5745.7617,152.0
5748.06,159.0
5750.3594,136.0
5752.6597,156.0
5754.961,167.0
5757.2627,160.0
5759.5654,175.0
5761.869,185.0
5764.174,150.0
5766.4795,171.0
5768.786,174.0
5771.0938,187.0
5773.4023,186.0
5775.712,160.0
5778.022,185.0
5780.333,181.0
5782.645,162.0
5784.958,162.0
5787.272,162.0
5789.587,167.0
5791.903,174.0
5794.2197,162.0
5796.5376,195.0
5798.8564,156.0
5801.176,184.0
5803.496,224.0
5805.8174,217.0
5808.1396,203.0
5810.463,170.0
5812.787,190.0
5815.1123,210.0
5817.4385,184.0
5819.7656,185.0
5822.0938,197.0
5824.4224,200.0
5826.752,174.0
5829.0825,206.0
5831.414,214.0
5833.7466,172.0
5836.08,217.0
5838.4146,236.0
5840.75,228.0
5843.0864,204.0
5845.424,188.0
5847.762,177.0
5850.101,185.0
5852.441,167.0
5854.7817,201.0
5857.1235,184.0
5859.4663,177.0
5861.81,183.0
5864.155,192.0
5866.5005,178.0
5868.847,200.0
5871.195,191.0
5873.5435,200.0
5875.893,215.0
5878.2437,200.0
5880.5947,173.0
5882.947,195.0
5885.3,204.0
5887.654,216.0
5890.009,214.0
5892.3647,199.0
5894.7217,194.0
5897.0796,195.0
5899.4385,202.0
5901.7983,255.0
5904.159,224.0
5906.521,232.0
5908.884,232.0
5911.2476,204.0
5913.612,217.0
5915.977,210.0
5918.3433,220.0
5920.7104,213.0
5923.0786,224.0
5925.4478,227.0
5927.818,241.0
5930.189,210.0
5932.561,264.0
5934.934,235.0
5937.308,217.0
5939.683,216.0
5942.059,249.0
5944.436,234.0
5946.814,265.0
5949.193,206.0
5951.5728,231.0
5953.9536,222.0
5956.335,232.0
5958.7173,267.0
5961.1006,238.0
5963.485,245.0
5965.87,221.0
5968.2563,220.0
5970.6436,240.0
5973.0317,265.0
5975.421,268.0
5977.811,270.0
5980.202,235.0
5982.594,238.0
5984.9873,255.0
5987.3813,253.0
5989.7764,227.0
5992.1724,289.0
5994.5693,269.0
5996.9673,257.0
5999.366,248.0
6001.766,290.0
6004.167,303.0
6006.569,285.0
6008.9717,282.0
6011.3755,313.0
6013.7803,261.0
6016.1855,253.0
6018.592,264.0
6020.999,291.0
6023.407,253.0
6025.8164,248.0
6028.2266,277.0
6030.6377,238.0
6033.05,224.0
6035.463,300.0
6037.877,316.0
6040.292,232.0
6042.708,245.0
6045.125,255.0
6047.543,230.0
6049.962,248.0
6052.382,208.0
6054.8027,206.0
6057.2246,200.0
6059.6475,228.0
6062.0713,279.0
6064.496,308.0
6066.922,260.0
6069.3486,219.0
6071.7764,228.0
6074.205,234.0
6076.635,261.0
6079.0654,231.0
6081.497,258.0
6083.9297,285.0
6086.3633,256.0
6088.798,255.0
6091.2334,243.0
6093.67,282.0
6096.1074,252.0
6098.546,253.0
6100.9854,315.0
6103.426,264.0
6105.867,273.0
6108.3096,275.0
6110.753,248.0
6113.1973,260.0
6115.6426,310.0
6118.089,334.0
6120.536,283.0
6122.9844,266.0
6125.4336,261.0
6127.884,286.0
6130.335,336.0
6132.787,364.0
6135.24,373.0
6137.6943,346.0
6140.1494,337.0
6142.6055,314.0
6145.0625,329.0
6147.5205,367.0
6149.9795,340.0
6152.4395,355.0
6154.9004,335.0
6157.3623,387.0
6159.825,419.0
6162.289,315.0
6164.754,347.0
6167.2197,320.0
6169.6865,347.0
6172.1543,446.0
6174.623,503.0
6177.093,531.0
6179.5635,413.0
6182.035,385.0
6184.508,358.0
6186.9814,361.0
6189.456,435.0
6191.9316,575.0
6194.408,589.0
6196.8857,458.0
6199.3643,484.0
6201.844,488.0
6204.325,369.0
6206.807,323.0
6209.29,315.0
6211.774,324.0
6214.259,429.0
6216.7446,526.0
6219.2314,502.0
6221.719,378.0
6224.208,287.0
6226.6978,334.0
6229.1885,328.0
6231.68,563.0
6234.173,670.0
6236.6665,563.0
6239.161,402.0
6241.6567,317.0
6244.1533,332.0
6246.651,415.0
6249.1494,434.0
6251.649,387.0
6254.1494,384.0
6256.651,418.0
6259.1533,362.0
6261.6567,345.0
6264.1616,319.0
6266.6675,304.0
6269.1743,294.0
6271.682,440.0
6274.191,564.0
6276.7007,469.0
6279.2114,360.0
6281.723,318.0
6284.236,294.0
6286.7495,294.0
6289.264,570.0
6291.78,863.0
6294.2964,610.0
6296.814,406.0
6299.3325,322.0
6301.852,333.0
6304.3726,276.0
6306.8945,281.0
6309.4175,307.0
6311.9414,321.0
6314.4663,300.0
6316.992,271.0
6319.519,272.0
6322.047,250.0
6324.5757,258.0
6327.1055,273.0
6329.636,272.0
6332.168,269.0
6334.7007,283.0
6337.2344,274.0
6339.769,258.0
6342.305,266.0
6344.8423,275.0
6347.3804,318.0
6349.9194,297.0
6352.4595,268.0
6355.0005,254.0
6357.5425,272.0
6360.0854,277.0
6362.6294,292.0
6365.1743,298.0
6367.72,297.0
6370.267,298.0
6372.8154,275.0
6375.3647,281.0
6377.915,307.0
6380.4663,262.0
6383.0186,281.0
6385.572,269.0
6388.126,307.0
6390.681,293.0
6393.2373,273.0
6395.7944,292.0
6398.3525,278.0
6400.912,268.0
6403.4727,306.0
6406.034,295.0
6408.5967,306.0
6411.16,274.0
6413.7246,275.0
6416.29,245.0
6418.8564,280.0
6421.424,294.0
6423.992,278.0
6426.562,294.0
6429.133,293.0
6431.7046,294.0
6434.2773,290.0
6436.851,336.0
6439.426,267.0
6442.0015,279.0
6444.578,305.0
6447.156,283.0
6449.735,301.0
6452.315,270.0
6454.896,300.0
6457.478,276.0
6460.061,256.0
6462.645,276.0
6465.23,268.0
6467.816,294.0
6470.403,300.0
6472.991,297.0
6475.5806,246.0
6478.171,254.0
6480.762,335.0
6483.3545,280.0
6485.9478,307.0
6488.542,279.0
6491.137,306.0
6493.734,271.0
6496.3315,281.0
6498.93,288.0
6501.53,244.0
6504.1304,278.0
6506.732,318.0
6509.3345,311.0
6511.938,299.0
6514.543,329.0
6517.149,332.0
6519.756,291.0
6522.364,330.0
6524.9727,321.0
6527.5825,324.0
6530.1934,314.0
6532.8057,320.0
6535.419,294.0
6538.033,297.0
6540.6484,348.0
6543.2646,332.0
6545.882,359.0
6548.5,346.0
6551.1196,338.0
6553.74,324.0
6556.362,375.0
6558.9844,411.0
6561.608,370.0
6564.2324,339.0
6566.858,369.0
6569.485,317.0
6572.113,339.0
6574.7417,360.0
6577.3716,337.0
6580.0024,337.0
6582.6343,327.0
6585.267,361.0
6587.9014,347.0
6590.5366,369.0
6593.173,409.0
6595.81,411.0
6598.448,395.0
6601.0874,330.0
6603.728,363.0
6606.3696,337.0
6609.012,366.0
6611.656,342.0
6614.3003,370.0
6616.946,351.0
6619.593,353.0
6622.2407,335.0
6624.8896,333.0
6627.5396,343.0
6630.1904,339.0
6632.8423,343.0
6635.4956,344.0
6638.15,422.0
6640.805,419.0
6643.4614,389.0
6646.1187,320.0
6648.7773,329.0
6651.437,300.0
6654.0977,341.0
6656.7593,397.0
6659.422,349.0
6662.0854,308.0
6664.7505,344.0
6667.4165,287.0
6670.0835,266.0
6672.7515,313.0
6675.4204,300.0
6678.091,297.0
6680.762,363.0
6683.4346,260.0
6686.108,274.0
6688.782,269.0
6691.4575,280.0
6694.1343,320.0
6696.812,368.0
6699.4907,352.0
6702.1704,295.0
6704.851,286.0
6707.533,270.0
6710.2163,299.0
6712.9004,325.0
6715.5854,342.0
6718.2715,320.0
6720.959,277.0
6723.6475,335.0
6726.337,291.0
6729.0273,264.0
6731.7188,264.0
6734.4116,245.0
6737.1055,298.0
6739.8003,339.0
6742.496,366.0
6745.193,338.0
6747.891,286.0
6750.5903,278.0
6753.2905,293.0
6755.9917,304.0
6758.6943,424.0
6761.398,366.0
6764.1025,334.0
6766.808,306.0
6769.5146,307.0
6772.2227,327.0
6774.9316,331.0
6777.6416,335.0
6780.3525,370.0
6783.0645,368.0
6785.778,351.0
6788.492,351.0
6791.2075,353.0
6793.924,355.0
6796.6416,300.0
6799.3604,312.0
6802.08,321.0
6804.801,343.0
6807.5225,446.0
6810.2456,413.0
6812.9697,351.0
6815.695,295.0
6818.421,280.0
6821.1484,367.0
6823.877,579.0
6826.6064,488.0
6829.337,372.0
6832.069,256.0
6834.802,239.0
6837.5356,241.0
6840.2705,376.0
6843.007,477.0
6845.744,413.0
6848.4824,316.0
6851.2217,274.0
6853.9624,276.0
6856.704,267.0
6859.447,311.0
6862.1904,308.0
6864.9355,278.0
6867.6816,277.0
6870.4287,275.0
6873.177,266.0
6875.9263,275.0
6878.677,242.0
6881.428,273.0
6884.1807,259.0
6886.9346,295.0
6889.6895,266.0
6892.4453,256.0
6895.202,274.0
6897.9604,295.0
6900.7197,266.0
6903.48,290.0
6906.241,291.0
6909.004,290.0
6911.7676,337.0
6914.532,281.0
6917.298,313.0
6920.065,280.0
6922.833,297.0
6925.602,296.0
6928.372,321.0
6931.1436,295.0
6933.916,309.0
6936.6895,289.0
6939.4644,276.0
6942.24,297.0
6945.017,312.0
6947.795,334.0
6950.574,305.0
6953.3545,295.0
6956.1357,287.0
6958.918,303.0
6961.7017,291.0
6964.4863,304.0
6967.272,245.0
6970.059,293.0
6972.847,291.0
6975.636,321.0
6978.4263,320.0
6981.218,333.0
6984.0103,328.0
6986.8037,297.0
6989.5986,356.0
6992.3945,387.0
6995.1914,388.0
6997.9893,402.0
7000.7886,422.0
7003.589,363.0
7006.39,331.0
7009.193,374.0
7011.9966,342.0
7014.8013,368.0
7017.6074,436.0
7020.4146,373.0
7023.2227,404.0
7026.0317,483.0
7028.8423,393.0
7031.654,325.0
7034.4663,294.0
7037.2803,293.0
7040.095,358.0
7042.911,522.0
7045.7285,482.0
7048.547,359.0
7051.366,288.0
7054.1865,317.0
7057.0083,413.0
7059.831,727.0
7062.655,712.0
7065.48,462.0
7068.306,327.0
7071.1333,293.0
7073.962,286.0
7076.7915,327.0
7079.622,328.0
7082.454,361.0
7085.287,308.0
7088.121,316.0
7090.9565,303.0
7093.793,337.0
7096.6304,316.0
7099.469,337.0
7102.309,325.0
7105.15,354.0
7107.992,361.0
7110.8354,360.0
7113.6797,383.0
7116.5254,398.0
7119.372,337.0
7122.2197,415.0
7125.069,408.0
7127.919,455.0
7130.77,382.0
7133.6226,366.0
7136.476,370.0
7139.3306,455.0
7142.1865,515.0
7145.0435,439.0
7147.9014,402.0
7150.7607,427.0
7153.621,388.0
7156.4824,598.0
7159.345,670.0
7162.209,523.0
7165.0737,463.0
7167.94,462.0
7170.807,513.0
7173.6753,541.0
7176.545,450.0
7179.4155,480.0
7182.287,424.0
7185.16,430.0
7188.034,514.0
7190.909,517.0
7193.7856,411.0
7196.663,594.0
7199.542,629.0
7202.422,471.0
7205.3027,333.0
7208.185,301.0
7211.0684,385.0
7213.9526,770.0
7216.8384,745.0
7219.725,445.0
7222.613,306.0
7225.502,287.0
7228.392,481.0
7231.283,1182.0
7234.176,1153.0
7237.0693,679.0
7239.9644,386.0
7242.8604,306.0
7245.7573,294.0
7248.656,319.0
7251.555,308.0
7254.4556,315.0
7257.3574,306.0
7260.2603,305.0
7263.1646,271.0
7266.07,290.0
7268.976,316.0
7271.884,314.0
7274.7925,287.0
7277.7026,267.0
7280.614,293.0
7283.526,288.0
7286.4395,350.0
7289.354,306.0
7292.2695,288.0
7295.1865,340.0
7298.1045,321.0
7301.024,278.0
7303.9443,310.0
7306.8657,269.0
7309.7886,357.0
7312.7124,486.0
7315.6377,351.0
7318.564,287.0
7321.491,274.0
7324.42,264.0
7327.3496,327.0
7330.281,506.0
7333.213,456.0
7336.146,327.0
7339.0806,279.0
7342.016,277.0
7344.953,315.0
7347.891,341.0
7350.83,315.0
7353.7705,280.0
7356.712,303.0
7359.655,266.0
7362.5986,282.0
7365.5435,261.0
7368.4897,300.0
7371.437,302.0
7374.3857,322.0
7377.3354,318.0
7380.2866,340.0
7383.239,318.0
7386.192,317.0
7389.1465,282.0
7392.102,284.0
7395.059,282.0
7398.017,322.0
7400.976,343.0
7403.9365,369.0
7406.898,318.0
7409.861,265.0
7412.8247,270.0
7415.79,307.0
7418.7563,369.0
7421.7236,346.0
7424.6924,329.0
7427.662,248.0
7430.6333,270.0
7433.6055,355.0
7436.579,343.0
7439.5537,347.0
7442.5293,339.0
7445.5063,271.0
7448.4844,294.0
7451.464,310.0
7454.4443,279.0
7457.4263,244.0
7460.409,251.0
7463.3936,236.0
7466.379,338.0
7469.365,373.0
7472.353,294.0
7475.342,239.0
7478.332,229.0
7481.323,259.0
7484.316,448.0
7487.3096,471.0
7490.3047,326.0
7493.301,264.0
7496.2983,232.0
7499.297,222.0
7502.2964,269.0
7505.2974,257.0
7508.2993,264.0
7511.3027,225.0
7514.307,222.0
7517.313,206.0
7520.32,233.0
7523.328,243.0
7526.3374,232.0
7529.348,239.0
7532.36,251.0
7535.373,215.0
7538.387,230.0
7541.4023,248.0
7544.419,278.0
7547.4365,296.0
7550.4556,258.0
7553.4756,217.0
7556.497,230.0
7559.5195,224.0
7562.5435,311.0
7565.5684,329.0
7568.5947,245.0
7571.622,234.0
7574.651,230.0
7577.6807,188.0
7580.712,232.0
7583.744,249.0
7586.778,251.0
7589.8125,236.0
7592.8486,207.0
7595.8857,251.0
7598.9243,285.0
7601.964,236.0
7605.005,211.0
7608.047,213.0
7611.0903,211.0
7614.135,253.0
7617.18,344.0
7620.227,243.0
7623.275,222.0
7626.324,174.0
7629.3745,222.0
7632.4263,239.0
7635.479,248.0
7638.533,230.0
7641.5884,237.0
7644.645,227.0
7647.7026,217.0
7650.7617,236.0
7653.8223,187.0
7656.884,244.0
7659.947,219.0
7663.0107,232.0
7666.076,227.0
7669.1426,214.0
7672.2104,238.0
7675.2793,267.0
7678.3496,221.0
7681.421,233.0
7684.4937,245.0
7687.5674,247.0
7690.6426,234.0
7693.7188,240.0
7696.7964,238.0
7699.875,263.0
7702.955,259.0
7706.036,272.0
7709.1187,306.0
7712.202,288.0
7715.287,278.0
7718.373,297.0
7721.4604,286.0
7724.549,290.0
7727.6387,330.0
7730.7295,299.0
7733.822,294.0
7736.9155,298.0
7740.0103,322.0
7743.1064,326.0
7746.2036,375.0
7749.3022,295.0
7752.402,340.0
7755.503,339.0
7758.605,328.0
7761.7085,269.0
7764.813,271.0
7767.919,306.0
7771.026,375.0
7774.1343,368.0
7777.244,302.0
7780.355,285.0
7783.4673,316.0
7786.5806,416.0
7789.6953,518.0
7792.811,384.0
7795.928,356.0
7799.0464,324.0
7802.166,326.0
7805.287,315.0
7808.409,350.0
7811.5327,402.0
7814.657,378.0
7817.783,340.0
7820.91,277.0
7824.0386,321.0
7827.168,388.0
7830.299,372.0
7833.431,356.0
7836.5645,312.0
7839.699,341.0
7842.835,338.0
7845.972,374.0
7849.1104,402.0
7852.25,406.0
7855.391,372.0
7858.533,386.0
7861.677,394.0
7864.8213,380.0
7867.9673,412.0
7871.1143,341.0
7874.2627,388.0
7877.4126,381.0
7880.5635,384.0
7883.716,427.0
7886.869,408.0
7890.024,388.0
7893.18,361.0
7896.3374,390.0
7899.496,493.0
7902.656,559.0
7905.817,476.0
7908.979,407.0
7912.1426,427.0
7915.3076,535.0
7918.4736,590.0
7921.641,576.0
7924.8096,501.0
7927.9795,479.0
7931.151,449.0
7934.323,443.0
7937.497,575.0
7940.672,568.0
7943.848,562.0
7947.026,529.0
7950.2046,503.0
7953.385,598.0
7956.566,671.0
7959.7485,621.0
7962.9326,669.0
7966.1177,636.0
7969.304,628.0
7972.4917,749.0
7975.6807,678.0
7978.871,704.0
7982.0625,779.0
7985.2554,815.0
7988.4497,871.0
7991.645,895.0
7994.842,784.0
7998.0396,867.0
8001.239,898.0
8004.4395,1030.0
8007.641,1069.0
8010.844,971.0
8014.0483,1024.0
8017.254,984.0
8020.461,1058.0
8023.669,1052.0
8026.8784,1039.0
8030.0894,1054.0
8033.3013,1233.0
8036.5146,1416.0
8039.7295,1528.0
8042.9453,1453.0
8046.1626,1260.0
8049.381,1281.0
8052.6006,1669.0
8055.822,2045.0
8059.044,2024.0
8062.2676,1560.0
8065.4927,1690.0
8068.7188,1853.0
8071.9463,2005.0
8075.1753,2475.0
8078.4053,2331.0
8081.6367,2562.0
8084.869,2937.0
8088.103,2502.0
8091.3384,1848.0
8094.5747,1655.0
8097.8125,2573.0
8101.052,4293.0
8104.292,3730.0
8107.5337,2607.0
8110.777,2082.0
8114.021,2315.0
8117.2666,5805.0
8120.5137,7029.0
8123.7617,4715.0
8127.011,3444.0
8130.262,2699.0
8133.514,2674.0
8136.7676,2990.0
8140.0225,3558.0
8143.2783,4597.0
8146.5356,3928.0
8149.7944,3097.0
8153.054,3629.0
8156.3154,3275.0
8159.578,3833.0
8162.842,4816.0
8166.107,4256.0
8169.3735,6551.0
8172.641,6219.0
8175.91,3595.0
8179.1807,2104.0
8182.452,2648.0
8185.725,10136.0
8188.9995,12392.0
8192.275,5815.0
8195.553,2484.0
8198.831,2041.0
8202.11,10830.0
8205.392,25481.0
8208.674,14464.0
8211.957,4985.0
8215.242,2066.0
8218.528,1537.0
8221.815,1458.0
8225.1045,1966.0
8228.395,2522.0
8231.686,1788.0
8234.979,1020.0
8238.272,725.0
8241.567,839.0
8244.864,940.0
8248.162,959.0
8251.461,855.0
8254.762,705.0
8258.063,674.0
8261.367,846.0
8264.672,994.0
8267.978,868.0
8271.285,732.0
8274.594,659.0
8277.903,606.0
8281.215,568.0
8284.527,565.0
8287.841,723.0
8291.156,756.0
8294.473,631.0
8297.79,565.0
8301.109,549.0
8304.43,708.0
8307.751,775.0
8311.074,715.0
8314.398,748.0
8317.725,727.0
8321.052,655.0
8324.38,573.0
8327.71,610.0
8331.041,840.0
8334.373,814.0
8337.707,621.0
8341.042,564.0
8344.378,599.0
8347.716,929.0
8351.055,992.0
8354.3955,792.0
8357.737,771.0
8361.08,659.0
8364.425,539.0
8367.7705,524.0
8371.117,499.0
8374.466,742.0
8377.815,773.0
8381.167,566.0
8384.52,406.0
8387.873,493.0
8391.229,665.0
8394.585,787.0
8397.942,651.0
8401.302,469.0
8404.662,465.0
8408.024,538.0
8411.388,468.0
8414.752,437.0
8418.118,471.0
8421.485,399.0
8424.854,372.0
8428.224,384.0
8431.595,411.0
8434.968,464.0
8438.342,432.0
8441.717,386.0
8445.094,426.0
8448.472,456.0
8451.851,438.0
8455.231,406.0
8458.613,458.0
8461.997,457.0
8465.382,497.0
8468.768,491.0
8472.155,539.0
8475.544,522.0
8478.935,489.0
8482.326,486.0
8485.719,572.0
8489.113,660.0
8492.509,722.0
8495.906,626.0
8499.305,593.0
8502.704,650.0
8506.105,794.0
8509.508,872.0
8512.911,755.0
8516.316,759.0
8519.723,907.0
8523.131,762.0
8526.54,934.0
8529.95,886.0
8533.362,1263.0
8536.775,1488.0
8540.19,1017.0
8543.606,660.0
8547.023,661.0
8550.442,1630.0
8553.862,2266.0
8557.284,1346.0
8560.707,754.0
8564.131,719.0
8567.557,2109.0
8570.983,3703.0
8574.412,2241.0
8577.842,1183.0
8581.272,797.0
8584.705,594.0
8588.139,475.0
8591.574,695.0
8595.011,952.0
8598.449,863.0
8601.889,522.0
8605.329,397.0
8608.771,408.0
8612.215,396.0
8615.66,390.0
8619.106,406.0
8622.554,368.0
8626.003,387.0
8629.453,328.0
8632.905,351.0
8636.358,397.0
8639.8125,402.0
8643.269,388.0
8646.726,310.0
8650.185,354.0
8653.645,332.0
8657.106,372.0
8660.569,363.0
8664.033,378.0
8667.499,393.0
8670.966,407.0
8674.435,394.0
8677.904,431.0
8681.375,415.0
8684.848,407.0
8688.321,399.0
8691.797,449.0
8695.273,479.0
8698.752,472.0
8702.231,469.0
8705.712,436.0
8709.194,492.0
8712.678,538.0
8716.163,633.0
8719.649,558.0
8723.138,559.0
8726.627,543.0
8730.117,581.0
8733.609,527.0
8737.103,612.0
8740.598,690.0
8744.094,582.0
8747.592,578.0
8751.091,669.0
8754.591,761.0
8758.093,744.0
8761.596,652.0
8765.101,656.0
8768.606,780.0
8772.114,972.0
8775.623,873.0
8779.133,894.0
8782.645,903.0
8786.157,816.0
8789.672,922.0
8793.1875,955.0
8796.705,1220.0
8800.224,1293.0
8803.744,1032.0
8807.266,865.0
8810.788,917.0
8814.3125,1641.0
8817.838,1764.0
8821.365,1228.0
8824.894,1021.0
8828.424,1053.0
8831.955,1991.0
8835.488,2180.0
8839.022,1487.0
8842.558,1311.0
8846.095,1136.0
8849.633,1036.0
8853.173,1046.0
8856.714,1461.0
8860.257,1662.0
8863.801,1274.0
8867.347,1140.0
8870.894,1096.0
8874.442,1643.0
8877.992,2216.0
8881.543,1692.0
8885.096,1416.0
8888.649,1160.0
8892.205,1222.0
8895.762,1286.0
8899.32,1504.0
8902.88,1528.0
8906.441,1278.0
8910.004,1254.0
8913.568,1276.0
8917.134,1664.0
8920.7,1602.0
8924.269,1367.0
8927.838,1365.0
8931.409,1456.0
8934.981,2004.0
8938.556,1753.0
8942.131,1482.0
8945.708,1522.0
8949.286,1320.0
8952.866,1078.0
8956.447,1252.0
8960.03,1645.0
8963.614,1553.0
8967.199,1279.0
8970.786,1038.0
8974.374,1283.0
8977.964,1540.0
8981.555,1463.0
8985.147,1175.0
8988.741,1102.0
8992.337,1357.0
8995.934,1486.0
8999.532,1344.0
9003.132,1125.0
9006.733,1217.0
9010.336,1364.0
9013.94,1192.0
9017.546,1138.0
9021.153,1114.0
9024.762,1451.0
9028.372,1488.0
9031.983,1084.0
9035.597,787.0
9039.211,1060.0
9042.826,1536.0
9046.443,1234.0
9050.062,832.0
9053.682,736.0
9057.303,1291.0
9060.926,2129.0
9064.55,1561.0
9068.176,902.0
9071.803,675.0
9075.432,827.0
9079.062,935.0
9082.693,879.0
9086.326,752.0
9089.961,627.0
9093.597,670.0
9097.234,678.0
9100.873,628.0
9104.514,607.0
9108.155,582.0
9111.799,493.0
9115.443,463.0
9119.09,574.0
9122.737,691.0
9126.387,549.0
9130.037,464.0
9133.689,477.0
9137.343,597.0
9140.998,662.0
9144.654,567.0
9148.3125,498.0
9151.972,455.0
9155.633,476.0
9159.295,480.0
9162.959,579.0
9166.624,560.0
9170.291,488.0
9173.959,403.0
9177.629,480.0
9181.3,700.0
9184.973,719.0
9188.646,592.0
9192.322,426.0
9195.999,491.0
9199.678,650.0
9203.357,565.0
9207.039,541.0
9210.722,456.0
9214.406,317.0
9218.092,350.0
9221.779,394.0
9225.468,514.0
9229.158,417.0
9232.85,341.0
9236.543,298.0
9240.237,421.0
9243.934,542.0
9247.631,427.0
9251.33,367.0
9255.03,276.0
9258.732,256.0
9262.436,251.0
9266.141,314.0
9269.847,262.0
9273.555,198.0
9277.264,188.0
9280.975,219.0
9284.687,226.0
9288.4,209.0
9292.116,189.0
9295.833,191.0
9299.552,195.0
9303.271,192.0
9306.993,206.0
9310.716,177.0
9314.44,207.0
9318.166,158.0
9321.894,166.0
9325.622,173.0
9329.353,175.0
9333.084,161.0
9336.817,183.0
9340.552,189.0
9344.288,156.0
9348.025,156.0
9351.765,198.0
9355.505,143.0
9359.247,167.0
9362.991,156.0
9366.736,149.0
9370.483,163.0
9374.231,143.0
9377.981,159.0
9381.732,172.0
9385.485,136.0
9389.239,144.0
9392.995,156.0
9396.752,135.0
9400.511,140.0
9404.2705,144.0
9408.032,140.0
9411.796,121.0
9415.561,156.0
9419.327,139.0
9423.095,154.0
9426.864,144.0
9430.635,114.0
9434.407,127.0
9438.181,152.0
9441.956,144.0
9445.732,181.0
9449.511,158.0
9453.291,136.0
9457.072,101.0
9460.855,125.0
9464.64,160.0
9468.426,139.0
9472.213,138.0
9476.002,127.0
9479.792,112.0
9483.584,123.0
9487.377,153.0
9491.172,155.0
9494.969,99.0
9498.767,122.0
9502.566,142.0
9506.367,159.0
9510.17,142.0
9513.974,122.0
9517.779,95.0
9521.586,99.0
9525.395,116.0
9529.205,110.0
9533.017,123.0
9536.83,111.0
9540.645,82.0
9544.461,117.0
9548.278,144.0
9552.098,158.0
9555.919,113.0
9559.741,99.0
9563.565,117.0
9567.391,98.0
9571.218,110.0
9575.046,100.0
9578.876,94.0
9582.708,85.0
9586.541,106.0
9590.376,94.0
9594.212,111.0
9598.05,68.0
9601.889,99.0
9605.7295,106.0
9609.572,95.0
9613.416,86.0
9617.262,94.0
9621.108,86.0
9624.957,89.0
9628.807,81.0
9632.658,107.0
9636.512,103.0
9640.366,86.0
9644.223,85.0
9648.08,91.0
9651.939,104.0
9655.8,77.0
9659.662,84.0
9663.526,79.0
9667.392,81.0
9671.259,94.0
9675.127,75.0
9678.997,87.0
9682.869,106.0
9686.742,73.0
9690.617,71.0
9694.493,61.0
9698.371,67.0
9702.25,70.0
9706.131,76.0
9710.014,98.0
9713.897,74.0
9717.783,91.0
9721.67,67.0
9725.559,72.0
9729.449,61.0
9733.341,73.0
9737.234,81.0
9741.129,72.0
9745.025,95.0
9748.924,76.0
9752.823,76.0
9756.725,75.0
9760.627,81.0
9764.531,79.0
9768.4375,52.0
9772.345,80.0
9776.254,71.0
9780.164,60.0
9784.076,62.0
9787.99,82.0
9791.905,86.0
9795.822,66.0
9799.74,77.0
9803.66,68.0
9807.582,67.0
9811.505,83.0
9815.43,86.0
9819.355,63.0
9823.283,80.0
9827.213,88.0
9831.144,86.0
9835.076,76.0
9839.01,90.0
9842.945,68.0
9846.883,87.0
9850.821,90.0
9854.762,83.0
9858.704,80.0
9862.647,56.0
9866.593,89.0
9870.539,91.0
9874.487,79.0
9878.4375,72.0
9882.389,67.0
9886.342,83.0
9890.296,105.0
9894.252,98.0
9898.21,87.0
9902.169,93.0
9906.13,85.0
9910.093,74.0
9914.057,83.0
9918.022,87.0
9921.989,70.0
9925.958,89.0
9929.929,85.0
9933.9,78.0
9937.874,89.0
9941.85,89.0
9945.826,80.0
9949.805,82.0
9953.784,87.0
9957.766,69.0
9961.749,83.0
9965.733,86.0
9969.72,71.0
9973.708,73.0
9977.697,91.0
9981.688,96.0
9985.681,84.0
9989.675,91.0
9993.671,95.0
9997.668,82.0
10001.667,82.0
10005.668,101.0
10009.67,80.0
10013.674,93.0
10017.68,68.0
10021.687,81.0
10025.695,69.0
10029.706,76.0
10033.718,87.0
10037.731,86.0
10041.746,81.0
10045.763,69.0
10049.781,79.0
10053.801,84.0
10057.822,76.0
10061.846,71.0
10065.87,70.0
10069.896,94.0
10073.925,79.0
10077.954,92.0
10081.985,80.0
10086.019,82.0
10090.053,90.0
10094.089,84.0
10098.127,84.0
10102.166,100.0
10106.207,97.0
10110.25,97.0
10114.294,93.0
10118.34,72.0
10122.387,95.0
10126.436,94.0
10130.486,90.0
10134.538,90.0
10138.592,77.0
10142.647,101.0
10146.704,81.0
10150.763,79.0
10154.823,90.0
10158.885,98.0
10162.948,79.0
10167.014,88.0
10171.08,92.0
10175.148,78.0
10179.219,86.0
10183.29,92.0
10187.363,87.0
10191.438,82.0
10195.515,96.0
10199.593,86.0
10203.673,98.0
10207.754,86.0
10211.837,93.0
10215.922,83.0
10220.008,102.0
10224.096,88.0
10228.186,82.0
10232.276,91.0
10236.369,81.0
10240.464,98.0
10244.56,97.0
10248.657,83.0
10252.757,89.0
10256.858,96.0
10260.961,114.0
10265.065,99.0
10269.172,96.0
10273.279,88.0
10277.389,79.0
10281.5,95.0
10285.612,100.0
10289.727,96.0
10293.843,101.0
10297.96,99.0
10302.079,78.0
10306.2,81.0
10310.322,105.0
10314.446,110.0
10318.572,100.0
10322.699,105.0
10326.828,99.0
10330.959,92.0
10335.092,79.0
10339.226,91.0
10343.361,94.0
10347.499,103.0
10351.638,94.0
10355.778,97.0
10359.921,109.0
10364.064,96.0
10368.21,104.0
10372.357,95.0
10376.507,115.0
10380.657,102.0
10384.81,89.0
10388.964,91.0
10393.119,86.0
10397.276,105.0
10401.436,86.0
10405.596,90.0
10409.758,93.0
10413.922,96.0
10418.088,91.0
10422.255,106.0
10426.424,91.0
10430.595,94.0
10434.767,104.0
10438.94,113.0
10443.116,107.0
10447.294,87.0
10451.473,89.0
10455.653,80.0
10459.836,79.0
10464.02,105.0
10468.205,92.0
10472.393,80.0
10476.581,104.0
10480.771,103.0
10484.964,101.0
10489.158,93.0
10493.354,99.0
10497.551,95.0
10501.75,99.0
10505.951,96.0
10510.153,87.0
10514.357,78.0
10518.563,97.0
10522.7705,75.0
10526.9795,89.0
10531.19,83.0
10535.403,106.0
10539.617,97.0
10543.833,86.0
10548.051,115.0
10552.27,100.0
10556.49,101.0
10560.713,92.0
10564.9375,73.0
10569.163,90.0
10573.391,94.0
10577.62,92.0
10581.852,95.0
10586.084,110.0
10590.318,110.0
10594.555,79.0
10598.793,97.0
10603.032,92.0
10607.273,90.0
10611.517,89.0
10615.761,87.0
10620.007,93.0
10624.255,98.0
10628.505,99.0
10632.756,82.0
10637.009,86.0
10641.264,82.0
10645.5205,84.0
10649.778,86.0
10654.038,111.0
10658.3,92.0
10662.563,92.0
10666.828,95.0
10671.095,103.0
10675.363,96.0
10679.634,93.0
10683.905,103.0
10688.179,94.0
10692.454,94.0
10696.731,105.0
10701.01,114.0
10705.29,101.0
10709.572,87.0
10713.856,95.0
10718.142,84.0
10722.429,99.0
10726.718,88.0
10731.009,78.0
10735.301,112.0
10739.595,116.0
10743.891,99.0
10748.188,116.0
10752.487,102.0
10756.788,92.0
10761.091,104.0
10765.3955,104.0
10769.702,85.0
10774.01,97.0
10778.319,79.0
10782.631,111.0
10786.944,101.0
10791.259,90.0
10795.575,97.0
10799.894,79.0
10804.214,89.0
10808.535,95.0
10812.858,89.0
10817.184,116.0
10821.511,87.0
10825.839,88.0
10830.169,84.0
10834.501,98.0
10838.835,91.0
10843.171,81.0
10847.508,116.0
10851.847,112.0
10856.1875,98.0
10860.53,104.0
10864.874,104.0
10869.22,74.0
10873.567,103.0
10877.917,87.0
10882.269,98.0
10886.621,82.0
10890.976,110.0
10895.332,98.0
10899.69,104.0
10904.051,80.0
10908.412,73.0
10912.775,105.0
10917.141,84.0
10921.508,99.0
10925.876,82.0
10930.246,85.0
10934.618,97.0
10938.992,105.0
10943.368,94.0
10947.745,81.0
10952.124,106.0
10956.505,114.0
10960.888,96.0
10965.272,101.0
10969.658,108.0
10974.046,91.0
10978.436,103.0
10982.827,118.0
10987.221,103.0
10991.615,110.0
10996.012,93.0
11000.41,115.0
11004.811,87.0
11009.213,104.0
11013.616,79.0
11018.021,87.0
11022.429,109.0
11026.838,109.0
11031.249,93.0
11035.661,86.0
11040.075,112.0
11044.491,105.0
11048.909,130.0
11053.329,111.0
11057.75,105.0
11062.173,96.0
11066.598,102.0
11071.024,144.0
11075.453,110.0
11079.884,97.0
11084.315,109.0
11088.749,110.0
11093.185,111.0
11097.622,88.0
11102.062,103.0
11106.502,99.0
11110.944,125.0
11115.389,105.0
11119.835,103.0
11124.283,105.0
11128.733,119.0
11133.185,106.0
11137.638,97.0
11142.093,101.0
11146.55,98.0
11151.009,97.0
11155.469,96.0
11159.931,117.0
11164.395,111.0
11168.86,122.0
11173.328,93.0
11177.798,113.0
11182.269,113.0
11186.741,122.0
11191.216,126.0
11195.692,99.0
11200.171,134.0
11204.651,103.0
11209.133,124.0
11213.616,105.0
11218.102,123.0
11222.589,109.0
11227.078,123.0
11231.569,109.0
11236.062,139.0
11240.556,107.0
11245.052,107.0
11249.55,117.0
11254.05,115.0
11258.552,117.0
11263.056,131.0
11267.561,119.0
11272.067,122.0
11276.576,140.0
11281.087,147.0
11285.6,114.0
11290.114,132.0
11294.63,145.0
11299.147,128.0
11303.667,136.0
11308.188,124.0
11312.712,119.0
11317.237,150.0
11321.765,135.0
11326.293,111.0
11330.823,138.0
11335.355,140.0
11339.89,126.0
11344.426,168.0
11348.964,156.0
11353.504,175.0
11358.045,168.0
11362.588,133.0
11367.133,178.0
11371.68,169.0
11376.229,156.0
11380.779,179.0
11385.332,171.0
11389.886,175.0
11394.441,196.0
11398.999,188.0
11403.559,210.0
11408.12,199.0
11412.684,193.0
11417.249,231.0
11421.816,187.0
11426.385,207.0
11430.955,220.0
11435.527,261.0
11440.102,236.0
11444.678,236.0
11449.256,236.0
11453.836,239.0
11458.417,238.0
11463.0,267.0
11467.585,262.0
11472.172,252.0
11476.761,249.0
11481.352,321.0
11485.944,267.0
11490.539,266.0
11495.136,281.0
11499.733,302.0
11504.333,286.0
11508.935,319.0
11513.538,338.0
11518.144,340.0
11522.751,290.0
11527.36,384.0
11531.972,367.0
11536.584,347.0
11541.198,360.0
11545.814,384.0
11550.433,404.0
11555.053,362.0
11559.675,385.0
11564.299,420.0
11568.925,398.0
11573.553,408.0
11578.183,409.0
11582.813,404.0
11587.446,360.0
11592.081,424.0
11596.718,409.0
11601.356,372.0
11605.997,391.0
11610.64,472.0
11615.284,473.0
11619.931,408.0
11624.579,440.0
11629.229,430.0
11633.88,388.0
11638.533,437.0
11643.188,495.0
11647.846,453.0
11652.505,338.0
11657.166,448.0
11661.829,527.0
11666.494,365.0
11671.161,337.0
11675.83,607.0
11680.5,586.0
11685.172,381.0
11689.846,306.0
11694.521,327.0
11699.199,307.0
11703.879,231.0
11708.561,219.0
11713.244,250.0
11717.93,217.0
11722.617,220.0
11727.307,187.0
11731.998,160.0
11736.69,171.0
11741.385,152.0
11746.081,155.0
11750.779,177.0
11755.4795,207.0
11760.182,185.0
11764.886,165.0
11769.592,190.0
11774.3,162.0
11779.01,163.0
11783.722,146.0
11788.436,185.0
11793.151,173.0
11797.868,174.0
11802.587,154.0
11807.308,156.0
11812.03,147.0
11816.755,165.0
11821.481,177.0
11826.21,167.0
11830.94,155.0
11835.673,148.0
11840.407,159.0
11845.144,134.0
11849.882,146.0
11854.622,140.0
11859.364,115.0
11864.108,114.0
11868.8545,144.0
11873.602,117.0
11878.351,119.0
11883.102,101.0
11887.8545,120.0
11892.609,114.0
11897.366,105.0
11902.125,107.0
11906.886,106.0
11911.648,121.0
11916.413,116.0
11921.18,117.0
11925.948,106.0
11930.719,102.0
11935.491,136.0
11940.266,116.0
11945.042,118.0
11949.82,120.0
11954.601,111.0
11959.383,132.0
11964.167,124.0
11968.953,97.0
11973.74,102.0
11978.529,95.0
11983.32,109.0
11988.113,99.0
11992.908,108.0
