M/Z,Intensity
800.0,123.0
800.32,160.0
800.64014,44.0
800.9604,216.0
801.28076,605.0
801.60126,139.0
801.9219,129.0
802.2426,308.0
802.56354,136.0
802.8846,375.0
803.20575,258.0
803.52704,99.0
803.84845,177.0
804.17,208.0
804.49164,101.0
804.8134,87.0
805.1353,195.0
805.4574,98.0
805.7796,81.0
806.1019,149.0
806.4244,123.0
806.74695,64.0
807.06964,141.0
807.39246,124.0
807.7154,58.0
808.03845,122.0
808.3617,144.0
808.68506,61.0
809.00854,93.0
809.33215,173.0
809.6559,52.0
809.97974,113.0
810.3037,181.0
810.6278,66.0
810.9521,125.0
811.2765,164.0
811.601,55.0
811.92566,96.0
812.2504,165.0
812.5753,60.0
812.9003,104.0
813.22546,152.0
813.5508,70.0
813.8762,77.0
814.2018,159.0
814.52747,85.0
814.8533,92.0
815.1792,189.0
815.50525,99.0
815.8314,72.0
816.1578,155.0
816.48425,111.0
816.81085,168.0
817.1376,293.0
817.4644,143.0
817.7914,105.0
818.11847,190.0
818.44574,115.0
818.77313,93.0
819.10065,211.0
819.4283,119.0
819.75604,70.0
820.0839,157.0
820.412,105.0
820.7402,88.0
821.0685,171.0
821.3969,134.0
821.72546,57.0
822.05414,124.0
822.38293,124.0
822.7119,81.0
823.041,283.0
823.37024,134.0
823.6996,61.0
824.02905,230.0
824.35864,142.0
824.6884,382.0
825.0183,4467.0
825.3483,220.0
825.67847,189.0
826.0087,2003.0
826.3391,194.0
826.6696,104.0
827.0003,679.0
827.3311,173.0
827.66205,77.0
827.9931,240.0
828.3243,151.0
828.65564,50.0
828.9871,123.0
829.3187,159.0
829.65045,60.0
829.9823,80.0
830.3143,156.0
830.6464,65.0
830.9787,103.0
831.3111,163.0
831.6436,67.0
831.97626,110.0
832.309,161.0
832.64197,57.0
832.97504,160.0
833.3082,164.0
833.64154,62.0
833.975,117.0
834.3086,149.0
834.64233,68.0
834.9762,126.0
835.3102,144.0
835.6443,74.0
835.9785,145.0
836.3129,151.0
836.64746,42.0
836.9821,167.0
837.3169,168.0
837.6518,80.0
837.9869,134.0
838.3221,145.0
838.6574,101.0
838.99286,583.0
839.3284,155.0
839.6642,82.0
840.00006,358.0
840.33606,178.0
840.6722,151.0
841.0084,854.0
841.34485,149.0
841.6814,120.0
842.01807,437.0
842.35486,194.0
842.6918,100.0
843.0289,322.0
843.3661,148.0
843.7034,80.0
844.0409,167.0
844.37854,164.0
844.7163,141.0
845.0542,506.0
845.3922,448.0
845.73035,97.0
846.06866,303.0
846.4071,282.0
846.74567,105.0
847.08435,248.0
847.42316,155.0
847.76215,70.0
848.10126,156.0
848.4405,125.0
848.77985,81.0
849.1194,140.0
849.45905,112.0
849.7988,76.0
850.13873,124.0
850.47876,103.0
850.819,69.0
851.1593,131.0
851.49976,89.0
851.84033,72.0
852.1811,144.0
852.522,81.0
852.863,67.0
853.2041,138.0
853.5454,78.0
853.88684,84.0
854.2284,163.0
854.57007,77.0
854.9119,395.0
855.2539,159.0
855.596,67.0
855.93823,247.0
856.2806,159.0
856.6231,83.0
856.96576,251.0
857.30853,150.0
857.6514,67.0
857.9945,166.0
858.3377,154.0
858.681,67.0
859.0245,192.0
859.3681,143.0
859.71185,71.0
860.0557,124.0
860.3997,145.0
860.7439,650.0
861.0882,973.0
861.4326,166.0
861.77716,446.0
862.1219,379.0
862.46674,136.0
862.8117,276.0
863.15686,192.0
863.50214,122.0
863.84753,153.0
864.19305,198.0
864.53876,102.0
864.8846,133.0
865.2305,187.0
865.5766,88.0
865.92285,105.0
866.2692,147.0
866.6157,66.0
866.96234,222.0
867.30914,150.0
867.65607,71.0
868.0031,152.0
868.35034,144.0
868.6977,72.0
869.04517,133.0
869.39276,137.0
869.74054,62.0
870.08844,124.0
870.43646,122.0
870.7846,97.0
871.13293,121.0
871.4814,110.0
871.82996,63.0
872.1787,119.0
872.5276,69.0
872.8766,120.0
873.2257,174.0
873.575,83.0
873.92444,106.0
874.274,180.0
874.6237,65.0
874.9736,92.0
875.32355,147.0
875.6737,61.0
876.024,111.0
876.3744,152.0
876.7249,203.0
877.0756,303.0
877.42645,166.0
877.7774,160.0
878.12854,175.0
878.4798,122.0
878.8312,144.0
879.18274,157.0
879.5344,74.0
879.8862,114.0
880.23816,169.0
880.5903,79.0
880.9425,123.0
881.29486,144.0
881.6474,61.0
882.00006,117.0
882.35284,138.0
882.7058,73.0
883.0589,149.0
883.4121,134.0
883.7655,68.0
884.119,157.0
884.47266,120.0
884.8264,80.0
885.18036,132.0
885.5344,99.0
885.8886,54.0
886.243,136.0
886.5975,71.0
886.9521,83.0
887.3069,133.0
887.6618,61.0
888.01685,78.0
888.3721,119.0
888.7274,53.0
889.0829,127.0
889.43854,309.0
889.7943,74.0
890.1502,133.0
890.5063,198.0
890.8625,59.0
891.2188,154.0
891.5753,127.0
891.93195,77.0
892.2887,148.0
892.6456,64.0
893.0027,102.0
893.35986,138.0
893.7172,62.0
894.0747,123.0
894.4323,133.0
894.7901,82.0
895.148,133.0
895.50604,81.0
895.86426,67.0
896.2226,128.0
896.58105,60.0
896.9397,94.0
897.29846,120.0
897.6574,51.0
898.0165,103.0
898.3757,129.0
898.73505,79.0
899.09454,128.0
899.45416,105.0
899.81396,74.0
900.1739,144.0
900.53394,89.0
900.89417,63.0
901.2545,126.0
901.615,64.0
901.97565,91.0
902.3364,136.0
902.6974,45.0
903.0585,123.0
903.4197,117.0
903.78107,62.0
904.1426,125.0
904.5042,108.0
904.866,90.0
905.22797,168.0
905.5901,85.0
905.95233,80.0
906.3147,161.0
906.67725,54.0
907.0399,86.0
907.4027,122.0
907.7657,52.0
908.1288,120.0
908.49207,107.0
908.85547,78.0
909.219,130.0
909.5827,59.0
909.94653,72.0
910.3105,117.0
910.6746,64.0
911.0389,106.0
911.4033,127.0
911.7679,60.0
912.13257,117.0
912.49744,94.0
912.8624,54.0
913.2276,132.0
913.5929,76.0
913.9583,91.0
914.3239,106.0
914.68964,54.0
915.05554,113.0
915.4216,119.0
915.7877,51.0
916.15405,122.0
916.5205,100.0
916.88715,63.0
917.2539,138.0
917.6208,57.0
917.98785,87.0
918.35504,142.0
918.7224,57.0
919.0899,98.0
919.4575,104.0
919.8253,58.0
920.19324,171.0
920.56134,70.0
920.92957,83.0
921.2979,152.0
921.66644,74.0
922.0351,112.0
922.40393,155.0
922.7729,67.0
923.14197,128.0
923.5112,91.0
923.8806,77.0
924.2502,127.0
924.6199,58.0
924.98975,91.0
925.35974,116.0
925.72986,59.0
926.10016,134.0
926.4706,100.0
926.8412,69.0
927.2119,121.0
927.5828,61.0
927.95386,81.0
928.325,136.0
928.69635,54.0
929.0678,109.0
929.43945,136.0
929.8112,55.0
930.18317,137.0
930.55524,96.0
930.9274,60.0
931.2998,104.0
931.6723,52.0
932.045,90.0
932.4178,109.0
932.7908,55.0
933.1639,137.0
933.5372,209.0
933.9106,73.0
934.2841,183.0
934.65784,82.0
935.0317,82.0
935.4057,140.0
935.77985,52.0
936.1542,93.0
936.5286,95.0
936.90326,71.0
937.278,151.0
937.65295,65.0
938.028,83.0
938.4032,112.0
938.77856,62.0
939.15405,91.0
939.5297,85.0
939.9055,70.0
940.2815,129.0
940.6576,63.0
941.0339,90.0
941.4103,98.0
941.78687,73.0
942.1636,108.0
942.54047,73.0
942.9175,99.0
943.2947,119.0
943.672,47.0
944.04944,120.0
944.42706,112.0
944.8048,59.0
945.18274,114.0
945.5608,78.0
945.939,91.0
946.3174,121.0
946.6959,51.0
947.0746,100.0
947.4534,99.0
947.8324,71.0
948.21155,156.0
948.5908,87.0
948.9703,91.0
949.34985,157.0
949.7296,58.0
950.1095,84.0
950.48956,91.0
950.86975,65.0
951.2501,126.0
951.6306,74.0
952.0113,93.0
952.3921,135.0
952.7731,36.0
953.1542,65.0
953.53546,72.0
953.9169,65.0
954.29846,140.0
954.6802,49.0
955.0621,77.0
955.4441,130.0
955.8263,61.0
956.2086,118.0
956.5911,80.0
956.97375,80.0
957.35657,93.0
957.7395,69.0
958.1226,113.0
958.50586,97.0
958.8893,75.0
959.2728,112.0
959.65656,62.0
960.0404,98.0
960.42444,97.0
960.8086,60.0
961.19293,135.0
961.5774,77.0
961.96204,80.0
962.3468,119.0
962.73175,48.0
963.1168,103.0
963.5021,97.0
963.88745,83.0
964.273,120.0
964.6587,53.0
965.04456,93.0
965.4306,142.0
965.8168,56.0
966.2031,112.0
966.5896,77.0
966.97626,64.0
967.36304,128.0
967.75,46.0
968.1371,124.0
968.52435,94.0
968.91174,80.0
969.2993,125.0
969.687,69.0
970.0749,195.0
970.4629,120.0
970.8511,118.0
971.23944,143.0
971.6279,59.0
972.0166,106.0
972.4054,119.0
972.7944,60.0
973.1835,114.0
973.57275,94.0
973.96216,84.0
974.35175,128.0
974.7415,67.0
975.1314,85.0
975.5215,72.0
975.9117,57.0
976.30206,105.0
976.69257,54.0
977.08325,100.0
977.47406,182.0
977.86505,79.0
978.2562,128.0
978.6475,67.0
979.039,91.0
979.4306,139.0
979.8224,72.0
980.2143,108.0
980.6064,76.0
980.99866,96.0
981.39105,105.0
981.7836,65.0
982.17633,138.0
982.5692,83.0
982.9622,96.0
983.3554,114.0
983.7488,70.0
984.1423,144.0
984.53595,81.0
984.92975,89.0
985.3237,114.0
985.71783,88.0
986.1121,119.0
986.5066,90.0
986.9012,103.0
987.29596,127.0
987.69086,72.0
988.08594,119.0
988.4812,95.0
988.8766,76.0
989.27216,123.0
989.66785,59.0
990.0637,109.0
990.4597,89.0
990.8559,64.0
991.25226,108.0
991.64874,74.0
992.0454,171.0
992.4422,114.0
992.8392,118.0
993.2363,131.0
993.6336,82.0
994.03107,126.0
994.42865,118.0
994.8264,70.0
995.22437,117.0
995.62244,75.0
996.0207,104.0
996.4191,96.0
996.8177,62.0
997.21643,113.0
997.6153,63.0
998.01434,83.0
998.4136,103.0
998.8129,41.0
999.21246,105.0
999.6121,84.0
1000.01196,80.0
1000.412,113.0
1000.81213,55.0
1001.21246,109.0
1001.613,92.0
1002.0136,92.0
1002.4144,112.0
1002.81537,53.0
1003.2165,114.0
1003.6178,58.0
1004.0192,100.0
1004.42084,119.0
1004.82263,66.0
1005.22455,107.0
1005.62665,74.0
1006.0289,136.0
1006.4313,114.0
1006.83386,98.0
1007.2366,131.0
1007.63947,86.0
1008.04254,169.0
1008.44574,115.0
1008.8491,137.0
1009.2527,144.0
1009.6564,88.0
1010.06024,137.0
1010.4643,108.0
1010.86847,95.0
1011.2728,122.0
1011.6773,67.0
1012.082,116.0
1012.4868,105.0
1012.8918,98.0
1013.29694,134.0
1013.7023,119.0
1014.1077,345.0
1014.51337,92.0
1014.9192,195.0
1015.32513,121.0
1015.73126,94.0
1016.1376,135.0
1016.544,83.0
1016.9506,104.0
1017.3574,121.0
1017.76434,57.0
1018.17145,116.0
1018.57874,80.0
1018.98615,82.0
1019.39374,112.0
1019.8015,56.0
1020.2094,114.0
1020.6175,84.0
1021.02576,71.0
1021.43414,198.0
1021.8427,82.0
1022.25146,140.0
1022.66034,84.0
1023.0694,92.0
1023.47864,113.0
1023.888,90.0
1024.2976,111.0
1024.7073,58.0
1025.1172,91.0
1025.5272,89.0
1025.9374,68.0
1026.3478,113.0
1026.7583,56.0
1027.169,92.0
1027.5798,86.0
1027.9908,167.0
1028.4021,113.0
1028.8135,98.0
1029.225,116.0
1029.6367,106.0
1030.0486,330.0
1030.4606,110.0
1030.8728,194.0
1031.2852,112.0
1031.6976,80.0
1032.1104,156.0
1032.5232,81.0
1032.9362,111.0
1033.3494,128.0
1033.7627,95.0
1034.1761,142.0
1034.5898,79.0
1035.0037,119.0
1035.4177,99.0
1035.8319,132.0
1036.2462,123.0
1036.6608,62.0
1037.0754,124.0
1037.4902,107.0
1037.9053,100.0
1038.3204,127.0
1038.7357,59.0
1039.1512,112.0
1039.5669,105.0
1039.9827,74.0
1040.3987,123.0
1040.8148,66.0
1041.2312,127.0
1041.6477,70.0
1042.0643,77.0
1042.4812,114.0
1042.8982,48.0
1043.3153,143.0
1043.7327,110.0
1044.1501,129.0
1044.5677,102.0
1044.9856,113.0
1045.4036,97.0
1045.8218,101.0
1046.2401,111.0
1046.6586,91.0
1047.0773,89.0
1047.4961,107.0
1047.915,77.0
1048.3342,112.0
1048.7535,71.0
1049.1731,108.0
1049.5928,123.0
1050.0126,327.0
1050.4326,131.0
1050.8528,213.0
1051.2731,110.0
1051.6936,125.0
1052.1143,163.0
1052.5352,91.0
1052.9562,135.0
1053.3773,138.0
1053.7987,116.0
1054.2202,124.0
1054.6418,98.0
1055.0637,96.0
1055.4857,107.0
1055.908,115.0
1056.3303,137.0
1056.7528,80.0
1057.1755,110.0
1057.5984,117.0
1058.0215,84.0
1058.4447,105.0
1058.868,80.0
1059.2916,118.0
1059.7153,106.0
1060.1392,115.0
1060.5632,157.0
1060.9874,99.0
1061.4119,150.0
1061.8364,73.0
1062.2611,136.0
1062.686,84.0
1063.1111,89.0
1063.5364,96.0
1063.9618,72.0
1064.3873,102.0
1064.8131,75.0
1065.239,109.0
1065.6652,208.0
1066.0914,295.0
1066.5178,133.0
1066.9445,227.0
1067.3712,149.0
1067.7982,167.0
1068.2253,130.0
1068.6526,95.0
1069.0801,113.0
1069.5077,101.0
1069.9355,105.0
1070.3635,123.0
1070.7916,79.0
1071.22,106.0
1071.6484,125.0
1072.0771,184.0
1072.506,106.0
1072.9349,130.0
1073.3641,128.0
1073.7935,98.0
1074.223,123.0
1074.6527,80.0
1075.0825,108.0
1075.5126,95.0
1075.9427,82.0
1076.3732,127.0
1076.8037,88.0
1077.2344,113.0
1077.6653,83.0
1078.0963,126.0
1078.5276,93.0
1078.959,115.0
1079.3906,90.0
1079.8224,79.0
1080.2543,113.0
1080.6864,80.0
1081.1187,103.0
1081.5511,103.0
1081.9838,116.0
1082.4165,94.0
1082.8495,101.0
1083.2826,108.0
1083.716,98.0
1084.1494,94.0
1084.5831,88.0
1085.017,97.0
1085.4509,96.0
1085.8851,78.0
1086.3195,117.0
1086.754,71.0
1087.1887,117.0
1087.6235,94.0
1088.0586,117.0
1088.4938,101.0
1088.9292,94.0
1089.3647,98.0
1089.8005,94.0
1090.2365,126.0
1090.6725,76.0
1091.1088,115.0
1091.5452,98.0
1091.9818,78.0
1092.4186,103.0
1092.8556,75.0
1093.2927,138.0
1093.7301,97.0
1094.1676,95.0
1094.6052,79.0
1095.0431,99.0
1095.4811,111.0
1095.9193,93.0
1096.3577,122.0
1096.7963,62.0
1097.235,118.0
1097.6738,96.0
1098.1129,78.0
1098.5521,104.0
1098.9916,74.0
1099.4312,125.0
1099.871,81.0
1100.3109,138.0
1100.751,71.0
1101.1913,102.0
1101.6317,74.0
1102.0724,100.0
1102.5132,95.0
1102.9542,56.0
1103.3954,108.0
1103.8368,78.0
1104.2783,104.0
1104.72,63.0
1105.1619,94.0
1105.6039,101.0
1106.0461,96.0
1106.4885,97.0
1106.9312,74.0
1107.3739,120.0
1107.8169,54.0
1108.26,121.0
1108.7034,73.0
1109.1469,104.0
1109.5905,107.0
1110.0343,74.0
1110.4783,90.0
1110.9225,83.0
1111.3668,109.0
1111.8114,93.0
1112.2561,99.0
1112.701,65.0
1113.1461,72.0
1113.5914,81.0
1114.0369,80.0
1114.4824,94.0
1114.9282,76.0
1115.3741,100.0
1115.8203,75.0
1116.2666,100.0
1116.7131,81.0
1117.1598,75.0
1117.6067,99.0
1118.0537,97.0
1118.501,97.0
1118.9484,87.0
1119.396,108.0
1119.8438,64.0
1120.2917,90.0
1120.7399,46.0
1121.1881,91.0
1121.6366,88.0
1122.0852,84.0
1122.534,101.0
1122.983,69.0
1123.4323,122.0
1123.8816,58.0
1124.3312,101.0
1124.7809,61.0
1125.2308,100.0
1125.6809,75.0
1126.1312,86.0
1126.5817,74.0
1127.0323,78.0
1127.4832,101.0
1127.9342,67.0
1128.3854,99.0
1128.8367,56.0
1129.2882,117.0
1129.7399,52.0
1130.1918,103.0
1130.6438,86.0
1131.0961,101.0
1131.5485,90.0
1132.0011,84.0
1132.4539,102.0
1132.9069,61.0
1133.36,110.0
1133.8134,77.0
1134.2668,101.0
1134.7206,77.0
1135.1744,87.0
1135.6285,83.0
1136.0828,78.0
1136.5372,96.0
1136.9918,77.0
1137.4467,113.0
1137.9016,70.0
1138.3568,110.0
1138.8121,60.0
1139.2677,114.0
1139.7234,75.0
1140.1793,90.0
1140.6354,82.0
1141.0917,74.0
1141.5481,123.0
1142.0048,52.0
1142.4615,113.0
1142.9186,82.0
1143.3757,114.0
1143.8331,70.0
1144.2906,106.0
1144.7484,78.0
1145.2063,73.0
1145.6644,73.0
1146.1227,95.0
1146.5812,77.0
1147.0398,75.0
1147.4987,93.0
1147.9576,71.0
1148.4169,139.0
1148.8762,74.0
1149.3358,121.0
1149.7955,87.0
1150.2555,107.0
1150.7156,77.0
1151.1759,92.0
1151.6364,86.0
1152.097,91.0
1152.5579,105.0
1153.0189,107.0
1153.4801,115.0
1153.9415,72.0
1154.4031,104.0
1154.8649,79.0
1155.3268,120.0
1155.789,64.0
1156.2512,108.0
1156.7137,84.0
1157.1764,77.0
1157.6393,92.0
1158.1023,79.0
1158.5656,106.0
1159.0289,78.0
1159.4926,120.0
1159.9563,73.0
1160.4203,112.0
1160.8844,67.0
1161.3488,115.0
1161.8134,63.0
1162.2781,91.0
1162.743,66.0
1163.2081,104.0
1163.6735,73.0
1164.1389,77.0
1164.6046,94.0
1165.0704,79.0
1165.5365,89.0
1166.0027,71.0
1166.4691,114.0
1166.9357,78.0
1167.4025,114.0
1167.8694,68.0
1168.3365,98.0
1168.8038,73.0
1169.2714,108.0
1169.739,82.0
1170.2069,82.0
1170.675,77.0
1171.1433,88.0
1171.6118,99.0
1172.0804,78.0
1172.5493,100.0
1173.0183,86.0
1173.4875,112.0
1173.9569,89.0
1174.4265,90.0
1174.8962,71.0
1175.3662,109.0
1175.8363,80.0
1176.3066,97.0
1176.7772,71.0
1177.2479,114.0
1177.7189,79.0
1178.19,98.0
1178.6613,66.0
1179.1327,98.0
1179.6044,102.0
1180.0762,96.0
1180.5482,107.0
1181.0204,83.0
1181.4928,100.0
1181.9655,102.0
1182.4382,105.0
1182.9113,76.0
1183.3844,111.0
1183.8578,68.0
1184.3313,108.0
1184.805,65.0
1185.2789,126.0
1185.753,105.0
1186.2273,115.0
1186.7018,100.0
1187.1765,96.0
1187.6514,97.0
1188.1265,66.0
1188.6017,92.0
1189.0771,83.0
1189.5527,95.0
1190.0286,71.0
1190.5045,88.0
1190.9807,82.0
1191.4572,101.0
1191.9337,76.0
1192.4105,104.0
1192.8875,72.0
1193.3646,120.0
1193.8419,69.0
1194.3195,86.0
1194.7972,83.0
1195.2751,86.0
1195.7533,85.0
1196.2316,109.0
1196.7101,99.0
1197.1887,114.0
1197.6676,94.0
1198.1467,98.0
1198.626,101.0
1199.1055,90.0
1199.5851,104.0
1200.065,70.0
1200.5449,104.0
1201.0251,94.0
1201.5056,98.0
1201.9862,78.0
1202.467,113.0
1202.948,101.0
1203.4292,117.0
1203.9105,59.0
1204.3921,109.0
1204.8739,79.0
1205.3558,104.0
1205.838,62.0
1206.3203,104.0
1206.8029,75.0
1207.2855,101.0
1207.7684,80.0
1208.2516,102.0
1208.7349,88.0
1209.2184,86.0
1209.702,96.0
1210.1859,74.0
1210.67,89.0
1211.1543,108.0
1211.6388,95.0
1212.1234,83.0
1212.6083,105.0
1213.0933,100.0
1213.5785,117.0
1214.064,78.0
1214.5496,124.0
1215.0354,90.0
1215.5214,95.0
1216.0076,61.0
1216.494,103.0
1216.9806,81.0
1217.4674,84.0
1217.9543,78.0
1218.4415,111.0
1218.929,109.0
1219.4165,89.0
1219.9043,106.0
1220.3922,113.0
1220.8804,79.0
1221.3688,109.0
1221.8573,74.0
1222.3461,101.0
1222.835,92.0
1223.3241,123.0
1223.8135,86.0
1224.303,110.0
1224.7927,92.0
1225.2826,79.0
1225.7727,97.0
1226.2631,97.0
1226.7535,80.0
1227.2443,96.0
1227.7351,78.0
1228.2262,86.0
1228.7175,82.0
1229.209,108.0
1229.7007,87.0
1230.1925,84.0
1230.6846,90.0
1231.1769,89.0
1231.6693,89.0
1232.162,69.0
1232.6549,102.0
1233.148,126.0
1233.6412,78.0
1234.1346,94.0
1234.6283,74.0
1235.1222,94.0
1235.6162,77.0
1236.1105,103.0
1236.6049,91.0
1237.0995,82.0
1237.5944,86.0
1238.0894,78.0
1238.5846,92.0
1239.0801,102.0
1239.5757,93.0
1240.0715,86.0
1240.5675,99.0
1241.0637,132.0
1241.5602,103.0
1242.0568,78.0
1242.5536,128.0
1243.0507,112.0
1243.5479,107.0
1244.0453,98.0
1244.5428,116.0
1245.0406,91.0
1245.5387,92.0
1246.0369,82.0
1246.5353,118.0
1247.0339,113.0
1247.5327,108.0
1248.0317,93.0
1248.531,106.0
1249.0304,94.0
1249.53,97.0
1250.0298,89.0
1250.5298,94.0
1251.03,81.0
1251.5304,91.0
1252.031,78.0
1252.5319,87.0
1253.0328,69.0
1253.534,94.0
1254.0355,74.0
1254.5371,101.0
1255.039,93.0
1255.541,100.0
1256.0432,98.0
1256.5457,104.0
1257.0482,92.0
1257.551,89.0
1258.0541,85.0
1258.5573,102.0
1259.0607,86.0
1259.5643,97.0
1260.0681,77.0
1260.5721,92.0
1261.0764,141.0
1261.5808,101.0
1262.0854,116.0
1262.5903,104.0
1263.0953,149.0
1263.6006,100.0
1264.1061,92.0
1264.6117,100.0
1265.1176,108.0
1265.6237,94.0
1266.1299,84.0
1266.6364,104.0
1267.1431,105.0
1267.6499,97.0
1268.157,94.0
1268.6642,90.0
1269.1716,92.0
1269.6793,114.0
1270.1871,75.0
1270.6952,98.0
1271.2035,76.0
1271.7119,130.0
1272.2206,86.0
1272.7295,96.0
1273.2385,86.0
1273.7478,76.0
1274.2573,88.0
1274.767,88.0
1275.2769,107.0
1275.787,68.0
1276.2972,97.0
1276.8077,157.0
1277.3185,96.0
1277.8295,111.0
1278.3406,111.0
1278.8519,127.0
1279.3635,108.0
1279.8752,105.0
1280.3872,106.0
1280.8994,75.0
1281.4117,102.0
1281.9243,79.0
1282.4371,88.0
1282.9501,103.0
1283.4633,89.0
1283.9767,107.0
1284.4902,117.0
1285.004,97.0
1285.5181,106.0
1286.0322,94.0
1286.5466,96.0
1287.0613,73.0
1287.576,120.0
1288.0911,74.0
1288.6063,130.0
1289.1218,93.0
1289.6375,119.0
1290.1533,101.0
1290.6694,96.0
1291.1857,91.0
1291.7021,89.0
1292.2189,95.0
1292.7357,95.0
1293.2528,89.0
1293.7701,94.0
1294.2876,76.0
1294.8053,91.0
1295.3232,85.0
1295.8414,72.0
1296.3597,89.0
1296.8783,73.0
1297.3971,99.0
1297.916,79.0
1298.4352,92.0
1298.9546,94.0
1299.4741,89.0
1299.9939,68.0
1300.5139,100.0
1301.0342,78.0
1301.5546,104.0
1302.0752,72.0
1302.5961,99.0
1303.1171,75.0
1303.6383,94.0
1304.1598,87.0
1304.6814,79.0
1305.2032,91.0
1305.7253,98.0
1306.2477,100.0
1306.7701,79.0
1307.2928,87.0
1307.8158,79.0
1308.3389,92.0
1308.8622,83.0
1309.3857,97.0
1309.9095,64.0
1310.4335,97.0
1310.9576,71.0
1311.482,103.0
1312.0066,64.0
1312.5314,88.0
1313.0564,70.0
1313.5817,102.0
1314.107,61.0
1314.6327,95.0
1315.1586,77.0
1315.6847,87.0
1316.2109,68.0
1316.7374,81.0
1317.2642,104.0
1317.791,74.0
1318.3181,97.0
1318.8455,70.0
1319.373,100.0
1319.9008,54.0
1320.4287,84.0
1320.9569,77.0
1321.4854,103.0
1322.0139,75.0
1322.5427,89.0
1323.0718,87.0
1323.601,83.0
1324.1304,73.0
1324.66,87.0
1325.19,84.0
1325.72,93.0
1326.2502,100.0
1326.7808,83.0
1327.3115,105.0
1327.8424,63.0
1328.3735,119.0
1328.9049,74.0
1329.4365,112.0
1329.9683,59.0
1330.5002,89.0
1331.0325,80.0
1331.565,123.0
1332.0975,67.0
1332.6304,111.0
1333.1635,97.0
1333.6968,90.0
1334.2302,90.0
1334.7639,75.0
1335.2979,73.0
1335.832,73.0
1336.3663,76.0
1336.9009,54.0
1337.4357,93.0
1337.9707,70.0
1338.5059,92.0
1339.0413,59.0
1339.5769,102.0
1340.1128,60.0
1340.6488,95.0
1341.185,66.0
1341.7216,68.0
1342.2583,67.0
1342.7952,66.0
1343.3323,90.0
1343.8696,70.0
1344.4072,115.0
1344.945,68.0
1345.4829,107.0
1346.0211,51.0
1346.5596,111.0
1347.0981,66.0
1347.637,99.0
1348.176,95.0
1348.7153,91.0
1349.2548,107.0
1349.7944,80.0
1350.3344,73.0
1350.8745,74.0
1351.4149,101.0
1351.9554,67.0
1352.4962,82.0
1353.0372,65.0
1353.5785,89.0
1354.1199,55.0
1354.6615,78.0
1355.2034,86.0
1355.7455,89.0
1356.2878,93.0
1356.8303,59.0
1357.373,78.0
1357.916,63.0
1358.4592,70.0
1359.0026,75.0
1359.5461,96.0
1360.09,89.0
1360.634,100.0
1361.1783,95.0
1361.7228,93.0
1362.2675,98.0
1362.8124,87.0
1363.3575,92.0
1363.9028,74.0
1364.4484,124.0
1364.9941,68.0
1365.5402,104.0
1366.0864,63.0
1366.6328,106.0
1367.1794,69.0
1367.7263,86.0
1368.2734,83.0
1368.8208,71.0
1369.3683,93.0
1369.916,68.0
1370.464,101.0
1371.0122,75.0
1371.5607,94.0
1372.1093,67.0
1372.6581,93.0
1373.2072,62.0
1373.7565,74.0
1374.306,92.0
1374.8557,57.0
1375.4056,143.0
1375.9558,79.0
1376.5062,118.0
1377.0569,65.0
1377.6077,91.0
1378.1587,87.0
1378.71,97.0
1379.2615,96.0
1379.8132,80.0
1380.3651,91.0
1380.9172,65.0
1381.4696,100.0
1382.0222,68.0
1382.5751,99.0
1383.128,76.0
1383.6813,102.0
1384.2347,105.0
1384.7885,92.0
1385.3424,96.0
1385.8965,90.0
1386.4508,98.0
1387.0054,75.0
1387.5602,80.0
1388.1152,87.0
1388.6705,99.0
1389.226,86.0
1389.7816,85.0
1390.3375,75.0
1390.8937,92.0
1391.4501,106.0
1392.0067,71.0
1392.5635,101.0
1393.1205,78.0
1393.6777,71.0
1394.2352,87.0
1394.793,81.0
1395.3508,85.0
1395.9089,97.0
1396.4673,93.0
1397.0259,73.0
1397.5847,112.0
1398.1438,80.0
1398.703,103.0
1399.2625,103.0
1399.8221,108.0
1400.3821,107.0
1400.9423,79.0
1401.5027,78.0
1402.0632,89.0
1402.624,99.0
1403.185,92.0
1403.7463,84.0
1404.3079,80.0
1404.8696,85.0
1405.4315,115.0
1405.9937,79.0
1406.556,101.0
1407.1187,85.0
1407.6815,119.0
1408.2446,81.0
1408.808,89.0
1409.3715,100.0
1409.9352,75.0
1410.4991,97.0
1411.0634,58.0
1411.6278,110.0
1412.1925,99.0
1412.7573,76.0
1413.3224,97.0
1413.8877,84.0
1414.4532,125.0
1415.019,78.0
1415.5851,110.0
1416.1514,83.0
1416.7178,104.0
1417.2844,101.0
1417.8513,85.0
1418.4185,101.0
1418.9858,86.0
1419.5535,137.0
1420.1213,80.0
1420.6893,126.0
1421.2576,78.0
1421.826,89.0
1422.3948,117.0
1422.9637,78.0
1423.533,105.0
1424.1024,92.0
1424.672,94.0
1425.2418,89.0
1425.8119,75.0
1426.3822,79.0
1426.9528,70.0
1427.5236,93.0
1428.0946,85.0
1428.6659,85.0
1429.2373,77.0
1429.809,100.0
1430.3809,101.0
1430.953,97.0
1431.5254,131.0
1432.098,99.0
1432.6709,100.0
1433.244,114.0
1433.8173,106.0
1434.3907,101.0
1434.9645,90.0
1435.5385,128.0
1436.1127,99.0
1436.6871,112.0
1437.2618,116.0
1437.8368,98.0
1438.412,110.0
1438.9873,64.0
1439.5629,97.0
1440.1387,90.0
1440.7147,106.0
1441.291,115.0
1441.8676,98.0
1442.4443,104.0
1443.0214,76.0
1443.5985,104.0
1444.1759,83.0
1444.7535,104.0
1445.3314,100.0
1445.9095,89.0
1446.4879,93.0
1447.0665,98.0
1447.6454,91.0
1448.2245,93.0
1448.8038,102.0
1449.3833,102.0
1449.963,94.0
1450.543,128.0
1451.1232,108.0
1451.7036,100.0
1452.2843,109.0
1452.8652,102.0
1453.4464,124.0
1454.0278,93.0
1454.6095,110.0
1455.1913,107.0
1455.7733,100.0
1456.3556,95.0
1456.9381,73.0
1457.5209,106.0
1458.1039,80.0
1458.6871,106.0
1459.2706,91.0
1459.8544,98.0
1460.4384,93.0
1461.0226,89.0
1461.6069,124.0
1462.1915,108.0
1462.7764,107.0
1463.3615,153.0
1463.9468,89.0
1464.5323,128.0
1465.1182,80.0
1465.7042,98.0
1466.2905,98.0
1466.8771,90.0
1467.4639,107.0
1468.0509,79.0
1468.6382,98.0
1469.2256,78.0
1469.8132,97.0
1470.4011,105.0
1470.9893,83.0
1471.5776,103.0
1472.1663,101.0
1472.7551,105.0
1473.3442,106.0
1473.9336,80.0
1474.5232,117.0
1475.113,81.0
1475.7031,101.0
1476.2935,87.0
1476.884,96.0
1477.4747,120.0
1478.0657,92.0
1478.6569,91.0
1479.2483,77.0
1479.84,90.0
1480.4319,104.0
1481.024,64.0
1481.6165,113.0
1482.2091,75.0
1482.802,107.0
1483.3951,88.0
1483.9885,91.0
1484.5822,101.0
1485.176,86.0
1485.7701,99.0
1486.3645,89.0
1486.9591,71.0
1487.5538,99.0
1488.1488,74.0
1488.744,96.0
1489.3395,72.0
1489.9352,100.0
1490.5311,112.0
1491.1273,88.0
1491.7238,81.0
1492.3204,90.0
1492.9174,76.0
1493.5145,105.0
1494.1119,73.0
1494.7096,114.0
1495.3075,84.0
1495.9056,80.0
1496.504,96.0
1497.1027,72.0
1497.7015,108.0
1498.3007,82.0
1498.9,83.0
1499.4996,112.0
1500.0995,64.0
1500.6996,82.0
1501.2998,71.0
1501.9003,71.0
1502.501,105.0
1503.1019,90.0
1503.7031,102.0
1504.3046,111.0
1504.9062,104.0
1505.5082,111.0
1506.1104,90.0
1506.7128,101.0
1507.3154,135.0
1507.9183,96.0
1508.5215,139.0
1509.1249,70.0
1509.7285,124.0
1510.3324,87.0
1510.9365,96.0
1511.5409,111.0
1512.1455,89.0
1512.7504,122.0
1513.3555,112.0
1513.9608,99.0
1514.5664,117.0
1515.1722,76.0
1515.7783,102.0
1516.3846,84.0
1516.9912,68.0
1517.598,92.0
1518.2051,89.0
1518.8124,89.0
1519.4199,89.0
1520.0277,81.0
1520.6357,90.0
1521.244,73.0
1521.8525,85.0
1522.4613,99.0
1523.0703,65.0
1523.6796,78.0
1524.2891,91.0
1524.8988,79.0
1525.5088,91.0
1526.119,89.0
1526.7295,107.0
1527.3402,90.0
1527.9512,73.0
1528.5624,101.0
1529.1738,71.0
1529.7855,101.0
1530.3975,86.0
1531.0096,69.0
1531.6221,105.0
1532.2347,81.0
1532.8477,84.0
1533.4608,103.0
1534.0742,73.0
1534.6879,98.0
1535.3018,84.0
1535.9159,78.0
1536.5303,91.0
1537.1449,81.0
1537.7598,96.0
1538.3749,91.0
1538.9902,77.0
1539.6058,89.0
1540.2217,81.0
1540.8378,76.0
1541.4541,100.0
1542.0707,81.0
1542.6875,92.0
1543.3046,79.0
1543.9219,76.0
1544.5394,107.0
1545.1572,88.0
1545.7753,83.0
1546.3936,87.0
1547.0121,77.0
1547.6309,100.0
1548.2499,80.0
1548.8691,93.0
1549.4886,96.0
1550.1084,73.0
1550.7284,92.0
1551.3486,111.0
1551.9691,65.0
1552.5898,106.0
1553.2109,78.0
1553.8323,113.0
1554.4539,90.0
1555.0757,73.0
1555.6978,83.0
1556.3201,106.0
1556.9426,72.0
1557.5654,86.0
1558.1885,64.0
1558.8118,108.0
1559.4353,93.0
1560.0591,91.0
1560.6831,90.0
1561.3074,71.0
1561.9319,83.0
1562.5566,103.0
1563.1816,83.0
1563.8069,98.0
1564.4324,102.0
1565.0581,68.0
1565.6841,103.0
1566.3103,85.0
1566.9368,75.0
1567.5636,93.0
1568.1907,70.0
1568.818,85.0
1569.4456,95.0
1570.0734,77.0
1570.7014,104.0
1571.3297,90.0
1571.9583,54.0
1572.587,99.0
1573.2161,81.0
1573.8453,104.0
1574.4749,86.0
1575.1046,57.0
1575.7346,104.0
1576.3649,77.0
1576.9954,90.0
1577.6261,77.0
1578.2572,91.0
1578.8885,77.0
1579.5201,88.0
1580.152,72.0
1580.784,86.0
1581.4164,73.0
1582.049,64.0
1582.6818,82.0
1583.3148,71.0
1583.9481,74.0
1584.5817,105.0
1585.2155,78.0
1585.8495,98.0
1586.4839,99.0
1587.1185,70.0
1587.7534,107.0
1588.3885,83.0
1589.0239,79.0
1589.6595,99.0
1590.2954,83.0
1590.9315,86.0
1591.5679,81.0
1592.2045,77.0
1592.8413,83.0
1593.4784,72.0
1594.1158,80.0
1594.7535,80.0
1595.3915,97.0
1596.0297,84.0
1596.6681,112.0
1597.3068,85.0
1597.9457,93.0
1598.5848,103.0
1599.2242,95.0
1599.8639,85.0
1600.5038,98.0
1601.144,74.0
1601.7845,93.0
1602.4253,112.0
1603.0663,72.0
1603.7075,93.0
1604.349,69.0
1604.9907,87.0
1605.6327,121.0
1606.2749,88.0
1606.9174,61.0
1607.5602,76.0
1608.2032,57.0
1608.8466,84.0
1609.4901,88.0
1610.1339,63.0
1610.778,86.0
1611.4222,79.0
1612.0668,58.0
1612.7115,87.0
1613.3567,104.0
1614.0021,90.0
1614.6477,86.0
1615.2936,92.0
1615.9397,78.0
1616.586,77.0
1617.2327,87.0
1617.8795,81.0
1618.5266,79.0
1619.1741,80.0
1619.8218,78.0
1620.4697,91.0
1621.1179,82.0
1621.7664,99.0
1622.415,87.0
1623.064,76.0
1623.7131,95.0
1624.3627,86.0
1625.0125,84.0
1625.6625,99.0
1626.3127,76.0
1626.9633,78.0
1627.614,90.0
1628.265,85.0
1628.9163,77.0
1629.5679,123.0
1630.2197,85.0
1630.8718,79.0
1631.5242,99.0
1632.1768,91.0
1632.8296,89.0
1633.4827,111.0
1634.1361,68.0
1634.7898,90.0
1635.4437,94.0
1636.0979,71.0
1636.7523,104.0
1637.407,79.0
1638.0619,61.0
1638.7172,96.0
1639.3727,98.0
1640.0284,92.0
1640.6844,120.0
1641.3407,98.0
1641.9972,75.0
1642.6539,107.0
1643.311,95.0
1643.9684,78.0
1644.626,157.0
1645.2838,141.0
1645.9419,91.0
1646.6002,121.0
1647.2589,79.0
1647.9178,90.0
1648.577,111.0
1649.2365,88.0
1649.8961,76.0
1650.556,99.0
1651.2163,70.0
1651.8768,81.0
1652.5376,101.0
1653.1986,68.0
1653.8599,90.0
1654.5214,74.0
1655.1832,83.0
1655.8453,112.0
1656.5077,90.0
1657.1703,69.0
1657.8331,95.0
1658.4962,95.0
1659.1597,88.0
1659.8234,99.0
1660.4873,93.0
1661.1515,73.0
1661.8159,89.0
1662.4806,113.0
1663.1456,86.0
1663.8109,93.0
1664.4764,114.0
1665.1422,77.0
1665.8082,94.0
1666.4746,103.0
1667.1412,71.0
1667.8081,119.0
1668.4752,95.0
1669.1426,76.0
1669.8102,95.0
1670.4781,91.0
1671.1464,65.0
1671.8148,72.0
1672.4835,90.0
1673.1525,84.0
1673.8218,74.0
1674.4913,95.0
1675.1611,71.0
1675.8312,81.0
1676.5015,89.0
1677.1721,75.0
1677.843,104.0
1678.5142,100.0
1679.1855,77.0
1679.8572,91.0
1680.5292,94.0
1681.2014,70.0
1681.8739,95.0
1682.5466,103.0
1683.2196,69.0
1683.893,91.0
1684.5665,124.0
1685.2404,84.0
1685.9144,104.0
1686.5887,80.0
1687.2634,73.0
1687.9384,70.0
1688.6135,103.0
1689.289,79.0
1689.9646,82.0
1690.6406,92.0
1691.3169,87.0
1691.9934,67.0
1692.6702,76.0
1693.3473,85.0
1694.0247,83.0
1694.7023,70.0
1695.3801,85.0
1696.0582,70.0
1696.7367,89.0
1697.4154,72.0
1698.0944,76.0
1698.7736,95.0
1699.4531,91.0
1700.1329,77.0
1700.813,95.0
1701.4933,98.0
1702.1738,74.0
1702.8547,91.0
1703.5359,85.0
1704.2173,89.0
1704.8989,86.0
1705.5809,117.0
1706.2632,82.0
1706.9457,78.0
1707.6284,100.0
1708.3115,66.0
1708.9949,73.0
1709.6785,109.0
1710.3623,95.0
1711.0465,78.0
1711.731,75.0
1712.4156,91.0
1713.1006,62.0
1713.7858,67.0
1714.4713,80.0
1715.1571,54.0
1715.8431,88.0
1716.5294,101.0
1717.2161,63.0
1717.903,85.0
1718.5901,82.0
1719.2775,70.0
1719.9652,68.0
1720.6532,87.0
1721.3414,67.0
1722.0299,89.0
1722.7188,108.0
1723.4078,88.0
1724.0972,66.0
1724.7869,94.0
1725.4768,91.0
1726.167,68.0
1726.8574,88.0
1727.5482,102.0
1728.2393,70.0
1728.9305,99.0
1729.6221,81.0
1730.314,96.0
1731.0061,73.0
1731.6985,87.0
1732.3911,71.0
1733.0841,58.0
1733.7773,83.0
1734.4708,92.0
1735.1647,70.0
1735.8588,71.0
1736.5531,102.0
1737.2477,69.0
1737.9426,85.0
1738.6378,96.0
1739.3333,81.0
1740.0289,89.0
1740.725,105.0
1741.4213,98.0
1742.1178,78.0
1742.8147,82.0
1743.5118,82.0
1744.2092,70.0
1744.9069,78.0
1745.6049,75.0
1746.3031,80.0
1747.0016,70.0
1747.7004,98.0
1748.3995,85.0
1749.0989,64.0
1749.7985,94.0
1750.4984,64.0
1751.1986,76.0
1751.899,78.0
1752.5999,75.0
1753.3009,73.0
1754.0022,56.0
1754.7039,95.0
1755.4058,99.0
1756.1079,78.0
1756.8103,77.0
1757.5131,95.0
1758.2161,68.0
1758.9193,101.0
1759.6229,93.0
1760.3268,71.0
1761.0309,64.0
1761.7354,80.0
1762.4401,81.0
1763.145,66.0
1763.8502,100.0
1764.5558,96.0
1765.2616,63.0
1765.9677,63.0
1766.6741,93.0
1767.3807,75.0
1768.0876,66.0
1768.7949,68.0
1769.5024,82.0
1770.2102,61.0
1770.9183,75.0
1771.6267,102.0
1772.3353,85.0
1773.0443,81.0
1773.7535,75.0
1774.463,81.0
1775.1729,67.0
1775.8829,71.0
1776.5933,81.0
1777.304,72.0
1778.0149,75.0
1778.7261,72.0
1779.4376,91.0
1780.1494,57.0
1780.8615,80.0
1781.5739,85.0
1782.2865,57.0
1782.9994,56.0
1783.7126,85.0
1784.4261,71.0
1785.1399,60.0
1785.854,107.0
1786.5684,94.0
1787.283,89.0
1787.9979,72.0
1788.7131,68.0
1789.4286,83.0
1790.1444,57.0
1790.8605,75.0
1791.5768,87.0
1792.2935,73.0
1793.0104,72.0
1793.7275,80.0
1794.4451,88.0
1795.1628,66.0
1795.8809,93.0
1796.5992,102.0
1797.3179,80.0
1798.0367,53.0
1798.756,69.0
1799.4755,88.0
1800.1953,60.0
1800.9154,79.0
1801.6357,97.0
1802.3564,73.0
1803.0774,68.0
1803.7986,94.0
1804.5201,76.0
1805.242,69.0
1805.964,96.0
1806.6864,103.0
1807.409,82.0
1808.1321,71.0
1808.8553,90.0
1809.5789,72.0
1810.3027,65.0
1811.0269,75.0
1811.7512,92.0
1812.476,100.0
1813.2009,62.0
1813.9261,78.0
1814.6517,94.0
1815.3776,73.0
1816.1038,72.0
1816.8302,87.0
1817.5569,76.0
1818.2839,66.0
1819.0112,65.0
1819.7389,77.0
1820.4668,78.0
1821.195,74.0
1821.9235,62.0
1822.6522,103.0
1823.3812,99.0
1824.1106,64.0
1824.8402,78.0
1825.5702,89.0
1826.3004,58.0
1827.0309,68.0
1827.7617,108.0
1828.4928,92.0
1829.2242,66.0
1829.9559,76.0
1830.6879,82.0
1831.4202,76.0
1832.1527,63.0
1832.8856,93.0
1833.6188,84.0
1834.3522,78.0
1835.0859,48.0
1835.82,66.0
1836.5543,84.0
1837.289,74.0
1838.0238,70.0
1838.759,106.0
1839.4945,106.0
1840.2303,66.0
1840.9664,89.0
1841.7028,87.0
1842.4395,81.0
1843.1764,77.0
1843.9137,76.0
1844.6512,91.0
1845.3892,65.0
1846.1273,78.0
1846.8657,74.0
1847.6045,77.0
1848.3435,53.0
1849.0829,59.0
1849.8225,68.0
1850.5624,81.0
1851.3026,59.0
1852.0431,90.0
1852.7839,98.0
1853.525,81.0
1854.2665,75.0
1855.0082,72.0
1855.7501,90.0
1856.4924,103.0
1857.235,86.0
1857.9779,98.0
1858.7211,104.0
1859.4646,88.0
1860.2084,64.0
1860.9525,72.0
1861.6969,77.0
1862.4415,83.0
1863.1865,54.0
1863.9318,73.0
1864.6774,90.0
1865.4232,77.0
1866.1694,66.0
1866.9159,76.0
1867.6627,84.0
1868.4098,111.0
1869.1571,70.0
1869.9048,76.0
1870.6527,88.0
1871.401,89.0
1872.1495,75.0
1872.8984,75.0
1873.6476,89.0
1874.3971,78.0
1875.1469,73.0
1875.8969,114.0
1876.6472,123.0
1877.3978,105.0
1878.1488,77.0
1878.9,72.0
1879.6516,93.0
1880.4034,72.0
1881.1556,71.0
1881.9081,57.0
1882.6609,80.0
1883.414,68.0
1884.1674,85.0
1884.921,170.0
1885.675,173.0
1886.4293,133.0
1887.1838,103.0
1887.9387,115.0
1888.6938,95.0
1889.4493,86.0
1890.2051,72.0
1890.9612,86.0
1891.7175,91.0
1892.4742,91.0
1893.2312,70.0
1893.9885,67.0
1894.7461,75.0
1895.504,76.0
1896.2622,78.0
1897.0208,120.0
1897.7795,101.0
1898.5387,86.0
1899.2981,72.0
1900.0579,86.0
1900.8179,98.0
1901.5782,73.0
1902.3389,86.0
1903.0999,68.0
1903.8611,85.0
1904.6227,94.0
1905.3845,89.0
1906.1467,69.0
1906.9092,77.0
1907.672,98.0
1908.435,90.0
1909.1985,79.0
1909.9622,75.0
1910.7262,84.0
1911.4905,108.0
1912.2551,93.0
1913.02,99.0
1913.7853,408.0
1914.5508,355.0
1915.3167,194.0
1916.0828,275.0
1916.8492,166.0
1917.616,117.0
1918.383,83.0
1919.1504,81.0
1919.9181,79.0
1920.686,84.0
1921.4543,75.0
1922.2229,64.0
1922.9918,78.0
1923.761,79.0
1924.5305,84.0
1925.3003,54.0
1926.0704,92.0
1926.8408,70.0
1927.6116,82.0
1928.3826,81.0
1929.1539,66.0
1929.9255,82.0
1930.6975,92.0
1931.4698,76.0
1932.2424,60.0
1933.0154,84.0
1933.7886,72.0
1934.5621,88.0
1935.3359,96.0
1936.1101,94.0
1936.8845,101.0
1937.6593,99.0
1938.4343,72.0
1939.2097,71.0
1939.9854,71.0
1940.7614,94.0
1941.5376,74.0
1942.3142,57.0
1943.0912,75.0
1943.8684,83.0
1944.646,91.0
1945.4238,62.0
1946.202,81.0
1946.9805,58.0
1947.7593,76.0
1948.5383,76.0
1949.3177,58.0
1950.0975,79.0
1950.8776,96.0
1951.658,84.0
1952.4386,93.0
1953.2196,86.0
1954.0009,81.0
1954.7825,87.0
1955.5643,72.0
1956.3466,77.0
1957.1292,63.0
1957.912,70.0
1958.6952,80.0
1959.4786,67.0
1960.2625,55.0
1961.0465,65.0
1961.8309,80.0
1962.6157,101.0
1963.4008,68.0
1964.1862,53.0
1964.9718,80.0
1965.7578,80.0
1966.5441,88.0
1967.3307,86.0
1968.1177,80.0
1968.9049,88.0
1969.6925,103.0
1970.4803,96.0
1971.2686,80.0
1972.057,83.0
1972.8458,73.0
1973.635,80.0
1974.4244,67.0
1975.2142,58.0
1976.0043,79.0
1976.7947,79.0
1977.5854,64.0
1978.3765,73.0
1979.1678,64.0
1979.9595,88.0
1980.7515,65.0
1981.5438,71.0
1982.3364,81.0
1983.1294,66.0
1983.9226,103.0
1984.7162,104.0
1985.5101,71.0
1986.3043,84.0
1987.0989,66.0
1987.8937,80.0
1988.6888,76.0
1989.4844,71.0
1990.2802,69.0
1991.0763,87.0
1991.8727,76.0
1992.6694,75.0
1993.4666,98.0
1994.2639,78.0
1995.0616,80.0
1995.8596,93.0
1996.658,80.0
1997.4567,85.0
1998.2556,67.0
1999.0549,82.0
1999.8546,90.0
2000.6545,78.0
2001.4548,68.0
2002.2554,75.0
2003.0563,65.0
2003.8575,75.0
2004.659,94.0
2005.4609,69.0
2006.2631,60.0
2007.0656,72.0
2007.8684,85.0
2008.6715,107.0
2009.475,112.0
2010.2788,108.0
2011.0829,77.0
2011.8873,149.0
2012.6921,147.0
2013.4972,96.0
2014.3026,79.0
2015.1083,81.0
2015.9143,88.0
2016.7207,95.0
2017.5273,76.0
2018.3344,77.0
2019.1417,79.0
2019.9493,84.0
2020.7573,77.0
2021.5657,71.0
2022.3743,68.0
2023.1832,76.0
2023.9926,70.0
2024.8021,70.0
2025.612,152.0
2026.4224,122.0
2027.2329,117.0
2028.0438,120.0
2028.855,109.0
2029.6665,120.0
2030.4784,111.0
2031.2905,71.0
2032.103,89.0
2032.9159,88.0
2033.729,90.0
2034.5425,100.0
2035.3563,74.0
2036.1704,97.0
2036.9849,69.0
2037.7997,94.0
2038.6147,89.0
2039.4302,78.0
2040.246,68.0
2041.062,79.0
2041.8784,72.0
2042.6952,97.0
2043.5123,91.0
2044.3297,75.0
2045.1475,61.0
2045.9656,73.0
2046.7839,76.0
2047.6027,75.0
2048.4216,80.0
2049.241,67.0
2050.0605,95.0
2050.8806,84.0
2051.701,87.0
2052.5217,102.0
2053.3428,88.0
2054.164,84.0
2054.9858,77.0
2055.8079,98.0
2056.6301,79.0
2057.453,76.0
2058.276,67.0
2059.099,74.0
2059.9229,78.0
2060.7468,75.0
2061.571,84.0
2062.3958,78.0
2063.2207,78.0
2064.046,76.0
2064.8716,93.0
2065.6975,96.0
2066.5237,94.0
2067.3503,84.0
2068.1772,75.0
2069.0046,81.0
2069.8323,75.0
2070.6602,82.0
2071.4885,68.0
2072.3171,61.0
2073.146,64.0
2073.9753,59.0
2074.805,77.0
2075.6348,89.0
2076.465,56.0
2077.2957,78.0
2078.1265,68.0
2078.9578,71.0
2079.7893,101.0
2080.6213,80.0
2081.4536,80.0
2082.2861,87.0
2083.1191,93.0
2083.9524,114.0
2084.786,122.0
2085.6199,109.0
2086.454,89.0
2087.2886,71.0
2088.1235,73.0
2088.9587,75.0
2089.7944,55.0
2090.6304,68.0
2091.4666,65.0
2092.3032,66.0
2093.1401,70.0
2093.9773,72.0
2094.815,76.0
2095.6528,86.0
2096.4912,76.0
2097.3298,74.0
2098.1687,73.0
2099.008,75.0
2099.8477,90.0
2100.6875,92.0
2101.5278,72.0
2102.3684,67.0
2103.2095,92.0
2104.0508,86.0
2104.8923,79.0
2105.7344,92.0
2106.5767,80.0
2107.4192,74.0
2108.2622,66.0
2109.1055,97.0
2109.9492,67.0
2110.7932,66.0
2111.6375,60.0
2112.4822,77.0
2113.3271,68.0
2114.1724,72.0
2115.018,67.0
2115.864,79.0
2116.7104,79.0
2117.5571,91.0
2118.404,60.0
2119.2515,63.0
2120.099,68.0
2120.9473,73.0
2121.7957,59.0
2122.6443,87.0
2123.4934,71.0
2124.3428,71.0
2125.1926,74.0
2126.0427,82.0
2126.893,90.0
2127.744,82.0
2128.595,83.0
2129.4463,76.0
2130.298,90.0
2131.1501,75.0
2132.0027,76.0
2132.8555,75.0
2133.7085,88.0
2134.562,65.0
2135.4158,62.0
2136.27,63.0
2137.1245,72.0
2137.9792,84.0
2138.8345,73.0
2139.69,80.0
2140.546,82.0
2141.402,109.0
2142.2585,131.0
2143.1155,156.0
2143.9727,104.0
2144.8303,98.0
2145.6882,84.0
2146.5464,67.0
2147.405,88.0
2148.264,63.0
2149.1233,56.0
2149.983,83.0
2150.843,83.0
2151.7034,86.0
2152.564,77.0
2153.425,73.0
2154.2864,65.0
2155.1482,77.0
2156.0103,74.0
2156.8726,81.0
2157.7354,76.0
2158.5984,97.0
2159.462,75.0
2160.3257,76.0
2161.1897,73.0
2162.0542,71.0
2162.919,83.0
2163.7842,75.0
2164.6497,85.0
2165.5156,84.0
2166.3818,81.0
2167.2483,74.0
2168.1152,109.0
2168.9824,107.0
2169.85,94.0
2170.718,86.0
2171.5864,78.0
2172.455,85.0
2173.324,62.0
2174.1934,57.0
2175.063,65.0
2175.933,72.0
2176.8035,82.0
2177.674,87.0
2178.5452,88.0
2179.4165,97.0
2180.2883,92.0
2181.1604,76.0
2182.033,76.0
2182.9058,80.0
2183.7788,78.0
2184.6523,75.0
2185.5261,67.0
2186.4004,77.0
2187.275,63.0
2188.15,91.0
2189.0251,65.0
2189.9006,82.0
2190.7766,72.0
2191.6528,85.0
2192.5295,65.0
2193.4065,63.0
2194.284,101.0
2195.1616,114.0
2196.0398,96.0
2196.9182,97.0
2197.7969,80.0
2198.676,119.0
2199.5554,94.0
2200.4353,92.0
2201.3154,79.0
2202.196,91.0
2203.077,84.0
2203.9583,63.0
2204.8398,70.0
2205.7217,99.0
2206.604,79.0
2207.4866,65.0
2208.3696,73.0
2209.253,76.0
2210.1367,62.0
2211.0208,63.0
2211.9053,81.0
2212.79,103.0
2213.675,71.0
2214.5605,86.0
2215.4463,79.0
2216.3325,73.0
2217.219,84.0
2218.106,83.0
2218.9932,77.0
2219.8809,81.0
2220.7688,88.0
2221.6572,65.0
2222.546,87.0
2223.4348,69.0
2224.3242,72.0
2225.2139,79.0
2226.104,77.0
2226.9944,75.0
2227.8853,73.0
2228.7764,66.0
2229.668,73.0
2230.5598,68.0
2231.4521,80.0
2232.3447,75.0
2233.2375,80.0
2234.1309,84.0
2235.0244,90.0
2235.9185,76.0
2236.8127,92.0
2237.7075,68.0
2238.6025,93.0
2239.498,77.0
2240.3938,81.0
2241.29,100.0
2242.1865,84.0
2243.0835,75.0
2243.9807,90.0
2244.8784,76.0
2245.7764,102.0
2246.6746,79.0
2247.5732,76.0
2248.4722,73.0
2249.3716,82.0
2250.2712,79.0
2251.1714,94.0
2252.0718,82.0
2252.9727,93.0
2253.8738,76.0
2254.7754,102.0
2255.6772,78.0
2256.5796,75.0
2257.4822,80.0
2258.3853,90.0
2259.2886,81.0
2260.1924,106.0
2261.0964,89.0
2262.001,87.0
2262.9058,78.0
2263.811,94.0
2264.7166,75.0
2265.6226,85.0
2266.5288,78.0
2267.4353,87.0
2268.3423,77.0
2269.2495,78.0
2270.1572,83.0
2271.0652,79.0
2271.9736,72.0
2272.8823,75.0
2273.7915,85.0
2274.701,94.0
2275.6108,93.0
2276.521,121.0
2277.4316,98.0
2278.3425,109.0
2279.254,81.0
2280.1655,82.0
2281.0776,65.0
2281.99,75.0
2282.9028,81.0
2283.816,86.0
2284.7295,91.0
2285.6433,78.0
2286.5576,82.0
2287.4722,72.0
2288.3872,69.0
2289.3025,68.0
2290.2183,80.0
2291.1343,75.0
2292.0508,82.0
2292.9675,82.0
2293.8848,88.0
2294.8022,89.0
2295.7202,85.0
2296.6384,91.0
2297.5571,99.0
2298.476,97.0
2299.3955,70.0
2300.3152,94.0
2301.2354,71.0
2302.1558,92.0
2303.0767,107.0
2303.9978,78.0
2304.9194,90.0
2305.8413,80.0
2306.7637,77.0
2307.6863,63.0
2308.6094,77.0
2309.5327,81.0
2310.4565,77.0
2311.3806,94.0
2312.3052,104.0
2313.23,98.0
2314.1553,85.0
2315.081,90.0
2316.007,85.0
2316.9336,85.0
2317.8604,78.0
2318.7876,86.0
2319.715,100.0
2320.643,86.0
2321.5713,109.0
2322.5,100.0
2323.429,86.0
2324.3584,94.0
2325.288,61.0
2326.2183,93.0
2327.1487,97.0
2328.0796,112.0
2329.0107,98.0
2329.9424,92.0
2330.8743,98.0
2331.8066,77.0
2332.7393,97.0
2333.6724,80.0
2334.6057,80.0
2335.5396,73.0
2336.4739,67.0
2337.4084,69.0
2338.3435,100.0
2339.2788,67.0
2340.2146,88.0
2341.1506,93.0
2342.0872,76.0
2343.024,91.0
2343.9612,96.0
2344.8987,92.0
2345.8367,107.0
2346.775,99.0
2347.7136,112.0
2348.6526,101.0
2349.592,95.0
2350.532,100.0
2351.4722,78.0
2352.4128,86.0
2353.3538,87.0
2354.2952,81.0
2355.2368,80.0
2356.179,83.0
2357.1213,65.0
2358.0642,81.0
2359.0073,91.0
2359.951,93.0
2360.895,87.0
2361.8394,93.0
2362.7842,89.0
2363.7292,74.0
2364.6748,88.0
2365.6206,84.0
2366.567,79.0
2367.5134,94.0
2368.4604,82.0
2369.4077,99.0
2370.3555,81.0
2371.3037,94.0
2372.2522,100.0
2373.2012,88.0
2374.1504,61.0
2375.1,86.0
2376.05,78.0
2377.0005,80.0
2377.9512,86.0
2378.9023,85.0
2379.854,85.0
2380.806,99.0
2381.7583,85.0
2382.711,99.0
2383.664,75.0
2384.6174,85.0
2385.5713,77.0
2386.5256,81.0
2387.4802,112.0
2388.4353,127.0
2389.3906,116.0
2390.3464,125.0
2391.3025,98.0
2392.259,102.0
2393.2158,86.0
2394.173,75.0
2395.1309,71.0
2396.0889,89.0
2397.0474,104.0
2398.006,104.0
2398.9653,67.0
2399.9248,75.0
2400.8848,95.0
2401.8452,71.0
2402.806,84.0
2403.767,91.0
2404.7285,90.0
2405.6904,85.0
2406.6526,85.0
2407.6152,85.0
2408.5784,82.0
2409.5417,67.0
2410.5056,76.0
2411.4697,97.0
2412.4343,95.0
2413.3994,78.0
2414.3647,88.0
2415.3306,81.0
2416.2966,95.0
2417.2632,85.0
2418.23,74.0
2419.1973,81.0
2420.165,70.0
2421.133,80.0
2422.1016,90.0
2423.0703,85.0
2424.0396,93.0
2425.0093,83.0
2425.9792,80.0
2426.9497,83.0
2427.9204,84.0
2428.8916,94.0
2429.863,85.0
2430.835,88.0
2431.8074,88.0
2432.78,90.0
2433.7532,88.0
2434.7266,70.0
2435.7004,101.0
2436.6748,86.0
2437.6494,86.0
2438.6245,83.0
2439.5999,83.0
2440.5757,82.0
2441.552,74.0
2442.5286,69.0
2443.5056,67.0
2444.483,89.0
2445.4607,82.0
2446.439,77.0
2447.4175,91.0
2448.3965,69.0
2449.3757,103.0
2450.3555,94.0
2451.3357,85.0
2452.3162,108.0
2453.297,73.0
2454.2783,80.0
2455.26,85.0
2456.2422,71.0
2457.2246,76.0
2458.2075,84.0
2459.191,91.0
2460.1746,85.0
2461.1587,70.0
2462.143,87.0
2463.128,85.0
2464.1133,86.0
2465.0989,92.0
2466.085,85.0
2467.0713,81.0
2468.058,82.0
2469.0454,70.0
2470.033,77.0
2471.021,77.0
2472.0095,89.0
2472.9983,90.0
2473.9875,81.0
2474.977,73.0
2475.967,93.0
2476.9575,86.0
2477.9482,98.0
2478.9395,79.0
2479.931,88.0
2480.9229,85.0
2481.9153,106.0
2482.908,86.0
2483.9011,77.0
2484.8948,68.0
2485.8887,83.0
2486.883,99.0
2487.878,87.0
2488.873,86.0
2489.8687,73.0
2490.8645,77.0
2491.8608,86.0
2492.8577,95.0
2493.8547,93.0
2494.8523,72.0
2495.8503,83.0
2496.8486,107.0
2497.8474,83.0
2498.8464,82.0
2499.846,74.0
2500.846,84.0
2501.8462,73.0
2502.847,75.0
2503.8481,97.0
2504.8496,79.0
2505.8516,68.0
2506.854,87.0
2507.8567,80.0
2508.8599,85.0
2509.8635,90.0
2510.8674,108.0
2511.8718,86.0
2512.8765,87.0
2513.8816,82.0
2514.8872,90.0
2515.893,91.0
2516.8994,77.0
2517.9062,81.0
2518.9133,66.0
2519.921,89.0
2520.929,107.0
2521.9373,100.0
2522.946,84.0
2523.9553,87.0
2524.9648,74.0
2525.9749,74.0
2526.9854,81.0
2527.996,76.0
2529.0073,96.0
2530.019,77.0
2531.031,73.0
2532.0435,72.0
2533.0562,88.0
2534.0693,80.0
2535.083,76.0
2536.097,81.0
2537.1113,73.0
2538.1262,68.0
2539.1414,76.0
2540.157,92.0
2541.173,76.0
2542.1895,76.0
2543.2063,77.0
2544.2236,88.0
2545.2412,84.0
2546.2593,83.0
2547.2778,88.0
2548.2966,96.0
2549.316,103.0
2550.3357,71.0
2551.3557,76.0
2552.3762,99.0
2553.3972,90.0
2554.4185,87.0
2555.4402,83.0
2556.4624,86.0
2557.485,89.0
2558.508,82.0
2559.5315,92.0
2560.5554,69.0
2561.5796,80.0
2562.6042,82.0
2563.6294,91.0
2564.6548,85.0
2565.6807,105.0
2566.707,121.0
2567.7336,79.0
2568.7607,95.0
2569.7883,82.0
2570.8162,103.0
2571.8445,66.0
2572.8733,70.0
2573.9023,93.0
2574.932,88.0
2575.962,87.0
2576.9922,70.0
2578.023,89.0
2579.0542,88.0
2580.086,100.0
2581.118,89.0
2582.1504,86.0
2583.1833,91.0
2584.2166,83.0
2585.2502,88.0
2586.2844,74.0
2587.3188,78.0
2588.3538,88.0
2589.3892,81.0
2590.4248,86.0
2591.461,91.0
2592.4976,95.0
2593.5347,96.0
2594.572,83.0
2595.6099,99.0
2596.6482,102.0
2597.6868,84.0
2598.7258,73.0
2599.7654,78.0
2600.8052,77.0
2601.8455,84.0
2602.8862,69.0
2603.9275,82.0
2604.969,85.0
2606.011,90.0
2607.0535,99.0
2608.0962,97.0
2609.1394,84.0
2610.183,97.0
2611.2273,95.0
2612.2717,76.0
2613.3167,93.0
2614.362,76.0
2615.4077,86.0
2616.4539,76.0
2617.5005,101.0
2618.5476,86.0
2619.595,84.0
2620.6428,94.0
2621.6912,96.0
2622.7397,94.0
2623.7888,83.0
2624.8384,95.0
2625.8884,75.0
2626.9387,93.0
2627.9895,81.0
2629.0408,75.0
2630.0923,86.0
2631.1443,92.0
2632.1968,94.0
2633.2498,98.0
2634.303,94.0
2635.3567,88.0
2636.411,71.0
2637.4653,84.0
2638.5203,69.0
2639.5757,88.0
2640.6316,81.0
2641.6877,104.0
2642.7444,83.0
2643.8015,95.0
2644.8591,92.0
2645.917,76.0
2646.9753,83.0
2648.0342,96.0
2649.0935,98.0
2650.153,94.0
2651.2131,84.0
2652.2737,86.0
2653.3345,93.0
2654.3958,106.0
2655.4575,79.0
2656.5198,86.0
2657.5823,91.0
2658.6453,85.0
2659.7087,74.0
2660.7727,98.0
2661.837,95.0
2662.9016,81.0
2663.9668,119.0
2665.0325,122.0
2666.0984,108.0
2667.1648,105.0
2668.2317,93.0
2669.299,101.0
2670.3667,93.0
2671.4348,71.0
2672.5034,73.0
2673.5725,69.0
2674.6418,102.0
2675.7117,91.0
2676.782,84.0
2677.8528,73.0
2678.9238,90.0
2679.9954,89.0
2681.0674,92.0
2682.14,100.0
2683.2126,116.0
2684.286,76.0
2685.3596,103.0
2686.4338,87.0
2687.5083,83.0
2688.5833,85.0
2689.6587,87.0
2690.7346,105.0
2691.8108,72.0
2692.8875,78.0
2693.9646,84.0
2695.0422,101.0
2696.1204,99.0
2697.1987,95.0
2698.2776,95.0
2699.357,125.0
2700.4368,105.0
2701.5168,115.0
2702.5974,96.0
2703.6785,93.0
2704.76,81.0
2705.8418,95.0
2706.924,86.0
2708.0068,97.0
2709.09,96.0
2710.1738,85.0
2711.2578,107.0
2712.3423,110.0
2713.4272,91.0
2714.5127,101.0
2715.5984,102.0
2716.6846,77.0
2717.7712,95.0
2718.8584,93.0
2719.946,100.0
2721.034,84.0
2722.1223,111.0
2723.2112,120.0
2724.3005,99.0
2725.3901,114.0
2726.4802,106.0
2727.5708,106.0
2728.6619,105.0
2729.7534,111.0
2730.8452,101.0
2731.9375,102.0
2733.0303,94.0
2734.1235,94.0
2735.2173,170.0
2736.3113,204.0
2737.4058,142.0
2738.5007,119.0
2739.5962,88.0
2740.6921,90.0
2741.7883,87.0
2742.885,79.0
2743.9822,101.0
2745.0798,99.0
2746.178,95.0
2747.2764,86.0
2748.3752,91.0
2749.4746,82.0
2750.5745,90.0
2751.6748,110.0
2752.7754,78.0
2753.8765,103.0
2754.978,71.0
2756.08,79.0
2757.1826,82.0
2758.2854,75.0
2759.3887,92.0
2760.4924,88.0
2761.5967,110.0
2762.7014,113.0
2763.8064,103.0
2764.9119,92.0
2766.0178,87.0
2767.1243,96.0
2768.2312,84.0
2769.3384,98.0
2770.446,89.0
2771.5542,97.0
2772.6628,75.0
2773.772,92.0
2774.8816,75.0
2775.9915,110.0
2777.1018,100.0
2778.2126,84.0
2779.324,93.0
2780.4358,102.0
2781.5479,92.0
2782.6604,106.0
2783.7734,79.0
2784.887,87.0
2786.001,76.0
2787.1155,103.0
2788.2302,93.0
2789.3455,94.0
2790.4612,85.0
2791.5774,97.0
2792.694,119.0
2793.8113,147.0
2794.9287,186.0
2796.0466,169.0
2797.165,166.0
2798.284,165.0
2799.4033,130.0
2800.5232,136.0
2801.6433,117.0
2802.764,114.0
2803.885,128.0
2805.0066,119.0
2806.1287,122.0
2807.2512,138.0
2808.374,144.0
2809.4973,130.0
2810.621,119.0
2811.7454,136.0
2812.87,145.0
2813.9954,143.0
2815.1208,120.0
2816.2468,147.0
2817.3733,143.0
2818.5002,125.0
2819.6277,133.0
2820.7556,136.0
2821.884,137.0
2823.0127,139.0
2824.1418,129.0
2825.2715,115.0
2826.4016,121.0
2827.5322,131.0
2828.6633,116.0
2829.7947,144.0
2830.9265,133.0
2832.0588,132.0
2833.1917,138.0
2834.325,145.0
2835.4587,123.0
2836.593,129.0
2837.7275,152.0
2838.8625,139.0
2839.998,129.0
2841.134,133.0
2842.2705,117.0
2843.4075,111.0
2844.545,131.0
2845.6829,146.0
2846.821,166.0
2847.9597,128.0
2849.0989,146.0
2850.2385,147.0
2851.3787,148.0
2852.5193,170.0
2853.6604,155.0
2854.8018,127.0
2855.9436,141.0
2857.086,169.0
2858.2288,177.0
2859.372,150.0
2860.5159,142.0
2861.6602,154.0
2862.805,151.0
2863.95,175.0
2865.0955,179.0
2866.2415,158.0
2867.388,185.0
2868.535,140.0
2869.6824,132.0
2870.8303,124.0
2871.9788,123.0
2873.1274,136.0
2874.2766,147.0
2875.4263,122.0
2876.5764,143.0
2877.727,153.0
2878.8782,130.0
2880.0298,149.0
2881.182,175.0
2882.3345,141.0
2883.4873,132.0
2884.6406,135.0
2885.7944,119.0
2886.9487,130.0
2888.1035,152.0
2889.2588,171.0
2890.4146,164.0
2891.5708,166.0
2892.7275,155.0
2893.8845,131.0
2895.042,119.0
2896.2,120.0
2897.3584,127.0
2898.5173,143.0
2899.6768,132.0
2900.8367,110.0
2901.997,118.0
2903.158,135.0
2904.3193,162.0
2905.481,233.0
2906.643,201.0
2907.8057,252.0
2908.9688,195.0
2910.1323,200.0
2911.2964,185.0
2912.461,156.0
2913.626,131.0
2914.7915,133.0
2915.9575,133.0
2917.124,121.0
2918.2908,125.0
2919.458,132.0
2920.6257,116.0
2921.794,263.0
2922.9626,371.0
2924.1318,364.0
2925.3015,272.0
2926.4717,202.0
2927.6423,188.0
2928.8135,142.0
2929.985,162.0
2931.157,148.0
2932.3293,152.0
2933.5022,147.0
2934.6755,128.0
2935.8494,115.0
2937.0237,102.0
2938.1985,174.0
2939.3738,165.0
2940.5496,176.0
2941.7258,153.0
2942.9026,127.0
2944.0798,158.0
2945.2576,165.0
2946.4358,166.0
2947.6143,154.0
2948.7932,177.0
2949.9727,163.0
2951.1526,151.0
2952.333,148.0
2953.514,153.0
2954.6953,129.0
2955.8772,146.0
2957.0596,144.0
2958.2424,113.0
2959.4258,156.0
2960.6096,124.0
2961.794,155.0
2962.9788,130.0
2964.164,111.0
2965.3496,122.0
2966.5356,123.0
2967.7222,127.0
2968.9092,120.0
2970.0967,124.0
2971.2847,161.0
2972.4731,126.0
2973.662,128.0
2974.8516,139.0
2976.0415,109.0
2977.232,108.0
2978.4229,132.0
2979.6143,131.0
2980.8062,125.0
2981.9985,109.0
2983.1914,119.0
2984.3848,121.0
2985.5786,134.0
2986.773,125.0
2987.9678,148.0
2989.1628,124.0
2990.3584,125.0
2991.5544,127.0
2992.751,132.0
2993.948,123.0
2995.1455,158.0
2996.3435,129.0
2997.542,130.0
2998.741,125.0
2999.9404,117.0
3001.1404,113.0
3002.3408,131.0
3003.5417,127.0
3004.7432,133.0
3005.945,119.0
3007.1475,134.0
3008.3503,138.0
3009.5537,138.0
3010.7576,128.0
3011.962,147.0
3013.1667,122.0
3014.372,129.0
3015.578,122.0
3016.7842,111.0
3017.991,122.0
3019.1982,129.0
3020.406,162.0
3021.6143,178.0
3022.823,169.0
3024.0322,126.0
3025.242,146.0
3026.4521,152.0
3027.6628,164.0
3028.874,126.0
3030.0857,120.0
3031.2976,118.0
3032.51,127.0
3033.723,133.0
3034.9363,141.0
3036.1501,134.0
3037.3645,114.0
3038.5793,159.0
3039.7947,122.0
3041.0105,143.0
3042.2268,130.0
3043.4436,130.0
3044.661,140.0
3045.8787,121.0
3047.097,123.0
3048.3157,137.0
3049.535,119.0
3050.7546,120.0
3051.9749,128.0
3053.1956,154.0
3054.4167,158.0
3055.6384,167.0
3056.8606,170.0
3058.0833,126.0
3059.3064,135.0
3060.53,130.0
3061.7542,138.0
3062.9788,129.0
3064.2039,127.0
3065.4294,137.0
3066.6555,137.0
3067.882,123.0
3069.1091,162.0
3070.3367,128.0
3071.5647,127.0
3072.7932,143.0
3074.0222,130.0
3075.2517,133.0
3076.4817,174.0
3077.7124,171.0
3078.9436,141.0
3080.1753,147.0
3081.4075,145.0
3082.6401,137.0
3083.8733,139.0
3085.107,151.0
3086.341,128.0
3087.5757,139.0
3088.8108,158.0
3090.0464,147.0
3091.2825,148.0
3092.519,137.0
3093.756,130.0
3094.9937,134.0
3096.2317,131.0
3097.4702,135.0
3098.7092,137.0
3099.9487,114.0
3101.1887,142.0
3102.4292,130.0
3103.6702,135.0
3104.9116,118.0
3106.1536,127.0
3107.396,157.0
3108.639,127.0
3109.8823,139.0
3111.1262,138.0
3112.3706,145.0
3113.6155,135.0
3114.8608,133.0
3116.1067,132.0
3117.353,133.0
3118.5999,146.0
3119.8474,119.0
3121.0955,138.0
3122.344,136.0
3123.593,134.0
3124.8425,140.0
3126.0925,119.0
3127.343,138.0
3128.594,114.0
3129.8455,128.0
3131.0974,133.0
3132.3499,161.0
3133.6028,147.0
3134.8562,133.0
3136.11,145.0
3137.3645,146.0
3138.6194,149.0
3139.8748,138.0
3141.1306,131.0
3142.387,138.0
3143.6438,149.0
3144.9014,145.0
3146.1594,170.0
3147.418,162.0
3148.677,151.0
3149.9365,142.0
3151.1965,153.0
3152.457,122.0
3153.718,129.0
3154.9795,135.0
3156.2415,164.0
3157.504,148.0
3158.7668,141.0
3160.0303,113.0
3161.2942,159.0
3162.5586,133.0
3163.8237,107.0
3165.0894,125.0
3166.3555,139.0
3167.622,142.0
3168.8892,138.0
3170.1567,147.0
3171.4248,164.0
3172.6934,133.0
3173.9624,148.0
3175.232,134.0
3176.502,126.0
3177.7725,139.0
3179.0435,130.0
3180.3152,121.0
3181.5874,134.0
3182.86,133.0
3184.1333,122.0
3185.407,145.0
3186.6812,154.0
3187.9558,165.0
3189.231,176.0
3190.5066,186.0
3191.7827,162.0
3193.0593,161.0
3194.3367,160.0
3195.6145,159.0
3196.8928,159.0
3198.1716,126.0
3199.451,143.0
3200.7307,141.0
3202.011,139.0
3203.2917,143.0
3204.573,150.0
3205.8547,145.0
3207.137,123.0
3208.42,128.0
3209.7034,149.0
3210.9873,141.0
3212.2717,163.0
3213.5566,154.0
3214.842,143.0
3216.128,158.0
3217.4143,144.0
3218.7012,161.0
3219.9888,126.0
3221.2769,135.0
3222.5654,145.0
3223.8545,149.0
3225.144,190.0
3226.434,167.0
3227.7246,165.0
3229.0156,155.0
3230.3071,163.0
3231.5994,140.0
3232.892,127.0
3234.1853,122.0
3235.479,151.0
3236.7732,177.0
3238.0679,131.0
3239.363,153.0
3240.6587,116.0
3241.9548,135.0
3243.2517,132.0
3244.549,147.0
3245.847,144.0
3247.1453,128.0
3248.444,134.0
3249.7434,125.0
3251.0432,143.0
3252.3438,157.0
3253.6448,159.0
3254.9463,171.0
3256.2483,135.0
3257.5508,139.0
3258.8538,154.0
3260.1572,128.0
3261.4612,145.0
3262.7659,143.0
3264.071,142.0
3265.3767,156.0
3266.6829,145.0
3267.9895,133.0
3269.2966,181.0
3270.6042,206.0
3271.9126,180.0
3273.2214,156.0
3274.5308,149.0
3275.8406,164.0
3277.151,142.0
3278.4617,147.0
3279.773,158.0
3281.085,178.0
3282.3975,159.0
3283.7104,134.0
3285.024,139.0
3286.338,155.0
3287.6523,143.0
3288.9673,165.0
3290.283,128.0
3291.599,148.0
3292.9158,152.0
3294.233,130.0
3295.5505,163.0
3296.8687,144.0
3298.1875,155.0
3299.5068,141.0
3300.8267,160.0
3302.147,147.0
3303.4678,145.0
3304.789,136.0
3306.111,162.0
3307.4336,143.0
3308.7566,150.0
3310.08,154.0
3311.404,160.0
3312.7285,144.0
3314.0537,127.0
3315.3794,132.0
3316.7056,142.0
3318.0322,124.0
3319.3594,141.0
3320.687,172.0
3322.0154,154.0
3323.3442,170.0
3324.6736,152.0
3326.0034,173.0
3327.3337,133.0
3328.6648,156.0
3329.9963,128.0
3331.3284,154.0
3332.661,122.0
3333.994,171.0
3335.3274,133.0
3336.6616,131.0
3337.9963,153.0
3339.3315,139.0
3340.6672,157.0
3342.0034,140.0
3343.3403,143.0
3344.6777,154.0
3346.0156,158.0
3347.354,140.0
3348.6929,157.0
3350.0322,146.0
3351.3723,148.0
3352.713,162.0
3354.054,155.0
3355.3955,166.0
3356.7375,141.0
3358.0803,147.0
3359.4236,121.0
3360.7673,146.0
3362.1116,149.0
3363.4563,142.0
3364.8018,141.0
3366.1477,147.0
3367.4941,163.0
3368.841,170.0
3370.1887,163.0
3371.5369,170.0
3372.8855,148.0
3374.2346,155.0
3375.5842,148.0
3376.9346,152.0
3378.2854,134.0
3379.6367,154.0
3380.9885,155.0
3382.3408,159.0
3383.6938,160.0
3385.0474,174.0
3386.4014,168.0
3387.7559,169.0
3389.1108,149.0
3390.4666,154.0
3391.8228,145.0
3393.1794,163.0
3394.5366,164.0
3395.8945,156.0
3397.253,146.0
3398.6118,159.0
3399.9712,160.0
3401.3313,138.0
3402.692,157.0
3404.053,180.0
3405.4146,173.0
3406.7766,174.0
3408.1394,158.0
3409.5027,142.0
3410.8665,137.0
3412.2307,174.0
3413.5957,219.0
3414.9612,189.0
3416.3271,170.0
3417.6936,158.0
3419.0608,179.0
3420.4285,160.0
3421.7966,184.0
3423.1653,166.0
3424.5347,156.0
3425.9045,145.0
3427.275,162.0
3428.6458,194.0
3430.017,153.0
3431.3892,155.0
3432.7617,161.0
3434.1348,158.0
3435.5083,150.0
3436.8826,181.0
3438.2573,151.0
3439.6326,145.0
3441.0083,150.0
3442.3848,139.0
3443.7617,145.0
3445.1392,138.0
3446.5173,142.0
3447.896,133.0
3449.2751,131.0
3450.6548,165.0
3452.0352,152.0
3453.416,141.0
3454.7974,144.0
3456.1792,184.0
3457.5618,151.0
3458.9448,150.0
3460.3284,159.0
3461.7124,153.0
3463.0972,148.0
3464.4824,168.0
3465.8682,165.0
3467.2544,169.0
3468.6414,169.0
3470.0288,143.0
3471.4167,161.0
3472.8054,184.0
3474.1946,179.0
3475.5842,212.0
3476.9744,166.0
3478.3652,178.0
3479.7566,145.0
3481.1484,139.0
3482.541,139.0
3483.934,143.0
3485.3276,166.0
3486.7217,147.0
3488.1165,175.0
3489.5117,185.0
3490.9075,182.0
3492.304,154.0
3493.701,176.0
3495.0984,147.0
3496.4963,204.0
3497.895,158.0
3499.2942,179.0
3500.6938,173.0
3502.0942,153.0
3503.495,168.0
3504.8965,150.0
3506.2983,175.0
3507.701,145.0
3509.104,184.0
3510.5076,196.0
3511.9119,165.0
3513.3167,184.0
3514.722,191.0
3516.128,145.0
3517.5344,167.0
3518.9414,154.0
3520.3489,159.0
3521.757,233.0
3523.1658,213.0
3524.575,202.0
3525.9849,171.0
3527.3953,191.0
3528.8062,204.0
3530.2178,277.0
3531.63,274.0
3533.0425,206.0
3534.4558,177.0
3535.8696,168.0
3537.284,147.0
3538.6987,161.0
3540.1143,164.0
3541.5303,158.0
3542.9468,181.0
3544.364,142.0
3545.7817,171.0
3547.2,154.0
3548.619,171.0
3550.0383,171.0
3551.4583,163.0
3552.879,163.0
3554.3,185.0
3555.7217,189.0
3557.144,187.0
3558.567,176.0
3559.9902,185.0
3561.4143,175.0
3562.8389,179.0
3564.264,202.0
3565.6897,198.0
3567.116,190.0
3568.5427,173.0
3569.9702,161.0
3571.3982,189.0
3572.8267,184.0
3574.2559,199.0
3575.6855,184.0
3577.1157,211.0
3578.5466,211.0
3579.978,204.0
3581.41,193.0
3582.8425,199.0
3584.2756,219.0
3585.7092,211.0
3587.1436,229.0
3588.5784,211.0
3590.014,201.0
3591.45,196.0
3592.8865,216.0
3594.3237,224.0
3595.7615,252.0
3597.1997,204.0
3598.6387,226.0
3600.0781,242.0
3601.518,219.0
3602.9587,209.0
3604.4,189.0
3605.8416,195.0
3607.284,283.0
3608.7268,318.0
3610.1704,268.0
3611.6145,228.0
3613.059,186.0
3614.5044,220.0
3615.9502,356.0
3617.3965,451.0
3618.8435,285.0
3620.291,228.0
3621.739,182.0
3623.1877,173.0
3624.637,188.0
3626.087,194.0
3627.5374,223.0
3628.9883,211.0
3630.44,196.0
3631.892,211.0
3633.3447,191.0
3634.798,203.0
3636.252,215.0
3637.7065,193.0
3639.1616,191.0
3640.6172,177.0
3642.0735,175.0
3643.5303,245.0
3644.9878,244.0
3646.4458,212.0
3647.9043,236.0
3649.3635,185.0
3650.8232,217.0
3652.2837,198.0
3653.7446,184.0
3655.206,185.0
3656.6682,211.0
3658.1309,205.0
3659.594,238.0
3661.0579,222.0
3662.5222,230.0
3663.9873,236.0
3665.453,260.0
3666.919,240.0
3668.3857,228.0
3669.853,167.0
3671.321,173.0
3672.7896,213.0
3674.2585,209.0
3675.7283,217.0
3677.1985,264.0
3678.6694,288.0
3680.1409,228.0
3681.613,205.0
3683.0857,167.0
3684.5588,217.0
3686.0327,166.0
3687.507,181.0
3688.9822,190.0
3690.4578,225.0
3691.9338,203.0
3693.4106,221.0
3694.888,198.0
3696.366,196.0
3697.8445,209.0
3699.3237,181.0
3700.8035,214.0
3702.2837,201.0
3703.7646,194.0
3705.246,201.0
3706.7283,200.0
3708.211,252.0
3709.6943,322.0
3711.1782,281.0
3712.6626,239.0
3714.1477,229.0
3715.6333,212.0
3717.1196,228.0
3718.6064,228.0
3720.094,190.0
3721.582,218.0
3723.0706,216.0
3724.5598,205.0
3726.0496,196.0
3727.54,251.0
3729.031,225.0
3730.5227,174.0
3732.015,218.0
3733.5078,289.0
3735.0012,335.0
3736.495,309.0
3737.9897,249.0
3739.4849,214.0
3740.9807,205.0
3742.477,221.0
3743.974,288.0
3745.4717,253.0
3746.97,245.0
3748.4688,225.0
3749.968,431.0
3751.468,823.0
3752.9685,873.0
3754.4697,570.0
3755.9714,444.0
3757.4739,300.0
3758.9768,283.0
3760.4805,231.0
3761.9846,215.0
3763.4895,235.0
3764.9949,246.0
3766.501,295.0
3768.0076,301.0
3769.515,264.0
3771.0227,242.0
3772.531,275.0
3774.04,292.0
3775.5496,291.0
3777.0598,291.0
3778.5706,247.0
3780.082,217.0
3781.594,274.0
3783.1067,313.0
3784.6199,355.0
3786.1338,271.0
3787.6482,260.0
3789.1633,241.0
3790.679,247.0
3792.1953,206.0
3793.7122,224.0
3795.2297,201.0
3796.7478,251.0
3798.2666,261.0
3799.786,264.0
3801.306,217.0
3802.8264,225.0
3804.3477,224.0
3805.8694,264.0
3807.3918,219.0
3808.9148,239.0
3810.4385,241.0
3811.9626,255.0
3813.4875,279.0
3815.013,368.0
3816.539,278.0
3818.0657,291.0
3819.593,226.0
3821.1208,205.0
3822.6494,232.0
3824.1785,227.0
3825.7083,261.0
3827.2385,211.0
3828.7695,249.0
3830.301,277.0
3831.8333,301.0
3833.366,279.0
3834.8994,201.0
3836.4333,243.0
3837.968,240.0
3839.5032,251.0
3841.039,266.0
3842.5754,251.0
3844.1125,217.0
3845.6501,241.0
3847.1885,313.0
3848.7273,378.0
3850.2668,371.0
3851.807,320.0
3853.3477,260.0
3854.889,276.0
3856.431,220.0
3857.9734,268.0
3859.5166,262.0
3861.0603,241.0
3862.6047,251.0
3864.1497,249.0
3865.6953,284.0
3867.2417,288.0
3868.7886,283.0
3870.3362,232.0
3871.8843,274.0
3873.433,275.0
3874.9824,270.0
3876.5325,272.0
3878.083,290.0
3879.6343,263.0
3881.186,283.0
3882.7385,316.0
3884.2915,298.0
3885.8452,289.0
3887.3997,274.0
3888.9546,241.0
3890.5103,253.0
3892.0664,241.0
3893.6233,265.0
3895.1807,251.0
3896.7388,294.0
3898.2974,279.0
3899.8567,329.0
3901.4167,315.0
3902.9773,346.0
3904.5386,279.0
3906.1003,264.0
3907.6628,280.0
3909.2258,246.0
3910.7896,226.0
3912.3538,231.0
3913.9187,254.0
3915.4844,262.0
3917.0505,271.0
3918.6174,242.0
3920.1848,245.0
3921.753,251.0
3923.3215,259.0
3924.8909,250.0
3926.461,229.0
3928.0315,197.0
3929.6028,221.0
3931.1746,249.0
3932.747,242.0
3934.32,243.0
3935.8938,212.0
3937.4683,216.0
3939.0432,218.0
3940.619,234.0
3942.195,244.0
3943.772,213.0
3945.3494,240.0
3946.9275,227.0
3948.5063,213.0
3950.0857,297.0
3951.6658,253.0
3953.2463,234.0
3954.8276,231.0
3956.4097,228.0
3957.9922,213.0
3959.5754,258.0
3961.1592,233.0
3962.7437,211.0
3964.3289,208.0
3965.9146,219.0
3967.501,198.0
3969.088,208.0
3970.6755,236.0
3972.264,184.0
3973.8528,208.0
3975.4424,243.0
3977.0325,198.0
3978.6233,268.0
3980.2148,219.0
3981.807,243.0
3983.3997,216.0
3984.993,217.0
3986.587,203.0
3988.1816,208.0
3989.7769,229.0
3991.3728,212.0
3992.9692,236.0
3994.5664,241.0
3996.1643,252.0
3997.7627,222.0
3999.3618,225.0
4000.9617,231.0
4002.562,288.0
4004.163,253.0
4005.7646,263.0
4007.367,265.0
4008.97,244.0
4010.5735,245.0
4012.1777,259.0
4013.7827,262.0
4015.3882,244.0
4016.9944,232.0
4018.601,274.0
4020.2085,282.0
4021.8167,310.0
4023.4253,275.0
4025.0347,242.0
4026.6448,276.0
4028.2554,277.0
4029.8667,326.0
4031.4788,292.0
4033.0913,277.0
4034.7046,319.0
4036.3184,292.0
4037.9329,348.0
4039.548,328.0
4041.1638,327.0
4042.7803,372.0
4044.3975,356.0
4046.0151,362.0
4047.6335,328.0
4049.2527,369.0
4050.8723,502.0
4052.4927,484.0
4054.1138,479.0
4055.7354,385.0
4057.3577,385.0
4058.9807,518.0
4060.6042,615.0
4062.2285,500.0
4063.8535,461.0
4065.479,438.0
4067.1052,425.0
4068.7322,484.0
4070.3596,547.0
4071.9878,784.0
4073.6167,725.0
4075.246,520.0
4076.8762,541.0
4078.507,534.0
4080.1384,703.0
4081.7705,809.0
4083.4033,765.0
4085.0366,917.0
4086.6707,1069.0
4088.3054,897.0
4089.9407,596.0
4091.5767,565.0
4093.2134,1534.0
4094.8506,2352.0
4096.489,1186.0
4098.1274,638.0
4099.7666,488.0
4101.4067,1482.0
4103.0474,4342.0
4104.6885,3306.0
4106.3306,1314.0
4107.973,598.0
4109.616,538.0
4111.2603,457.0
4112.905,532.0
4114.55,718.0
4116.196,532.0
4117.8423,374.0
4119.4893,307.0
4121.137,349.0
4122.7856,323.0
4124.4346,361.0
4126.0845,291.0
4127.735,297.0
4129.3857,275.0
4131.0376,278.0
4132.69,293.0
4134.343,294.0
4135.9966,269.0
4137.651,266.0
4139.306,229.0
4140.962,238.0
4142.618,250.0
4144.2754,251.0
4145.933,264.0
4147.5913,272.0
4149.2505,256.0
4150.91,282.0
4152.5703,282.0
4154.2314,277.0
4155.893,267.0
4157.5557,286.0
4159.2188,259.0
4160.8823,279.0
4162.547,257.0
4164.212,289.0
4165.8774,276.0
4167.544,300.0
4169.211,270.0
4170.8784,246.0
4172.547,286.0
4174.216,367.0
4175.8857,351.0
4177.556,313.0
4179.227,303.0
4180.899,303.0
4182.5713,279.0
4184.244,311.0
4185.918,270.0
4187.5923,317.0
4189.267,367.0
4190.943,279.0
4192.619,248.0
4194.2964,289.0
4195.974,306.0
4197.6523,394.0
4199.3315,305.0
4201.011,269.0
4202.6914,262.0
4204.3726,273.0
4206.054,263.0
4207.737,278.0
4209.42,293.0
4211.1035,284.0
4212.788,255.0
4214.473,278.0
4216.1587,287.0
4217.845,289.0
4219.532,227.0
4221.22,245.0
4222.9087,267.0
4224.5977,216.0
4226.2876,253.0
4227.978,286.0
4229.6694,284.0
4231.3613,278.0
4233.0537,264.0
4234.747,268.0
4236.441,279.0
4238.1353,265.0
4239.8306,271.0
4241.5264,264.0
4243.223,306.0
4244.9204,293.0
4246.618,317.0
4248.317,306.0
4250.016,324.0
4251.7163,307.0
4253.417,304.0
4255.118,347.0
4256.8203,309.0
4258.523,294.0
4260.2266,361.0
4261.9307,302.0
4263.6353,323.0
4265.341,331.0
4267.047,405.0
4268.754,477.0
4270.4614,436.0
4272.1694,344.0
4273.8784,331.0
4275.588,445.0
4277.2983,633.0
4279.0093,467.0
4280.7207,358.0
4282.433,324.0
4284.146,550.0
4285.86,968.0
4287.574,740.0
4289.289,461.0
4291.005,365.0
4292.721,304.0
4294.4385,285.0
4296.1562,345.0
4297.8745,395.0
4299.5938,398.0
4301.3135,351.0
4303.034,306.0
4304.7554,284.0
4306.477,289.0
4308.1997,281.0
4309.923,290.0
4311.647,277.0
4313.3716,277.0
4315.097,265.0
4316.823,235.0
4318.55,256.0
4320.2773,258.0
4322.0054,263.0
4323.7344,264.0
4325.464,250.0
4327.194,244.0
4328.925,291.0
4330.6562,287.0
4332.3887,260.0
4334.1216,259.0
4335.8555,268.0
4337.59,267.0
4339.3247,289.0
4341.0605,278.0
4342.797,266.0
4344.534,225.0
4346.272,255.0
4348.0103,269.0
4349.7495,273.0
4351.4893,236.0
4353.23,234.0
4354.971,233.0
4356.7134,297.0
4358.456,307.0
4360.199,294.0
4361.9434,247.0
4363.688,283.0
4365.4336,286.0
4367.1797,261.0
4368.927,270.0
4370.6743,262.0
4372.4224,285.0
4374.1714,280.0
4375.921,243.0
4377.6714,246.0
4379.4224,272.0
4381.1743,285.0
4382.927,247.0
4384.6797,271.0
4386.4336,278.0
4388.188,297.0
4389.9434,328.0
4391.699,281.0
4393.456,275.0
4395.2134,304.0
4396.9717,299.0
4398.7305,323.0
4400.4897,337.0
4402.25,310.0
4404.0107,296.0
4405.7725,259.0
4407.5347,373.0
4409.298,450.0
4411.0615,358.0
4412.826,315.0
4414.5913,310.0
4416.357,467.0
4418.1235,472.0
4419.8906,411.0
4421.6587,347.0
4423.4272,305.0
4425.197,318.0
4426.967,307.0
4428.738,375.0
4430.5093,381.0
4432.2812,364.0
4434.054,327.0
4435.8276,336.0
4437.602,357.0
4439.377,498.0
4441.153,357.0
4442.929,324.0
4444.7065,297.0
4446.4844,295.0
4448.263,324.0
4450.0425,309.0
4451.8223,370.0
4453.603,358.0
4455.3843,293.0
4457.1665,307.0
4458.949,398.0
4460.733,381.0
4462.517,310.0
4464.3022,324.0
4466.088,371.0
4467.8745,432.0
4469.6616,424.0
4471.4497,386.0
4473.2383,298.0
4475.0273,302.0
4476.8174,313.0
4478.608,312.0
4480.3994,333.0
4482.1914,350.0
4483.9844,329.0
4485.778,280.0
4487.5723,305.0
4489.367,341.0
4491.163,342.0
4492.9595,306.0
4494.757,296.0
4496.5547,324.0
4498.3535,359.0
4500.153,359.0
4501.953,323.0
4503.754,287.0
4505.555,333.0
4507.3574,315.0
4509.16,306.0
4510.964,290.0
4512.768,303.0
4514.573,335.0
4516.379,317.0
4518.1855,306.0
4519.9927,313.0
4521.801,363.0
4523.6094,346.0
4525.419,269.0
4527.229,327.0
4529.04,323.0
4530.8516,446.0
4532.664,368.0
4534.477,321.0
4536.291,291.0
4538.1055,297.0
4539.921,329.0
4541.737,292.0
4543.5537,294.0
4545.371,278.0
4547.1895,293.0
4549.0083,279.0
4550.828,269.0
4552.6484,285.0
4554.4697,287.0
4556.2915,261.0
4558.1143,274.0
4559.9375,283.0
4561.7617,245.0
4563.5864,272.0
4565.4116,271.0
4567.238,267.0
4569.0645,262.0
4570.892,274.0
4572.72,267.0
4574.5493,253.0
4576.379,250.0
4578.2095,244.0
4580.0405,244.0
4581.8726,268.0
4583.705,293.0
4585.5386,263.0
4587.3726,274.0
4589.2075,258.0
4591.043,301.0
4592.8794,288.0
4594.7163,312.0
4596.554,276.0
4598.3926,325.0
4600.232,300.0
4602.0723,284.0
4603.913,311.0
4605.755,271.0
4607.597,281.0
4609.4404,229.0
4611.284,289.0
4613.129,314.0
4614.974,273.0
4616.8203,232.0
4618.667,235.0
4620.5146,278.0
4622.363,318.0
4624.212,299.0
4626.0615,265.0
4627.912,292.0
4629.763,275.0
4631.615,243.0
4633.468,258.0
4635.3213,254.0
4637.1753,281.0
4639.0303,256.0
4640.8857,261.0
4642.742,255.0
4644.599,265.0
4646.457,260.0
4648.3154,247.0
4650.175,234.0
4652.0347,272.0
4653.8955,250.0
4655.757,248.0
4657.619,257.0
4659.4824,258.0
4661.346,268.0
4663.211,283.0
4665.076,279.0
4666.9424,278.0
4668.809,253.0
4670.677,274.0
4672.545,259.0
4674.414,272.0
4676.2837,262.0
4678.1543,277.0
4680.0254,309.0
4681.8975,287.0
4683.77,260.0
4685.6436,259.0
4687.5176,247.0
4689.3926,263.0
4691.2686,266.0
4693.145,258.0
4695.0225,272.0
4696.9004,256.0
4698.7793,258.0
4700.6587,227.0
4702.539,237.0
4704.42,247.0
4706.302,246.0
4708.184,234.0
4710.0674,293.0
4711.951,290.0
4713.836,296.0
4715.7217,262.0
4717.608,288.0
4719.495,236.0
4721.383,233.0
4723.2715,277.0
4725.1606,251.0
4727.051,241.0
4728.9414,268.0
4730.833,293.0
4732.725,276.0
4734.618,278.0
4736.512,270.0
4738.4067,274.0
4740.3022,235.0
4742.198,247.0
4744.095,245.0
4745.9927,289.0
4747.891,261.0
4749.79,226.0
4751.69,240.0
4753.591,260.0
4755.492,257.0
4757.3945,277.0
4759.2974,241.0
4761.201,274.0
4763.1055,244.0
4765.0107,258.0
4766.9165,241.0
4768.823,238.0
4770.731,233.0
4772.639,267.0
4774.5483,218.0
4776.458,259.0
4778.3687,242.0
4780.28,254.0
4782.192,237.0
4784.105,209.0
4786.0186,210.0
4787.933,264.0
4789.848,220.0
4791.764,229.0
4793.6807,228.0
4795.598,236.0
4797.5166,241.0
4799.4355,238.0
4801.3555,263.0
4803.276,274.0
4805.1973,243.0
4807.119,243.0
4809.042,237.0
4810.966,243.0
4812.89,232.0
4814.8154,230.0
4816.741,248.0
4818.668,238.0
4820.595,196.0
4822.5234,212.0
4824.4526,248.0
4826.3823,227.0
4828.313,260.0
4830.244,226.0
4832.1763,229.0
4834.1094,226.0
4836.043,226.0
4837.9775,228.0
4839.9126,244.0
4841.8486,240.0
4843.785,233.0
4845.7227,232.0
4847.661,252.0
4849.6,249.0
4851.54,210.0
4853.4805,213.0
4855.422,210.0
4857.3643,251.0
4859.307,243.0
4861.251,221.0
4863.1953,233.0
4865.1406,263.0
4867.087,233.0
4869.0337,235.0
4870.9814,238.0
4872.9297,214.0
4874.879,264.0
4876.829,249.0
4878.78,248.0
4880.7314,231.0
4882.6836,219.0
4884.6367,232.0
4886.5903,241.0
4888.545,222.0
4890.5005,260.0
4892.4565,221.0
4894.4136,237.0
4896.3716,240.0
4898.33,243.0
4900.2896,232.0
4902.2495,221.0
4904.2104,230.0
4906.1724,230.0
4908.135,252.0
4910.098,224.0
4912.062,235.0
4914.027,239.0
4915.9927,266.0
4917.959,245.0
4919.9263,256.0
4921.894,260.0
4923.863,242.0
4925.8325,233.0
4927.8027,253.0
4929.774,258.0
4931.7456,268.0
4933.7183,231.0
4935.692,227.0
4937.666,254.0
4939.641,285.0
4941.617,254.0
4943.5938,266.0
4945.5713,255.0
4947.5493,248.0
4949.5283,254.0
4951.5083,284.0
4953.489,249.0
4955.47,265.0
4957.4526,243.0
4959.4355,254.0
4961.4194,251.0
4963.404,237.0
4965.389,240.0
4967.3755,242.0
4969.3623,271.0
4971.35,240.0
4973.339,287.0
4975.328,285.0
4977.3184,287.0
4979.309,245.0
4981.301,243.0
4983.2935,264.0
4985.2866,272.0
4987.281,282.0
4989.276,277.0
4991.2715,288.0
4993.268,274.0
4995.265,276.0
4997.263,288.0
4999.262,265.0
5001.2617,261.0
5003.262,266.0
5005.2637,286.0
5007.2656,275.0
5009.2686,280.0
5011.2725,320.0
5013.277,278.0
5015.282,258.0
5017.2886,279.0
5019.2954,266.0
5021.303,281.0
5023.3115,268.0
5025.321,272.0
5027.331,276.0
5029.342,299.0
5031.3535,317.0
5033.366,276.0
5035.3794,260.0
5037.3936,256.0
5039.4087,309.0
5041.4243,273.0
5043.441,261.0
5045.4585,307.0
5047.4766,293.0
5049.4956,311.0
5051.5156,290.0
5053.536,273.0
5055.5576,295.0
5057.58,278.0
5059.603,284.0
5061.627,261.0
5063.6514,283.0
5065.677,264.0
5067.703,289.0
5069.73,281.0
5071.758,290.0
5073.7866,269.0
5075.816,279.0
5077.846,261.0
5079.8774,244.0
5081.909,283.0
5083.942,249.0
5085.9756,279.0
5088.01,293.0
5090.045,304.0
5092.081,296.0
5094.1177,254.0
5096.1553,277.0
5098.194,273.0
5100.233,284.0
5102.273,290.0
5104.314,273.0
5106.3555,302.0
5108.398,302.0
5110.4414,273.0
5112.4854,314.0
5114.5303,282.0
5116.576,315.0
5118.6226,275.0
5120.67,273.0
5122.7183,233.0
5124.7676,290.0
5126.8174,281.0
5128.868,291.0
5130.92,312.0
5132.972,287.0
5135.0254,289.0
5137.0796,270.0
5139.1343,261.0
5141.19,254.0
5143.2466,321.0
5145.3037,344.0
5147.362,343.0
5149.421,317.0
5151.4805,307.0
5153.541,282.0
5155.6025,285.0
5157.6646,273.0
5159.7275,267.0
5161.7915,268.0
5163.8564,253.0
5165.922,274.0
5167.9883,302.0
5170.0557,287.0
5172.1235,284.0
5174.1924,274.0
5176.262,265.0
5178.3325,292.0
5180.404,289.0
5182.476,269.0
5184.549,278.0
5186.6226,286.0
5188.6973,263.0
5190.773,306.0
5192.849,267.0
5194.9263,276.0
5197.0044,277.0
5199.083,257.0
5201.1626,295.0
5203.243,362.0
5205.324,315.0
5207.4062,293.0
5209.4893,298.0
5211.573,296.0
5213.6577,286.0
5215.743,239.0
5217.8296,297.0
5219.9165,311.0
5222.0044,333.0
5224.0933,285.0
5226.183,342.0
5228.2734,315.0
5230.3647,284.0
5232.457,287.0
5234.55,296.0
5236.6436,278.0
5238.7383,307.0
5240.834,295.0
5242.93,316.0
5245.0273,356.0
5247.1255,311.0
5249.224,271.0
5251.3237,305.0
5253.4243,294.0
5255.526,298.0
5257.628,337.0
5259.731,296.0
5261.835,316.0
5263.9395,318.0
5266.045,290.0
5268.1514,287.0
5270.259,278.0
5272.3667,264.0
5274.4756,311.0
5276.5854,276.0
5278.6963,333.0
5280.8076,313.0
5282.92,332.0
5285.033,315.0
5287.147,300.0
5289.2617,282.0
5291.3774,279.0
5293.494,282.0
5295.6113,282.0
5297.7295,267.0
5299.8486,346.0
5301.9688,401.0
5304.0894,295.0
5306.211,289.0
5308.3335,268.0
5310.457,253.0
5312.581,281.0
5314.706,300.0
5316.832,375.0
5318.959,450.0
5321.0864,341.0
5323.215,310.0
5325.344,274.0
5327.4746,276.0
5329.6055,298.0
5331.7373,303.0
5333.87,283.0
5336.004,269.0
5338.138,288.0
5340.2734,295.0
5342.4097,288.0
5344.547,296.0
5346.6846,275.0
5348.823,270.0
5350.963,282.0
5353.1035,272.0
5355.2446,299.0
5357.3867,300.0
5359.53,319.0
5361.674,300.0
5363.8184,303.0
5365.964,307.0
5368.1104,351.0
5370.258,313.0
5372.406,330.0
5374.5547,342.0
5376.7046,361.0
5378.8555,292.0
5381.007,311.0
5383.159,320.0
5385.3125,308.0
5387.467,298.0
5389.6216,339.0
5391.7773,342.0
5393.934,353.0
5396.092,319.0
5398.25,341.0
5400.409,331.0
5402.5693,311.0
5404.7305,282.0
5406.8926,315.0
5409.055,348.0
5411.2188,385.0
5413.3833,337.0
5415.549,373.0
5417.715,337.0
5419.882,292.0
5422.05,337.0
5424.2188,314.0
5426.3887,348.0
5428.559,324.0
5430.7305,299.0
5432.903,338.0
5435.076,338.0
5437.25,307.0
5439.425,305.0
5441.6006,340.0
5443.7773,347.0
5445.955,325.0
5448.1333,313.0
5450.3125,319.0
5452.4927,290.0
5454.674,292.0
5456.8555,314.0
5459.038,340.0
5461.2217,339.0
5463.4062,295.0
5465.592,309.0
5467.778,316.0
5469.965,306.0
5472.153,344.0
5474.342,315.0
5476.5317,335.0
5478.722,340.0
5480.9136,289.0
5483.106,333.0
5485.2993,335.0
5487.4937,317.0
5489.6885,356.0
5491.8843,338.0
5494.081,346.0
5496.279,319.0
5498.4775,308.0
5500.677,301.0
5502.877,372.0
5505.078,368.0
5507.2803,375.0
5509.4834,343.0
5511.687,339.0
5513.8916,306.0
5516.097,339.0
5518.3037,343.0
5520.511,343.0
5522.719,410.0
5524.928,363.0
5527.138,323.0
5529.349,345.0
5531.561,322.0
5533.7734,323.0
5535.987,323.0
5538.201,348.0
5540.4165,332.0
5542.633,329.0
5544.85,311.0
5547.068,304.0
5549.2866,341.0
5551.5063,337.0
5553.727,294.0
5555.9487,374.0
5558.171,358.0
5560.394,346.0
5562.618,327.0
5564.8433,370.0
5567.0693,340.0
5569.2964,355.0
5571.524,309.0
5573.7524,317.0
5575.982,302.0
5578.2124,345.0
5580.444,322.0
5582.676,396.0
5584.9087,362.0
5587.1426,326.0
5589.3774,296.0
5591.6133,298.0
5593.85,296.0
5596.0874,289.0
5598.3257,327.0
5600.565,385.0
5602.805,335.0
5605.0464,359.0
5607.2886,269.0
5609.5312,319.0
5611.775,314.0
5614.0195,326.0
5616.265,339.0
5618.5117,301.0
5620.7593,312.0
5623.008,313.0
5625.257,308.0
5627.507,270.0
5629.758,312.0
5632.01,346.0
5634.2627,311.0
5636.5166,300.0
5638.771,293.0
5641.0264,322.0
5643.2827,320.0
5645.54,327.0
5647.7983,320.0
5650.0576,265.0
5652.318,290.0
5654.5786,325.0
5656.8403,319.0
5659.103,350.0
5661.3667,292.0
5663.6313,327.0
5665.897,332.0
5668.1636,316.0
5670.4307,343.0
5672.6987,313.0
5674.968,346.0
5677.238,352.0
5679.509,315.0
5681.781,368.0
5684.0537,328.0
5686.327,388.0
5688.6016,351.0
5690.877,357.0
5693.1533,341.0
5695.4307,337.0
5697.709,368.0
5699.9883,378.0
5702.268,334.0
5704.549,351.0
5706.8306,367.0
5709.1133,372.0
5711.397,335.0
5713.6816,367.0
5715.9673,339.0
5718.254,337.0
5720.541,395.0
5722.829,408.0
5725.118,338.0
5727.408,387.0
5729.699,372.0
5731.991,379.0
5734.284,356.0
5736.578,367.0
5738.8726,444.0
5741.168,385.0
5743.4644,407.0
5745.7617,376.0
5748.06,394.0
5750.3594,407.0
5752.6597,366.0
5754.961,417.0
5757.2627,432.0
5759.5654,392.0
5761.869,405.0
5764.174,371.0
5766.4795,421.0
5768.786,390.0
5771.0938,407.0
5773.4023,442.0
5775.712,453.0
5778.022,399.0
5780.333,436.0
5782.645,436.0
5784.958,463.0
5787.272,473.0
5789.587,501.0
5791.903,485.0
5794.2197,431.0
5796.5376,454.0
5798.8564,474.0
5801.176,462.0
5803.496,449.0
5805.8174,526.0
5808.1396,519.0
5810.463,475.0
5812.787,458.0
5815.1123,524.0
5817.4385,501.0
5819.7656,518.0
5822.0938,532.0
5824.4224,467.0
5826.752,442.0
5829.0825,537.0
5831.414,592.0
5833.7466,597.0
5836.08,519.0
5838.4146,618.0
5840.75,671.0
5843.0864,514.0
5845.424,506.0
5847.762,558.0
5850.101,542.0
5852.441,481.0
5854.7817,478.0
5857.1235,488.0
5859.4663,494.0
5861.81,453.0
5864.155,455.0
5866.5005,465.0
5868.847,466.0
5871.195,485.0
5873.5435,474.0
5875.893,436.0
5878.2437,438.0
5880.5947,480.0
5882.947,476.0
5885.3,481.0
5887.654,469.0
5890.009,499.0
5892.3647,500.0
5894.7217,464.0
5897.0796,500.0
5899.4385,428.0
5901.7983,491.0
5904.159,512.0
5906.521,542.0
5908.884,528.0
5911.2476,533.0
5913.612,537.0
5915.977,529.0
5918.3433,557.0
5920.7104,499.0
5923.0786,484.0
5925.4478,533.0
5927.818,504.0
5930.189,522.0
5932.561,523.0
5934.934,561.0
5937.308,526.0
5939.683,548.0
5942.059,571.0
5944.436,545.0
5946.814,561.0
5949.193,525.0
5951.5728,555.0
5953.9536,518.0
5956.335,514.0
5958.7173,571.0
5961.1006,632.0
5963.485,553.0
5965.87,556.0
5968.2563,548.0
5970.6436,555.0
5973.0317,541.0
5975.421,573.0
5977.811,625.0
5980.202,578.0
5982.594,556.0
5984.9873,603.0
5987.3813,536.0
5989.7764,531.0
5992.1724,616.0
5994.5693,633.0
5996.9673,570.0
5999.366,564.0
6001.766,705.0
6004.167,651.0
6006.569,589.0
6008.9717,622.0
6011.3755,708.0
6013.7803,584.0
6016.1855,588.0
6018.592,654.0
6020.999,587.0
6023.407,549.0
6025.8164,511.0
6028.2266,536.0
6030.6377,558.0
6033.05,525.0
6035.463,543.0
6037.877,572.0
6040.292,510.0
6042.708,522.0
6045.125,635.0
6047.543,544.0
6049.962,488.0
6052.382,454.0
6054.8027,462.0
6057.2246,446.0
6059.6475,475.0
6062.0713,628.0
6064.496,670.0
6066.922,550.0
6069.3486,491.0
6071.7764,471.0
6074.205,485.0
6076.635,515.0
6079.0654,483.0
6081.497,524.0
6083.9297,506.0
6086.3633,558.0
6088.798,537.0
6091.2334,469.0
6093.67,487.0
6096.1074,446.0
6098.546,498.0
6100.9854,539.0
6103.426,525.0
6105.867,532.0
6108.3096,538.0
6110.753,524.0
6113.1973,520.0
6115.6426,581.0
6118.089,632.0
6120.536,599.0
6122.9844,560.0
6125.4336,545.0
6127.884,602.0
6130.335,680.0
6132.787,723.0
6135.24,667.0
6137.6943,633.0
6140.1494,596.0
6142.6055,634.0
6145.0625,607.0
6147.5205,733.0
6149.9795,802.0
6152.4395,781.0
6154.9004,639.0
6157.3623,771.0
6159.825,838.0
6162.289,714.0
6164.754,635.0
6167.2197,624.0
6169.6865,568.0
6172.1543,751.0
6174.623,1039.0
6177.093,1111.0
6179.5635,889.0
6182.035,711.0
6184.508,721.0
6186.9814,705.0
6189.456,739.0
6191.9316,1169.0
6194.408,1343.0
6196.8857,1057.0
6199.3643,846.0
6201.844,778.0
6204.325,800.0
6206.807,632.0
6209.29,707.0
6211.774,732.0
6214.259,749.0
6216.7446,872.0
6219.2314,889.0
6221.719,705.0
6224.208,595.0
6226.6978,655.0
6229.1885,806.0
6231.68,888.0
6234.173,921.0
6236.6665,787.0
6239.161,723.0
6241.6567,701.0
6244.1533,692.0
6246.651,866.0
6249.1494,1011.0
6251.649,815.0
6254.1494,806.0
6256.651,929.0
6259.1533,881.0
6261.6567,796.0
6264.1616,644.0
6266.6675,586.0
6269.1743,683.0
6271.682,1134.0
6274.191,1575.0
6276.7007,1210.0
6279.2114,771.0
6281.723,666.0
6284.236,634.0
6286.7495,645.0
6289.264,1366.0
6291.78,2113.0
6294.2964,1634.0
6296.814,970.0
6299.3325,695.0
6301.852,606.0
6304.3726,595.0
6306.8945,633.0
6309.4175,590.0
6311.9414,605.0
6314.4663,626.0
6316.992,569.0
6319.519,553.0
6322.047,490.0
6324.5757,547.0
6327.1055,583.0
6329.636,613.0
6332.168,551.0
6334.7007,513.0
6337.2344,553.0
6339.769,538.0
6342.305,498.0
6344.8423,565.0
6347.3804,527.0
6349.9194,537.0
6352.4595,538.0
6355.0005,524.0
6357.5425,494.0
6360.0854,559.0
6362.6294,581.0
6365.1743,556.0
6367.72,608.0
6370.267,595.0
6372.8154,516.0
6375.3647,555.0
6377.915,538.0
6380.4663,556.0
6383.0186,583.0
6385.572,605.0
6388.126,604.0
6390.681,552.0
6393.2373,529.0
6395.7944,521.0
6398.3525,541.0
6400.912,606.0
6403.4727,629.0
6406.034,667.0
6408.5967,588.0
6411.16,568.0
6413.7246,555.0
6416.29,522.0
6418.8564,581.0
6421.424,565.0
6423.992,570.0
6426.562,550.0
6429.133,647.0
6431.7046,617.0
6434.2773,584.0
6436.851,571.0
6439.426,570.0
6442.0015,572.0
6444.578,535.0
6447.156,645.0
6449.735,660.0
6452.315,570.0
6454.896,551.0
6457.478,579.0
6460.061,562.0
6462.645,599.0
6465.23,574.0
6467.816,545.0
6470.403,532.0
6472.991,558.0
6475.5806,553.0
6478.171,559.0
6480.762,564.0
6483.3545,598.0
6485.9478,546.0
6488.542,602.0
6491.137,551.0
6493.734,594.0
6496.3315,612.0
6498.93,601.0
6501.53,540.0
6504.1304,572.0
6506.732,605.0
6509.3345,641.0
6511.938,614.0
6514.543,670.0
6517.149,645.0
6519.756,652.0
6522.364,686.0
6524.9727,686.0
6527.5825,727.0
6530.1934,630.0
6532.8057,611.0
6535.419,690.0
6538.033,704.0
6540.6484,749.0
6543.2646,734.0
6545.882,729.0
6548.5,680.0
6551.1196,653.0
6553.74,675.0
6556.362,823.0
6558.9844,862.0
6561.608,819.0
6564.2324,690.0
6566.858,685.0
6569.485,661.0
6572.113,721.0
6574.7417,795.0
6577.3716,718.0
6580.0024,730.0
6582.6343,702.0
6585.267,719.0
6587.9014,719.0
6590.5366,744.0
6593.173,831.0
6595.81,757.0
6598.448,710.0
6601.0874,677.0
6603.728,669.0
6606.3696,715.0
6609.012,710.0
6611.656,735.0
6614.3003,727.0
6616.946,711.0
6619.593,736.0
6622.2407,741.0
6624.8896,749.0
6627.5396,691.0
6630.1904,678.0
6632.8423,619.0
6635.4956,712.0
6638.15,871.0
6640.805,863.0
6643.4614,749.0
6646.1187,712.0
6648.7773,658.0
6651.437,663.0
6654.0977,748.0
6656.7593,848.0
6659.422,808.0
6662.0854,782.0
6664.7505,702.0
6667.4165,626.0
6670.0835,622.0
6672.7515,619.0
6675.4204,670.0
6678.091,679.0
6680.762,718.0
6683.4346,652.0
6686.108,585.0
6688.782,627.0
6691.4575,666.0
6694.1343,668.0
6696.812,740.0
6699.4907,757.0
6702.1704,660.0
6704.851,654.0
6707.533,768.0
6710.2163,656.0
6712.9004,782.0
6715.5854,800.0
6718.2715,801.0
6720.959,748.0
6723.6475,809.0
6726.337,801.0
6729.0273,746.0
6731.7188,725.0
6734.4116,703.0
6737.1055,738.0
6739.8003,876.0
6742.496,940.0
6745.193,808.0
6747.891,805.0
6750.5903,735.0
6753.2905,736.0
6755.9917,895.0
6758.6943,1056.0
6761.398,1018.0
6764.1025,952.0
6766.808,923.0
6769.5146,814.0
6772.2227,789.0
6774.9316,892.0
6777.6416,945.0
6780.3525,965.0
6783.0645,963.0
6785.778,920.0
6788.492,919.0
6791.2075,991.0
6793.924,891.0
6796.6416,852.0
6799.3604,881.0
6802.08,800.0
6804.801,848.0
6807.5225,1015.0
6810.2456,1095.0
6812.9697,946.0
6815.695,767.0
6818.421,727.0
6821.1484,912.0
6823.877,1120.0
6826.6064,1182.0
6829.337,933.0
6832.069,788.0
6834.802,677.0
6837.5356,743.0
6840.2705,1013.0
6843.007,1286.0
6845.744,1156.0
6848.4824,867.0
6851.2217,694.0
6853.9624,840.0
6856.704,947.0
6859.447,939.0
6862.1904,798.0
6864.9355,768.0
6867.6816,737.0
6870.4287,740.0
6873.177,686.0
6875.9263,703.0
6878.677,728.0
6881.428,681.0
6884.1807,748.0
6886.9346,745.0
6889.6895,677.0
6892.4453,675.0
6895.202,718.0
6897.9604,696.0
6900.7197,699.0
6903.48,754.0
6906.241,698.0
6909.004,672.0
6911.7676,843.0
6914.532,790.0
6917.298,738.0
6920.065,809.0
6922.833,761.0
6925.602,716.0
6928.372,736.0
6931.1436,798.0
6933.916,695.0
6936.6895,700.0
6939.4644,734.0
6942.24,710.0
6945.017,776.0
6947.795,850.0
6950.574,795.0
6953.3545,758.0
6956.1357,787.0
6958.918,766.0
6961.7017,701.0
6964.4863,709.0
6967.272,761.0
6970.059,719.0
6972.847,798.0
6975.636,837.0
6978.4263,807.0
6981.218,867.0
6984.0103,903.0
6986.8037,825.0
6989.5986,850.0
6992.3945,871.0
6995.1914,937.0
6997.9893,967.0
7000.7886,1019.0
7003.589,958.0
7006.39,932.0
7009.193,955.0
7011.9966,920.0
7014.8013,1008.0
7017.6074,1068.0
7020.4146,1014.0
7023.2227,1122.0
7026.0317,1231.0
7028.8423,1136.0
7031.654,914.0
7034.4663,774.0
7037.2803,781.0
7040.095,1076.0
7042.911,1511.0
7045.7285,1276.0
7048.547,911.0
7051.366,871.0
7054.1865,806.0
7057.0083,1179.0
7059.831,2069.0
7062.655,1809.0
7065.48,1146.0
7068.306,905.0
7071.1333,880.0
7073.962,791.0
7076.7915,860.0
7079.622,819.0
7082.454,907.0
7085.287,939.0
7088.121,874.0
7090.9565,868.0
7093.793,888.0
7096.6304,974.0
7099.469,963.0
7102.309,828.0
7105.15,963.0
7107.992,1002.0
7110.8354,939.0
7113.6797,1072.0
7116.5254,1030.0
7119.372,938.0
7122.2197,1147.0
7125.069,1237.0
7127.919,1178.0
7130.77,1090.0
7133.6226,985.0
7136.476,1104.0
7139.3306,1306.0
7142.1865,1424.0
7145.0435,1174.0
7147.9014,1207.0
7150.7607,1175.0
7153.621,1234.0
7156.4824,1829.0
7159.345,1786.0
7162.209,1426.0
7165.0737,1195.0
7167.94,1289.0
7170.807,1454.0
7173.6753,1548.0
7176.545,1331.0
7179.4155,1330.0
7182.287,1282.0
7185.16,1177.0
7188.034,1492.0
7190.909,1455.0
7193.7856,1339.0
7196.663,1768.0
7199.542,1779.0
7202.422,1409.0
7205.3027,1045.0
7208.185,923.0
7211.0684,1206.0
7213.9526,2329.0
7216.8384,2249.0
7219.725,1361.0
7222.613,984.0
7225.502,916.0
7228.392,1326.0
7231.283,3101.0
7234.176,3209.0
7237.0693,1797.0
7239.9644,1096.0
7242.8604,864.0
7245.7573,882.0
7248.656,969.0
7251.555,981.0
7254.4556,947.0
7257.3574,884.0
7260.2603,848.0
7263.1646,725.0
7266.07,825.0
7268.976,857.0
7271.884,867.0
7274.7925,762.0
7277.7026,768.0
7280.614,783.0
7283.526,828.0
7286.4395,875.0
7289.354,802.0
7292.2695,786.0
7295.1865,977.0
7298.1045,910.0
7301.024,825.0
7303.9443,759.0
7306.8657,749.0
7309.7886,908.0
7312.7124,1252.0
7315.6377,1056.0
7318.564,869.0
7321.491,703.0
7324.42,678.0
7327.3496,931.0
7330.281,1436.0
7333.213,1194.0
7336.146,896.0
7339.0806,780.0
7342.016,750.0
7344.953,752.0
7347.891,956.0
7350.83,835.0
7353.7705,804.0
7356.712,771.0
7359.655,697.0
7362.5986,714.0
7365.5435,693.0
7368.4897,669.0
7371.437,654.0
7374.3857,836.0
7377.3354,742.0
7380.2866,723.0
7383.239,766.0
7386.192,723.0
7389.1465,654.0
7392.102,648.0
7395.059,691.0
7398.017,782.0
7400.976,862.0
7403.9365,793.0
7406.898,674.0
7409.861,603.0
7412.8247,603.0
7415.79,775.0
7418.7563,812.0
7421.7236,744.0
7424.6924,607.0
7427.662,596.0
7430.6333,622.0
7433.6055,808.0
7436.579,822.0
7439.5537,681.0
7442.5293,646.0
7445.5063,617.0
7448.4844,560.0
7451.464,559.0
7454.4443,560.0
7457.4263,593.0
7460.409,605.0
7463.3936,546.0
7466.379,625.0
7469.365,596.0
7472.353,561.0
7475.342,531.0
7478.332,502.0
7481.323,556.0
7484.316,729.0
7487.3096,716.0
7490.3047,580.0
7493.301,536.0
7496.2983,526.0
7499.297,559.0
7502.2964,565.0
7505.2974,596.0
7508.2993,537.0
7511.3027,552.0
7514.307,520.0
7517.313,517.0
7520.32,553.0
7523.328,505.0
7526.3374,526.0
7529.348,610.0
7532.36,527.0
7535.373,509.0
7538.387,512.0
7541.4023,468.0
7544.419,649.0
7547.4365,673.0
7550.4556,608.0
7553.4756,482.0
7556.497,493.0
7559.5195,525.0
7562.5435,675.0
7565.5684,672.0
7568.5947,526.0
7571.622,495.0
7574.651,481.0
7577.6807,442.0
7580.712,489.0
7583.744,532.0
7586.778,517.0
7589.8125,492.0
7592.8486,441.0
7595.8857,479.0
7598.9243,544.0
7601.964,513.0
7605.005,483.0
7608.047,405.0
7611.0903,452.0
7614.135,562.0
7617.18,592.0
7620.227,537.0
7623.275,478.0
7626.324,481.0
7629.3745,476.0
7632.4263,465.0
7635.479,489.0
7638.533,500.0
7641.5884,491.0
7644.645,442.0
7647.7026,496.0
7650.7617,454.0
7653.8223,448.0
7656.884,485.0
7659.947,513.0
7663.0107,492.0
7666.076,453.0
7669.1426,509.0
7672.2104,461.0
7675.2793,551.0
7678.3496,534.0
7681.421,510.0
7684.4937,515.0
7687.5674,480.0
7690.6426,560.0
7693.7188,575.0
7696.7964,528.0
7699.875,504.0
7702.955,586.0
7706.036,601.0
7709.1187,600.0
7712.202,589.0
7715.287,540.0
7718.373,615.0
7721.4604,574.0
7724.549,598.0
7727.6387,627.0
7730.7295,631.0
7733.822,590.0
7736.9155,671.0
7740.0103,651.0
7743.1064,685.0
7746.2036,690.0
7749.3022,686.0
7752.402,673.0
7755.503,726.0
7758.605,696.0
7761.7085,630.0
7764.813,575.0
7767.919,719.0
7771.026,818.0
7774.1343,758.0
7777.244,674.0
7780.355,667.0
7783.4673,695.0
7786.5806,796.0
7789.6953,930.0
7792.811,861.0
7795.928,788.0
7799.0464,753.0
7802.166,691.0
7805.287,742.0
7808.409,800.0
7811.5327,957.0
7814.657,846.0
7817.783,758.0
7820.91,697.0
7824.0386,762.0
7827.168,1050.0
7830.299,1048.0
7833.431,820.0
7836.5645,767.0
7839.699,767.0
7842.835,858.0
7845.972,984.0
7849.1104,996.0
7852.25,863.0
7855.391,822.0
7858.533,870.0
7861.677,756.0
7864.8213,778.0
7867.9673,769.0
7871.1143,793.0
7874.2627,839.0
7877.4126,857.0
7880.5635,850.0
7883.716,980.0
7886.869,907.0
7890.024,820.0
7893.18,841.0
7896.3374,827.0
7899.496,1134.0
7902.656,1106.0
7905.817,962.0
7908.979,820.0
7912.1426,886.0
7915.3076,1096.0
7918.4736,1374.0
7921.641,1195.0
7924.8096,1086.0
7927.9795,980.0
7931.151,849.0
7934.323,915.0
7937.497,1028.0
7940.672,1092.0
7943.848,1045.0
7947.026,1008.0
7950.2046,1041.0
7953.385,1148.0
7956.566,1180.0
7959.7485,1240.0
7962.9326,1207.0
7966.1177,1133.0
7969.304,1343.0
7972.4917,1409.0
7975.6807,1371.0
7978.871,1245.0
7982.0625,1368.0
7985.2554,1598.0
7988.4497,1655.0
7991.645,1521.0
7994.842,1468.0
7998.0396,1435.0
8001.239,1582.0
8004.4395,1833.0
8007.641,1927.0
8010.844,1770.0
8014.0483,1702.0
8017.254,1863.0
8020.461,1992.0
8023.669,1975.0
8026.8784,1964.0
8030.0894,1988.0
8033.3013,2088.0
8036.5146,2278.0
8039.7295,2607.0
8042.9453,2522.0
8046.1626,2285.0
8049.381,2417.0
8052.6006,2740.0
8055.822,3250.0
8059.044,3151.0
8062.2676,2974.0
8065.4927,3275.0
8068.7188,3542.0
8071.9463,3741.0
8075.1753,3763.0
8078.4053,3830.0
8081.6367,4428.0
8084.869,5115.0
8088.103,4362.0
8091.3384,3953.0
8094.5747,3756.0
8097.8125,5153.0
8101.052,7076.0
8104.292,6490.0
8107.5337,5726.0
8110.777,5098.0
8114.021,4785.0
8117.2666,7134.0
8120.5137,8823.0
8123.7617,8347.0
8127.011,8379.0
8130.262,6871.0
8133.514,6330.0
8136.7676,7184.0
8140.0225,9136.0
8143.2783,12019.0
8146.5356,11130.0
8149.7944,8556.0
8153.054,10231.0
8156.3154,9522.0
8159.578,10675.0
8162.842,13025.0
8166.107,12166.0
8169.3735,18933.0
8172.641,18089.0
8175.91,10453.0
8179.1807,5747.0
8182.452,7432.0
8185.725,28403.0
8188.9995,35379.0
8192.275,16071.0
8195.553,7048.0
8198.831,5868.0
8202.11,26903.0
8205.392,63852.0
8208.674,37750.0
8211.957,13112.0
8215.242,5722.0
8218.528,4373.0
8221.815,4119.0
8225.1045,5409.0
8228.395,6668.0
8231.686,4850.0
8234.979,2798.0
8238.272,2112.0
8241.567,2440.0
8244.864,2592.0
8248.162,2638.0
8251.461,2142.0
8254.762,1873.0
8258.063,1615.0
8261.367,1719.0
8264.672,1762.0
8267.978,1889.0
8271.285,1828.0
8274.594,1701.0
8277.903,1537.0
8281.215,1449.0
8284.527,1523.0
8287.841,1829.0
8291.156,1733.0
8294.473,1576.0
8297.79,1445.0
8301.109,1535.0
8304.43,1756.0
8307.751,1813.0
8311.074,1869.0
8314.398,1891.0
8317.725,1789.0
8321.052,1656.0
8324.38,1613.0
8327.71,1762.0
8331.041,2294.0
8334.373,2166.0
8337.707,1659.0
8341.042,1601.0
8344.378,1673.0
8347.716,2378.0
8351.055,2487.0
8354.3955,2002.0
8357.737,1906.0
8361.08,1832.0
8364.425,1478.0
8367.7705,1412.0
8371.117,1479.0
8374.466,1949.0
8377.815,2066.0
8381.167,1501.0
8384.52,1131.0
8387.873,1261.0
8391.229,1728.0
8394.585,2069.0
8397.942,1590.0
8401.302,1221.0
8404.662,1223.0
8408.024,1343.0
8411.388,1218.0
8414.752,1182.0
8418.118,1166.0
8421.485,1029.0
8424.854,962.0
8428.224,1047.0
8431.595,1184.0
8434.968,1163.0
8438.342,1038.0
8441.717,1059.0
8445.094,1194.0
8448.472,1235.0
8451.851,1214.0
8455.231,1138.0
8458.613,1208.0
8461.997,1247.0
8465.382,1386.0
8468.768,1416.0
8472.155,1428.0
8475.544,1467.0
8478.935,1327.0
8482.326,1322.0
8485.719,1596.0
8489.113,1786.0
8492.509,2025.0
8495.906,1682.0
8499.305,1696.0
8502.704,1842.0
8506.105,2087.0
8509.508,2448.0
8512.911,2091.0
8516.316,2343.0
8519.723,2493.0
8523.131,2196.0
8526.54,2507.0
8529.95,2432.0
8533.362,3450.0
8536.775,4311.0
8540.19,2902.0
8543.606,1922.0
8547.023,1748.0
8550.442,4379.0
8553.862,6307.0
8557.284,3590.0
8560.707,2171.0
8564.131,1868.0
8567.557,5313.0
8570.983,9123.0
8574.412,5683.0
8577.842,2960.0
8581.272,2086.0
8584.705,1633.0
8588.139,1327.0
8591.574,1855.0
8595.011,2446.0
8598.449,2049.0
8601.889,1320.0
8605.329,1102.0
8608.771,1044.0
8612.215,988.0
8615.66,981.0
8619.106,1049.0
8622.554,1019.0
8626.003,973.0
8629.453,848.0
8632.905,946.0
8636.358,950.0
8639.8125,973.0
8643.269,930.0
8646.726,807.0
8650.185,893.0
8653.645,938.0
8657.106,905.0
8660.569,921.0
8664.033,984.0
8667.499,965.0
8670.966,1017.0
8674.435,987.0
8677.904,1062.0
8681.375,1066.0
8684.848,1083.0
8688.321,1033.0
8691.797,1073.0
8695.273,1184.0
8698.752,1269.0
8702.231,1120.0
8705.712,1118.0
8709.194,1204.0
8712.678,1375.0
8716.163,1404.0
8719.649,1284.0
8723.138,1352.0
8726.627,1233.0
8730.117,1322.0
8733.609,1316.0
8737.103,1463.0
8740.598,1587.0
8744.094,1391.0
8747.592,1398.0
8751.091,1566.0
8754.591,1818.0
8758.093,1759.0
8761.596,1685.0
8765.101,1576.0
8768.606,1765.0
8772.114,2128.0
8775.623,1921.0
8779.133,1937.0
8782.645,1947.0
8786.157,1977.0
8789.672,2059.0
8793.1875,2046.0
8796.705,2816.0
8800.224,2939.0
8803.744,2156.0
8807.266,1786.0
8810.788,1985.0
8814.3125,3801.0
8817.838,4185.0
8821.365,2626.0
8824.894,2044.0
8828.424,2114.0
8831.955,4265.0
8835.488,4553.0
8839.022,3166.0
8842.558,2634.0
8846.095,2039.0
8849.633,1803.0
8853.173,1933.0
8856.714,2841.0
8860.257,3351.0
8863.801,2376.0
8867.347,1867.0
8870.894,1875.0
8874.442,3130.0
8877.992,3996.0
8881.543,3091.0
8885.096,2290.0
8888.649,1932.0
8892.205,1952.0
8895.762,2037.0
8899.32,2643.0
8902.88,2663.0
8906.441,2031.0
8910.004,1689.0
8913.568,1965.0
8917.134,2769.0
8920.7,2851.0
8924.269,2039.0
8927.838,1831.0
8931.409,2076.0
8934.981,3263.0
8938.556,3058.0
8942.131,2224.0
8945.708,1984.0
8949.286,1660.0
8952.866,1528.0
8956.447,1651.0
8960.03,1994.0
8963.614,1935.0
8967.199,1591.0
8970.786,1364.0
8974.374,1572.0
8977.964,1749.0
8981.555,1643.0
8985.147,1461.0
8988.741,1418.0
8992.337,1664.0
8995.934,1636.0
8999.532,1582.0
9003.132,1507.0
9006.733,1528.0
9010.336,1560.0
9013.94,1464.0
9017.546,1489.0
9021.153,1420.0
9024.762,1618.0
9028.372,1563.0
9031.983,1417.0
9035.597,1271.0
9039.211,1303.0
9042.826,1634.0
9046.443,1627.0
9050.062,1283.0
9053.682,1144.0
9057.303,1507.0
9060.926,1962.0
9064.55,1724.0
9068.176,1277.0
9071.803,1136.0
9075.432,1426.0
9079.062,1659.0
9082.693,1287.0
9086.326,1139.0
9089.961,1117.0
9093.597,1172.0
9097.234,1410.0
9100.873,1195.0
9104.514,1132.0
9108.155,1026.0
9111.799,972.0
9115.443,965.0
9119.09,1043.0
9122.737,1300.0
9126.387,1075.0
9130.037,907.0
9133.689,951.0
9137.343,1131.0
9140.998,1216.0
9144.654,1136.0
9148.3125,1023.0
9151.972,883.0
9155.633,909.0
9159.295,959.0
9162.959,1270.0
9166.624,1260.0
9170.291,1006.0
9173.959,798.0
9177.629,1044.0
9181.3,1611.0
9184.973,1455.0
9188.646,990.0
9192.322,882.0
9195.999,1183.0
9199.678,1520.0
9203.357,1214.0
9207.039,1070.0
9210.722,897.0
9214.406,749.0
9218.092,688.0
9221.779,933.0
9225.468,1111.0
9229.158,814.0
9232.85,699.0
9236.543,665.0
9240.237,926.0
9243.934,1232.0
9247.631,852.0
9251.33,678.0
9255.03,550.0
9258.732,536.0
9262.436,594.0
9266.141,657.0
9269.847,574.0
9273.555,520.0
9277.264,434.0
9280.975,527.0
9284.687,547.0
9288.4,510.0
9292.116,473.0
9295.833,485.0
9299.552,453.0
9303.271,452.0
9306.993,456.0
9310.716,472.0
9314.44,434.0
9318.166,416.0
9321.894,410.0
9325.622,429.0
9329.353,435.0
9333.084,436.0
9336.817,429.0
9340.552,417.0
9344.288,434.0
9348.025,421.0
9351.765,433.0
9355.505,381.0
9359.247,409.0
9362.991,420.0
9366.736,429.0
9370.483,404.0
9374.231,389.0
9377.981,380.0
9381.732,398.0
9385.485,392.0
9389.239,407.0
9392.995,363.0
9396.752,371.0
9400.511,360.0
9404.2705,356.0
9408.032,403.0
9411.796,394.0
9415.561,391.0
9419.327,374.0
9423.095,353.0
9426.864,404.0
9430.635,357.0
9434.407,382.0
9438.181,375.0
9441.956,415.0
9445.732,414.0
9449.511,392.0
9453.291,385.0
9457.072,347.0
9460.855,439.0
9464.64,390.0
9468.426,389.0
9472.213,366.0
9476.002,306.0
9479.792,334.0
9483.584,358.0
9487.377,384.0
9491.172,352.0
9494.969,373.0
9498.767,298.0
9502.566,345.0
9506.367,440.0
9510.17,354.0
9513.974,370.0
9517.779,294.0
9521.586,270.0
9525.395,300.0
9529.205,355.0
9533.017,368.0
9536.83,310.0
9540.645,298.0
9544.461,319.0
9548.278,364.0
9552.098,396.0
9555.919,311.0
9559.741,284.0
9563.565,331.0
9567.391,275.0
9571.218,326.0
9575.046,273.0
9578.876,286.0
9582.708,228.0
9586.541,249.0
9590.376,288.0
9594.212,301.0
9598.05,251.0
9601.889,250.0
9605.7295,294.0
9609.572,249.0
9613.416,251.0
9617.262,263.0
9621.108,280.0
9624.957,203.0
9628.807,252.0
9632.658,242.0
9636.512,242.0
9640.366,245.0
9644.223,243.0
9648.08,240.0
9651.939,231.0
9655.8,225.0
9659.662,272.0
9663.526,218.0
9667.392,243.0
9671.259,232.0
9675.127,241.0
9678.997,245.0
9682.869,230.0
9686.742,226.0
9690.617,247.0
9694.493,193.0
9698.371,221.0
9702.25,238.0
9706.131,233.0
9710.014,198.0
9713.897,215.0
9717.783,209.0
9721.67,186.0
9725.559,213.0
9729.449,203.0
9733.341,212.0
9737.234,222.0
9741.129,211.0
9745.025,251.0
9748.924,224.0
9752.823,202.0
9756.725,226.0
9760.627,232.0
9764.531,211.0
9768.4375,210.0
9772.345,199.0
9776.254,194.0
9780.164,220.0
9784.076,221.0
9787.99,208.0
9791.905,212.0
9795.822,199.0
9799.74,215.0
9803.66,231.0
9807.582,247.0
9811.505,245.0
9815.43,227.0
9819.355,208.0
9823.283,259.0
9827.213,216.0
9831.144,244.0
9835.076,248.0
9839.01,222.0
9842.945,206.0
9846.883,273.0
9850.821,277.0
9854.762,266.0
9858.704,225.0
9862.647,214.0
9866.593,229.0
9870.539,252.0
9874.487,247.0
9878.4375,242.0
9882.389,192.0
9886.342,218.0
9890.296,223.0
9894.252,248.0
9898.21,251.0
9902.169,206.0
9906.13,236.0
9910.093,249.0
9914.057,286.0
9918.022,250.0
9921.989,257.0
9925.958,213.0
9929.929,217.0
9933.9,253.0
9937.874,241.0
9941.85,216.0
9945.826,231.0
9949.805,223.0
9953.784,244.0
9957.766,230.0
9961.749,231.0
9965.733,230.0
9969.72,231.0
9973.708,219.0
9977.697,233.0
9981.688,212.0
9985.681,203.0
9989.675,215.0
9993.671,225.0
9997.668,218.0
10001.667,194.0
10005.668,223.0
10009.67,236.0
10013.674,205.0
10017.68,191.0
10021.687,233.0
10025.695,242.0
10029.706,213.0
10033.718,215.0
10037.731,245.0
10041.746,228.0
10045.763,231.0
10049.781,240.0
10053.801,229.0
10057.822,248.0
10061.846,232.0
10065.87,250.0
10069.896,239.0
10073.925,211.0
10077.954,233.0
10081.985,227.0
10086.019,199.0
10090.053,218.0
10094.089,212.0
10098.127,230.0
10102.166,217.0
10106.207,239.0
10110.25,227.0
10114.294,217.0
10118.34,233.0
10122.387,248.0
10126.436,244.0
10130.486,228.0
10134.538,225.0
10138.592,207.0
10142.647,230.0
10146.704,222.0
10150.763,260.0
10154.823,238.0
10158.885,231.0
10162.948,248.0
10167.014,250.0
10171.08,230.0
10175.148,235.0
10179.219,215.0
10183.29,266.0
10187.363,226.0
10191.438,254.0
10195.515,250.0
10199.593,239.0
10203.673,238.0
10207.754,253.0
10211.837,243.0
10215.922,259.0
10220.008,240.0
10224.096,248.0
10228.186,264.0
10232.276,227.0
10236.369,207.0
10240.464,242.0
10244.56,238.0
10248.657,208.0
10252.757,231.0
10256.858,247.0
10260.961,246.0
10265.065,257.0
10269.172,267.0
10273.279,271.0
10277.389,237.0
10281.5,252.0
10285.612,236.0
10289.727,240.0
10293.843,238.0
10297.96,248.0
10302.079,234.0
10306.2,249.0
10310.322,241.0
10314.446,239.0
10318.572,241.0
10322.699,271.0
10326.828,269.0
10330.959,275.0
10335.092,264.0
10339.226,247.0
10343.361,222.0
10347.499,236.0
10351.638,273.0
10355.778,251.0
10359.921,243.0
10364.064,234.0
10368.21,222.0
10372.357,246.0
10376.507,262.0
10380.657,252.0
10384.81,239.0
10388.964,270.0
10393.119,248.0
10397.276,229.0
10401.436,258.0
10405.596,288.0
10409.758,262.0
10413.922,257.0
10418.088,246.0
10422.255,237.0
10426.424,285.0
10430.595,240.0
10434.767,282.0
10438.94,271.0
10443.116,249.0
10447.294,228.0
10451.473,267.0
10455.653,268.0
10459.836,255.0
10464.02,223.0
10468.205,254.0
10472.393,250.0
10476.581,248.0
10480.771,242.0
10484.964,254.0
10489.158,246.0
10493.354,261.0
10497.551,196.0
10501.75,238.0
10505.951,264.0
10510.153,231.0
10514.357,244.0
10518.563,238.0
10522.7705,264.0
10526.9795,222.0
10531.19,262.0
10535.403,260.0
10539.617,248.0
10543.833,255.0
10548.051,259.0
10552.27,251.0
10556.49,226.0
10560.713,281.0
10564.9375,276.0
10569.163,224.0
10573.391,211.0
10577.62,273.0
10581.852,240.0
10586.084,271.0
10590.318,251.0
10594.555,241.0
10598.793,244.0
10603.032,278.0
10607.273,236.0
10611.517,256.0
10615.761,271.0
10620.007,274.0
10624.255,268.0
10628.505,222.0
10632.756,246.0
10637.009,265.0
10641.264,218.0
10645.5205,269.0
10649.778,245.0
10654.038,242.0
10658.3,248.0
10662.563,236.0
10666.828,236.0
10671.095,266.0
10675.363,237.0
10679.634,265.0
10683.905,285.0
10688.179,269.0
10692.454,265.0
10696.731,270.0
10701.01,258.0
10705.29,247.0
10709.572,252.0
10713.856,259.0
10718.142,284.0
10722.429,292.0
10726.718,265.0
10731.009,246.0
10735.301,280.0
10739.595,282.0
10743.891,259.0
10748.188,256.0
10752.487,248.0
10756.788,302.0
10761.091,269.0
10765.3955,269.0
10769.702,310.0
10774.01,279.0
10778.319,269.0
10782.631,283.0
10786.944,273.0
10791.259,270.0
10795.575,259.0
10799.894,250.0
10804.214,268.0
10808.535,256.0
10812.858,265.0
10817.184,249.0
10821.511,251.0
10825.839,260.0
10830.169,284.0
10834.501,271.0
10838.835,260.0
10843.171,275.0
10847.508,256.0
10851.847,279.0
10856.1875,268.0
10860.53,285.0
10864.874,245.0
10869.22,289.0
10873.567,245.0
10877.917,264.0
10882.269,289.0
10886.621,276.0
10890.976,256.0
10895.332,286.0
10899.69,272.0
10904.051,299.0
10908.412,301.0
10912.775,282.0
10917.141,314.0
10921.508,278.0
10925.876,304.0
10930.246,280.0
10934.618,307.0
10938.992,295.0
10943.368,316.0
10947.745,299.0
10952.124,308.0
10956.505,295.0
10960.888,295.0
10965.272,326.0
10969.658,307.0
10974.046,333.0
10978.436,331.0
10982.827,333.0
10987.221,335.0
10991.615,346.0
10996.012,327.0
11000.41,319.0
11004.811,280.0
11009.213,298.0
11013.616,336.0
11018.021,286.0
11022.429,308.0
11026.838,352.0
11031.249,327.0
11035.661,307.0
11040.075,345.0
11044.491,302.0
11048.909,314.0
11053.329,318.0
11057.75,322.0
11062.173,303.0
11066.598,344.0
11071.024,346.0
11075.453,339.0
11079.884,325.0
11084.315,351.0
11088.749,361.0
11093.185,329.0
11097.622,348.0
11102.062,330.0
11106.502,342.0
11110.944,314.0
11115.389,348.0
11119.835,337.0
11124.283,346.0
11128.733,334.0
11133.185,390.0
11137.638,345.0
11142.093,383.0
11146.55,363.0
11151.009,372.0
11155.469,329.0
11159.931,363.0
11164.395,346.0
11168.86,394.0
11173.328,420.0
11177.798,392.0
11182.269,368.0
11186.741,409.0
11191.216,347.0
11195.692,368.0
11200.171,386.0
11204.651,356.0
11209.133,394.0
11213.616,428.0
11218.102,404.0
11222.589,416.0
11227.078,394.0
11231.569,401.0
11236.062,400.0
11240.556,415.0
11245.052,461.0
11249.55,479.0
11254.05,426.0
11258.552,446.0
11263.056,462.0
11267.561,421.0
11272.067,441.0
11276.576,465.0
11281.087,498.0
11285.6,473.0
11290.114,464.0
11294.63,509.0
11299.147,529.0
11303.667,524.0
11308.188,506.0
11312.712,540.0
11317.237,524.0
11321.765,528.0
11326.293,586.0
11330.823,572.0
11335.355,609.0
11339.89,580.0
11344.426,661.0
11348.964,639.0
11353.504,587.0
11358.045,674.0
11362.588,675.0
11367.133,627.0
11371.68,646.0
11376.229,702.0
11380.779,706.0
11385.332,707.0
11389.886,748.0
11394.441,770.0
11398.999,767.0
11403.559,817.0
11408.12,850.0
11412.684,835.0
11417.249,846.0
11421.816,888.0
11426.385,921.0
11430.955,898.0
11435.527,971.0
11440.102,918.0
11444.678,1023.0
11449.256,1063.0
11453.836,996.0
11458.417,1033.0
11463.0,1146.0
11467.585,1101.0
11472.172,1169.0
11476.761,1155.0
11481.352,1207.0
11485.944,1207.0
11490.539,1201.0
11495.136,1316.0
11499.733,1304.0
11504.333,1328.0
11508.935,1355.0
11513.538,1453.0
11518.144,1412.0
11522.751,1371.0
11527.36,1464.0
11531.972,1412.0
11536.584,1380.0
11541.198,1512.0
11545.814,1575.0
11550.433,1505.0
11555.053,1427.0
11559.675,1580.0
11564.299,1589.0
11568.925,1430.0
11573.553,1586.0
11578.183,1755.0
11582.813,1602.0
11587.446,1465.0
11592.081,1687.0
11596.718,1739.0
11601.356,1541.0
11605.997,1508.0
11610.64,1855.0
11615.284,1762.0
11619.931,1472.0
11624.579,1690.0
11629.229,1739.0
11633.88,1529.0
11638.533,1645.0
11643.188,1896.0
11647.846,1597.0
11652.505,1286.0
11657.166,1648.0
11661.829,1886.0
11666.494,1366.0
11671.161,1332.0
11675.83,2029.0
11680.5,1942.0
11685.172,1316.0
11689.846,1277.0
11694.521,1411.0
11699.199,1233.0
11703.879,1043.0
11708.561,1073.0
11713.244,916.0
11717.93,884.0
11722.617,874.0
11727.307,821.0
11731.998,758.0
11736.69,701.0
11741.385,688.0
11746.081,669.0
11750.779,624.0
11755.4795,704.0
11760.182,638.0
11764.886,589.0
11769.592,573.0
11774.3,625.0
11779.01,597.0
11783.722,588.0
11788.436,580.0
11793.151,572.0
11797.868,542.0
11802.587,562.0
11807.308,591.0
11812.03,509.0
11816.755,504.0
11821.481,610.0
11826.21,579.0
11830.94,488.0
11835.673,511.0
11840.407,470.0
11845.144,451.0
11849.882,509.0
11854.622,449.0
11859.364,408.0
11864.108,438.0
11868.8545,449.0
11873.602,354.0
11878.351,405.0
11883.102,380.0
11887.8545,343.0
11892.609,363.0
11897.366,343.0
11902.125,324.0
11906.886,312.0
11911.648,349.0
11916.413,368.0
11921.18,302.0
11925.948,317.0
11930.719,290.0
11935.491,300.0
11940.266,321.0
11945.042,288.0
11949.82,324.0
11954.601,305.0
11959.383,313.0
11964.167,311.0
11968.953,306.0
11973.74,295.0
11978.529,286.0
11983.32,268.0
11988.113,253.0
11992.908,254.0
