M/Z,Intensity
800.0,160.0
800.32,126.0
800.64014,39.0
800.9604,233.0
801.28076,232.0
801.60126,59.0
801.9219,134.0
802.2426,152.0
802.56354,86.0
802.8846,502.0
803.20575,260.0
803.52704,56.0
803.84845,222.0
804.17,232.0
804.49164,76.0
804.8134,65.0
805.1353,187.0
805.4574,98.0
805.7796,64.0
806.1019,131.0
806.4244,77.0
806.74695,32.0
807.06964,134.0
807.39246,102.0
807.7154,46.0
808.03845,113.0
808.3617,97.0
808.68506,42.0
809.00854,106.0
809.33215,150.0
809.6559,36.0
809.97974,112.0
810.3037,137.0
810.6278,50.0
810.9521,139.0
811.2765,122.0
811.601,47.0
811.92566,117.0
812.2504,167.0
812.5753,56.0
812.9003,101.0
813.22546,143.0
813.5508,52.0
813.8762,76.0
814.2018,148.0
814.52747,51.0
814.8533,116.0
815.1792,169.0
815.50525,73.0
815.8314,66.0
816.1578,147.0
816.48425,83.0
816.81085,225.0
817.1376,307.0
817.4644,107.0
817.7914,99.0
818.11847,227.0
818.44574,87.0
818.77313,107.0
819.10065,211.0
819.4283,91.0
819.75604,65.0
820.0839,161.0
820.412,88.0
820.7402,77.0
821.0685,158.0
821.3969,111.0
821.72546,60.0
822.05414,116.0
822.38293,87.0
822.7119,82.0
823.041,311.0
823.37024,116.0
823.6996,72.0
824.02905,266.0
824.35864,139.0
824.6884,430.0
825.0183,6005.0
825.3483,296.0
825.67847,240.0
826.0087,2625.0
826.3391,187.0
826.6696,102.0
827.0003,840.0
827.3311,153.0
827.66205,70.0
827.9931,276.0
828.3243,136.0
828.65564,55.0
828.9871,130.0
829.3187,147.0
829.65045,53.0
829.9823,95.0
830.3143,136.0
830.6464,63.0
830.9787,133.0
831.3111,130.0
831.6436,43.0
831.97626,115.0
832.309,108.0
832.64197,49.0
832.97504,139.0
833.3082,134.0
833.64154,48.0
833.975,104.0
834.3086,127.0
834.64233,59.0
834.9762,149.0
835.3102,116.0
835.6443,47.0
835.9785,120.0
836.3129,129.0
836.64746,56.0
836.9821,244.0
837.3169,137.0
837.6518,42.0
837.9869,165.0
838.3221,128.0
838.6574,81.0
838.99286,767.0
839.3284,133.0
839.6642,77.0
840.00006,425.0
840.33606,152.0
840.6722,163.0
841.0084,1133.0
841.34485,140.0
841.6814,95.0
842.01807,578.0
842.35486,134.0
842.6918,96.0
843.0289,353.0
843.3661,142.0
843.7034,58.0
844.0409,152.0
844.37854,98.0
844.7163,163.0
845.0542,540.0
845.3922,167.0
845.73035,88.0
846.06866,328.0
846.4071,114.0
846.74567,110.0
847.08435,245.0
847.42316,91.0
847.76215,64.0
848.10126,173.0
848.4405,88.0
848.77985,77.0
849.1194,121.0
849.45905,80.0
849.7988,56.0
850.13873,126.0
850.47876,84.0
850.819,67.0
851.1593,123.0
851.49976,87.0
851.84033,61.0
852.1811,130.0
852.522,72.0
852.863,83.0
853.2041,136.0
853.5454,66.0
853.88684,77.0
854.2284,115.0
854.57007,96.0
854.9119,595.0
855.2539,138.0
855.596,78.0
855.93823,304.0
856.2806,133.0
856.6231,70.0
856.96576,269.0
857.30853,130.0
857.6514,68.0
857.9945,138.0
858.3377,120.0
858.681,64.0
859.0245,219.0
859.3681,118.0
859.71185,49.0
860.0557,149.0
860.3997,118.0
860.7439,886.0
861.0882,1317.0
861.4326,154.0
861.77716,544.0
862.1219,495.0
862.46674,108.0
862.8117,379.0
863.15686,208.0
863.50214,93.0
863.84753,160.0
864.19305,148.0
864.53876,65.0
864.8846,163.0
865.2305,134.0
865.5766,72.0
865.92285,114.0
866.2692,108.0
866.6157,67.0
866.96234,347.0
867.30914,114.0
867.65607,62.0
868.0031,170.0
868.35034,105.0
868.6977,63.0
869.04517,123.0
869.39276,98.0
869.74054,47.0
870.08844,117.0
870.43646,105.0
870.7846,93.0
871.13293,117.0
871.4814,84.0
871.82996,66.0
872.1787,115.0
872.5276,69.0
872.8766,114.0
873.2257,147.0
873.575,67.0
873.92444,96.0
874.274,146.0
874.6237,69.0
874.9736,113.0
875.32355,118.0
875.6737,51.0
876.024,110.0
876.3744,138.0
876.7249,200.0
877.0756,357.0
877.42645,134.0
877.7774,192.0
878.12854,175.0
878.4798,82.0
878.8312,173.0
879.18274,138.0
879.5344,64.0
879.8862,114.0
880.23816,151.0
880.5903,48.0
880.9425,123.0
881.29486,99.0
881.6474,64.0
882.00006,117.0
882.35284,101.0
882.7058,99.0
883.0589,156.0
883.4121,110.0
883.7655,79.0
884.119,126.0
884.47266,91.0
884.8264,87.0
885.18036,115.0
885.5344,87.0
885.8886,71.0
886.243,112.0
886.5975,44.0
886.9521,112.0
887.3069,118.0
887.6618,49.0
888.01685,110.0
888.3721,96.0
888.7274,51.0
889.0829,127.0
889.43854,129.0
889.7943,67.0
890.1502,114.0
890.5063,133.0
890.8625,58.0
891.2188,114.0
891.5753,78.0
891.93195,63.0
892.2887,109.0
892.6456,61.0
893.0027,107.0
893.35986,140.0
893.7172,41.0
894.0747,103.0
894.4323,77.0
894.7901,65.0
895.148,129.0
895.50604,77.0
895.86426,72.0
896.2226,113.0
896.58105,47.0
896.9397,99.0
897.29846,115.0
897.6574,40.0
898.0165,102.0
898.3757,104.0
898.73505,71.0
899.09454,129.0
899.45416,99.0
899.81396,79.0
900.1739,127.0
900.53394,68.0
900.89417,74.0
901.2545,127.0
901.615,46.0
901.97565,84.0
902.3364,98.0
902.6974,52.0
903.0585,109.0
903.4197,109.0
903.78107,65.0
904.1426,126.0
904.5042,97.0
904.866,95.0
905.22797,127.0
905.5901,63.0
905.95233,79.0
906.3147,147.0
906.67725,53.0
907.0399,95.0
907.4027,128.0
907.7657,36.0
908.1288,119.0
908.49207,84.0
908.85547,48.0
909.219,99.0
909.5827,63.0
909.94653,70.0
910.3105,99.0
910.6746,54.0
911.0389,111.0
911.4033,108.0
911.7679,47.0
912.13257,102.0
912.49744,67.0
912.8624,48.0
913.2276,122.0
913.5929,65.0
913.9583,83.0
914.3239,121.0
914.68964,41.0
915.05554,92.0
915.4216,101.0
915.7877,62.0
916.15405,121.0
916.5205,73.0
916.88715,59.0
917.2539,170.0
917.6208,47.0
917.98785,71.0
918.35504,134.0
918.7224,41.0
919.0899,93.0
919.4575,99.0
919.8253,60.0
920.19324,177.0
920.56134,47.0
920.92957,77.0
921.2979,139.0
921.66644,46.0
922.0351,118.0
922.40393,97.0
922.7729,55.0
923.14197,120.0
923.5112,75.0
923.8806,66.0
924.2502,105.0
924.6199,62.0
924.98975,77.0
925.35974,100.0
925.72986,44.0
926.10016,114.0
926.4706,81.0
926.8412,71.0
927.2119,116.0
927.5828,39.0
927.95386,71.0
928.325,111.0
928.69635,45.0
929.0678,97.0
929.43945,102.0
929.8112,60.0
930.18317,127.0
930.55524,74.0
930.9274,59.0
931.2998,89.0
931.6723,53.0
932.045,74.0
932.4178,105.0
932.7908,58.0
933.1639,97.0
933.5372,79.0
933.9106,68.0
934.2841,128.0
934.65784,47.0
935.0317,84.0
935.4057,109.0
935.77985,49.0
936.1542,88.0
936.5286,60.0
936.90326,66.0
937.278,127.0
937.65295,43.0
938.028,82.0
938.4032,86.0
938.77856,44.0
939.15405,92.0
939.5297,72.0
939.9055,76.0
940.2815,85.0
940.6576,52.0
941.0339,93.0
941.4103,100.0
941.78687,55.0
942.1636,108.0
942.54047,68.0
942.9175,86.0
943.2947,114.0
943.672,51.0
944.04944,112.0
944.42706,70.0
944.8048,60.0
945.18274,102.0
945.5608,74.0
945.939,81.0
946.3174,114.0
946.6959,51.0
947.0746,105.0
947.4534,91.0
947.8324,81.0
948.21155,147.0
948.5908,65.0
948.9703,95.0
949.34985,106.0
949.7296,50.0
950.1095,98.0
950.48956,73.0
950.86975,65.0
951.2501,121.0
951.6306,57.0
952.0113,76.0
952.3921,105.0
952.7731,39.0
953.1542,98.0
953.53546,65.0
953.9169,55.0
954.29846,116.0
954.6802,56.0
955.0621,67.0
955.4441,107.0
955.8263,65.0
956.2086,86.0
956.5911,49.0
956.97375,77.0
957.35657,86.0
957.7395,41.0
958.1226,97.0
958.50586,89.0
958.8893,63.0
959.2728,107.0
959.65656,41.0
960.0404,73.0
960.42444,78.0
960.8086,59.0
961.19293,109.0
961.5774,57.0
961.96204,86.0
962.3468,110.0
962.73175,54.0
963.1168,87.0
963.5021,71.0
963.88745,107.0
964.273,93.0
964.6587,44.0
965.04456,80.0
965.4306,107.0
965.8168,62.0
966.2031,82.0
966.5896,68.0
966.97626,82.0
967.36304,70.0
967.75,35.0
968.1371,106.0
968.52435,97.0
968.91174,71.0
969.2993,96.0
969.687,51.0
970.0749,214.0
970.4629,105.0
970.8511,117.0
971.23944,113.0
971.6279,58.0
972.0166,113.0
972.4054,100.0
972.7944,51.0
973.1835,107.0
973.57275,69.0
973.96216,61.0
974.35175,102.0
974.7415,39.0
975.1314,75.0
975.5215,58.0
975.9117,66.0
976.30206,112.0
976.69257,44.0
977.08325,84.0
977.47406,93.0
977.86505,56.0
978.2562,100.0
978.6475,59.0
979.039,81.0
979.4306,97.0
979.8224,52.0
980.2143,79.0
980.6064,62.0
980.99866,74.0
981.39105,86.0
981.7836,88.0
982.17633,113.0
982.5692,88.0
982.9622,90.0
983.3554,92.0
983.7488,61.0
984.1423,115.0
984.53595,55.0
984.92975,91.0
985.3237,103.0
985.71783,67.0
986.1121,144.0
986.5066,87.0
986.9012,114.0
987.29596,107.0
987.69086,42.0
988.08594,110.0
988.4812,72.0
988.8766,89.0
989.27216,106.0
989.66785,60.0
990.0637,102.0
990.4597,98.0
990.8559,75.0
991.25226,90.0
991.64874,59.0
992.0454,172.0
992.4422,95.0
992.8392,110.0
993.2363,113.0
993.6336,42.0
994.03107,146.0
994.42865,98.0
994.8264,79.0
995.22437,103.0
995.62244,61.0
996.0207,108.0
996.4191,65.0
996.8177,58.0
997.21643,99.0
997.6153,65.0
998.01434,66.0
998.4136,92.0
998.8129,57.0
999.21246,110.0
999.6121,60.0
1000.01196,100.0
1000.412,97.0
1000.81213,61.0
1001.21246,89.0
1001.613,81.0
1002.0136,84.0
1002.4144,95.0
1002.81537,62.0
1003.2165,94.0
1003.6178,69.0
1004.0192,93.0
1004.42084,93.0
1004.82263,48.0
1005.22455,116.0
1005.62665,61.0
1006.0289,205.0
1006.4313,103.0
1006.83386,99.0
1007.2366,116.0
1007.63947,75.0
1008.04254,249.0
1008.44574,88.0
1008.8491,149.0
1009.2527,117.0
1009.6564,55.0
1010.06024,143.0
1010.4643,87.0
1010.86847,96.0
1011.2728,98.0
1011.6773,46.0
1012.082,130.0
1012.4868,84.0
1012.8918,85.0
1013.29694,106.0
1013.7023,119.0
1014.1077,400.0
1014.51337,81.0
1014.9192,244.0
1015.32513,96.0
1015.73126,77.0
1016.1376,178.0
1016.544,79.0
1016.9506,100.0
1017.3574,96.0
1017.76434,61.0
1018.17145,98.0
1018.57874,72.0
1018.98615,54.0
1019.39374,108.0
1019.8015,49.0
1020.2094,90.0
1020.6175,63.0
1021.02576,62.0
1021.43414,123.0
1021.8427,84.0
1022.25146,105.0
1022.66034,67.0
1023.0694,106.0
1023.47864,89.0
1023.888,89.0
1024.2976,104.0
1024.7073,57.0
1025.1172,78.0
1025.5272,77.0
1025.9374,81.0
1026.3478,115.0
1026.7583,62.0
1027.169,98.0
1027.5798,78.0
1027.9908,206.0
1028.4021,100.0
1028.8135,108.0
1029.225,105.0
1029.6367,115.0
1030.0486,502.0
1030.4606,89.0
1030.8728,303.0
1031.2852,129.0
1031.6976,94.0
1032.1104,147.0
1032.5232,66.0
1032.9362,82.0
1033.3494,91.0
1033.7627,115.0
1034.1761,142.0
1034.5898,58.0
1035.0037,125.0
1035.4177,89.0
1035.8319,173.0
1036.2462,117.0
1036.6608,75.0
1037.0754,140.0
1037.4902,91.0
1037.9053,107.0
1038.3204,100.0
1038.7357,69.0
1039.1512,98.0
1039.5669,80.0
1039.9827,87.0
1040.3987,96.0
1040.8148,60.0
1041.2312,82.0
1041.6477,57.0
1042.0643,72.0
1042.4812,88.0
1042.8982,73.0
1043.3153,119.0
1043.7327,123.0
1044.1501,127.0
1044.5677,95.0
1044.9856,113.0
1045.4036,99.0
1045.8218,117.0
1046.2401,105.0
1046.6586,58.0
1047.0773,104.0
1047.4961,89.0
1047.915,96.0
1048.3342,110.0
1048.7535,61.0
1049.1731,100.0
1049.5928,112.0
1050.0126,424.0
1050.4326,124.0
1050.8528,273.0
1051.2731,123.0
1051.6936,109.0
1052.1143,210.0
1052.5352,74.0
1052.9562,146.0
1053.3773,108.0
1053.7987,157.0
1054.2202,125.0
1054.6418,72.0
1055.0637,139.0
1055.4857,78.0
1055.908,138.0
1056.3303,101.0
1056.7528,85.0
1057.1755,114.0
1057.5984,105.0
1058.0215,93.0
1058.4447,105.0
1058.868,67.0
1059.2916,87.0
1059.7153,83.0
1060.1392,138.0
1060.5632,145.0
1060.9874,108.0
1061.4119,132.0
1061.8364,77.0
1062.2611,122.0
1062.686,61.0
1063.1111,82.0
1063.5364,87.0
1063.9618,87.0
1064.3873,96.0
1064.8131,63.0
1065.239,105.0
1065.6652,212.0
1066.0914,380.0
1066.5178,104.0
1066.9445,323.0
1067.3712,113.0
1067.7982,187.0
1068.2253,121.0
1068.6526,88.0
1069.0801,98.0
1069.5077,77.0
1069.9355,119.0
1070.3635,100.0
1070.7916,84.0
1071.22,93.0
1071.6484,126.0
1072.0771,223.0
1072.506,78.0
1072.9349,185.0
1073.3641,119.0
1073.7935,138.0
1074.223,108.0
1074.6527,75.0
1075.0825,118.0
1075.5126,99.0
1075.9427,102.0
1076.3732,85.0
1076.8037,65.0
1077.2344,91.0
1077.6653,103.0
1078.0963,181.0
1078.5276,69.0
1078.959,125.0
1079.3906,88.0
1079.8224,103.0
1080.2543,107.0
1080.6864,68.0
1081.1187,78.0
1081.5511,101.0
1081.9838,127.0
1082.4165,70.0
1082.8495,102.0
1083.2826,89.0
1083.716,85.0
1084.1494,80.0
1084.5831,71.0
1085.017,74.0
1085.4509,94.0
1085.8851,74.0
1086.3195,98.0
1086.754,48.0
1087.1887,78.0
1087.6235,101.0
1088.0586,133.0
1088.4938,92.0
1088.9292,102.0
1089.3647,91.0
1089.8005,107.0
1090.2365,132.0
1090.6725,76.0
1091.1088,113.0
1091.5452,128.0
1091.9818,71.0
1092.4186,96.0
1092.8556,58.0
1093.2927,120.0
1093.7301,90.0
1094.1676,113.0
1094.6052,85.0
1095.0431,101.0
1095.4811,125.0
1095.9193,112.0
1096.3577,94.0
1096.7963,70.0
1097.235,103.0
1097.6738,68.0
1098.1129,89.0
1098.5521,84.0
1098.9916,84.0
1099.4312,74.0
1099.871,94.0
1100.3109,92.0
1100.751,87.0
1101.1913,74.0
1101.6317,77.0
1102.0724,79.0
1102.5132,95.0
1102.9542,69.0
1103.3954,79.0
1103.8368,83.0
1104.2783,99.0
1104.72,70.0
1105.1619,93.0
1105.6039,80.0
1106.0461,75.0
1106.4885,77.0
1106.9312,73.0
1107.3739,98.0
1107.8169,49.0
1108.26,90.0
1108.7034,60.0
1109.1469,108.0
1109.5905,86.0
1110.0343,81.0
1110.4783,81.0
1110.9225,78.0
1111.3668,108.0
1111.8114,84.0
1112.2561,87.0
1112.701,74.0
1113.1461,72.0
1113.5914,78.0
1114.0369,73.0
1114.4824,95.0
1114.9282,80.0
1115.3741,94.0
1115.8203,55.0
1116.2666,83.0
1116.7131,75.0
1117.1598,79.0
1117.6067,66.0
1118.0537,88.0
1118.501,83.0
1118.9484,62.0
1119.396,100.0
1119.8438,60.0
1120.2917,99.0
1120.7399,56.0
1121.1881,91.0
1121.6366,69.0
1122.0852,79.0
1122.534,83.0
1122.983,59.0
1123.4323,74.0
1123.8816,50.0
1124.3312,93.0
1124.7809,63.0
1125.2308,86.0
1125.6809,62.0
1126.1312,67.0
1126.5817,80.0
1127.0323,69.0
1127.4832,92.0
1127.9342,46.0
1128.3854,88.0
1128.8367,79.0
1129.2882,70.0
1129.7399,52.0
1130.1918,84.0
1130.6438,69.0
1131.0961,74.0
1131.5485,70.0
1132.0011,70.0
1132.4539,88.0
1132.9069,74.0
1133.36,93.0
1133.8134,51.0
1134.2668,96.0
1134.7206,64.0
1135.1744,84.0
1135.6285,69.0
1136.0828,78.0
1136.5372,66.0
1136.9918,73.0
1137.4467,88.0
1137.9016,68.0
1138.3568,96.0
1138.8121,57.0
1139.2677,102.0
1139.7234,72.0
1140.1793,74.0
1140.6354,59.0
1141.0917,75.0
1141.5481,75.0
1142.0048,72.0
1142.4615,92.0
1142.9186,52.0
1143.3757,86.0
1143.8331,65.0
1144.2906,104.0
1144.7484,48.0
1145.2063,76.0
1145.6644,63.0
1146.1227,82.0
1146.5812,71.0
1147.0398,61.0
1147.4987,85.0
1147.9576,55.0
1148.4169,108.0
1148.8762,74.0
1149.3358,120.0
1149.7955,69.0
1150.2555,75.0
1150.7156,61.0
1151.1759,79.0
1151.6364,89.0
1152.097,63.0
1152.5579,77.0
1153.0189,81.0
1153.4801,95.0
1153.9415,74.0
1154.4031,89.0
1154.8649,72.0
1155.3268,105.0
1155.789,58.0
1156.2512,86.0
1156.7137,64.0
1157.1764,89.0
1157.6393,90.0
1158.1023,67.0
1158.5656,88.0
1159.0289,72.0
1159.4926,89.0
1159.9563,77.0
1160.4203,82.0
1160.8844,73.0
1161.3488,94.0
1161.8134,58.0
1162.2781,71.0
1162.743,51.0
1163.2081,76.0
1163.6735,51.0
1164.1389,66.0
1164.6046,73.0
1165.0704,82.0
1165.5365,80.0
1166.0027,84.0
1166.4691,118.0
1166.9357,69.0
1167.4025,104.0
1167.8694,58.0
1168.3365,85.0
1168.8038,62.0
1169.2714,88.0
1169.739,74.0
1170.2069,94.0
1170.675,63.0
1171.1433,92.0
1171.6118,91.0
1172.0804,90.0
1172.5493,74.0
1173.0183,84.0
1173.4875,90.0
1173.9569,73.0
1174.4265,104.0
1174.8962,75.0
1175.3662,79.0
1175.8363,69.0
1176.3066,91.0
1176.7772,87.0
1177.2479,95.0
1177.7189,57.0
1178.19,81.0
1178.6613,62.0
1179.1327,104.0
1179.6044,54.0
1180.0762,72.0
1180.5482,83.0
1181.0204,111.0
1181.4928,91.0
1181.9655,85.0
1182.4382,80.0
1182.9113,77.0
1183.3844,94.0
1183.8578,64.0
1184.3313,84.0
1184.805,58.0
1185.2789,102.0
1185.753,74.0
1186.2273,71.0
1186.7018,68.0
1187.1765,93.0
1187.6514,75.0
1188.1265,58.0
1188.6017,83.0
1189.0771,73.0
1189.5527,94.0
1190.0286,77.0
1190.5045,77.0
1190.9807,74.0
1191.4572,89.0
1191.9337,66.0
1192.4105,100.0
1192.8875,60.0
1193.3646,105.0
1193.8419,63.0
1194.3195,93.0
1194.7972,97.0
1195.2751,86.0
1195.7533,79.0
1196.2316,96.0
1196.7101,91.0
1197.1887,108.0
1197.6676,82.0
1198.1467,81.0
1198.626,72.0
1199.1055,79.0
1199.5851,100.0
1200.065,56.0
1200.5449,98.0
1201.0251,72.0
1201.5056,74.0
1201.9862,63.0
1202.467,97.0
1202.948,82.0
1203.4292,95.0
1203.9105,75.0
1204.3921,88.0
1204.8739,87.0
1205.3558,78.0
1205.838,66.0
1206.3203,86.0
1206.8029,58.0
1207.2855,90.0
1207.7684,63.0
1208.2516,84.0
1208.7349,73.0
1209.2184,84.0
1209.702,71.0
1210.1859,80.0
1210.67,70.0
1211.1543,82.0
1211.6388,77.0
1212.1234,91.0
1212.6083,72.0
1213.0933,91.0
1213.5785,76.0
1214.064,62.0
1214.5496,90.0
1215.0354,65.0
1215.5214,88.0
1216.0076,78.0
1216.494,75.0
1216.9806,95.0
1217.4674,93.0
1217.9543,73.0
1218.4415,87.0
1218.929,114.0
1219.4165,80.0
1219.9043,100.0
1220.3922,102.0
1220.8804,71.0
1221.3688,83.0
1221.8573,73.0
1222.3461,82.0
1222.835,70.0
1223.3241,81.0
1223.8135,78.0
1224.303,77.0
1224.7927,72.0
1225.2826,95.0
1225.7727,78.0
1226.2631,68.0
1226.7535,72.0
1227.2443,83.0
1227.7351,70.0
1228.2262,78.0
1228.7175,69.0
1229.209,76.0
1229.7007,69.0
1230.1925,86.0
1230.6846,74.0
1231.1769,65.0
1231.6693,73.0
1232.162,64.0
1232.6549,87.0
1233.148,87.0
1233.6412,80.0
1234.1346,97.0
1234.6283,76.0
1235.1222,107.0
1235.6162,73.0
1236.1105,82.0
1236.6049,94.0
1237.0995,82.0
1237.5944,63.0
1238.0894,75.0
1238.5846,90.0
1239.0801,100.0
1239.5757,87.0
1240.0715,72.0
1240.5675,100.0
1241.0637,139.0
1241.5602,76.0
1242.0568,104.0
1242.5536,90.0
1243.0507,120.0
1243.5479,109.0
1244.0453,93.0
1244.5428,94.0
1245.0406,97.0
1245.5387,87.0
1246.0369,76.0
1246.5353,96.0
1247.0339,124.0
1247.5327,88.0
1248.0317,107.0
1248.531,87.0
1249.0304,109.0
1249.53,101.0
1250.0298,81.0
1250.5298,92.0
1251.03,78.0
1251.5304,82.0
1252.031,64.0
1252.5319,79.0
1253.0328,71.0
1253.534,70.0
1254.0355,56.0
1254.5371,89.0
1255.039,119.0
1255.541,80.0
1256.0432,82.0
1256.5457,72.0
1257.0482,94.0
1257.551,84.0
1258.0541,90.0
1258.5573,90.0
1259.0607,70.0
1259.5643,75.0
1260.0681,68.0
1260.5721,101.0
1261.0764,148.0
1261.5808,99.0
1262.0854,133.0
1262.5903,74.0
1263.0953,136.0
1263.6006,110.0
1264.1061,115.0
1264.6117,94.0
1265.1176,103.0
1265.6237,81.0
1266.1299,74.0
1266.6364,98.0
1267.1431,103.0
1267.6499,85.0
1268.157,95.0
1268.6642,75.0
1269.1716,79.0
1269.6793,95.0
1270.1871,65.0
1270.6952,115.0
1271.2035,77.0
1271.7119,87.0
1272.2206,73.0
1272.7295,82.0
1273.2385,85.0
1273.7478,76.0
1274.2573,73.0
1274.767,62.0
1275.2769,91.0
1275.787,56.0
1276.2972,83.0
1276.8077,161.0
1277.3185,83.0
1277.8295,164.0
1278.3406,96.0
1278.8519,139.0
1279.3635,105.0
1279.8752,97.0
1280.3872,63.0
1280.8994,77.0
1281.4117,80.0
1281.9243,86.0
1282.4371,83.0
1282.9501,138.0
1283.4633,99.0
1283.9767,112.0
1284.4902,96.0
1285.004,115.0
1285.5181,94.0
1286.0322,83.0
1286.5466,97.0
1287.0613,89.0
1287.576,104.0
1288.0911,81.0
1288.6063,122.0
1289.1218,122.0
1289.6375,105.0
1290.1533,131.0
1290.6694,76.0
1291.1857,87.0
1291.7021,78.0
1292.2189,83.0
1292.7357,113.0
1293.2528,78.0
1293.7701,83.0
1294.2876,79.0
1294.8053,87.0
1295.3232,86.0
1295.8414,74.0
1296.3597,80.0
1296.8783,56.0
1297.3971,89.0
1297.916,63.0
1298.4352,68.0
1298.9546,88.0
1299.4741,83.0
1299.9939,60.0
1300.5139,84.0
1301.0342,73.0
1301.5546,94.0
1302.0752,80.0
1302.5961,85.0
1303.1171,66.0
1303.6383,89.0
1304.1598,79.0
1304.6814,91.0
1305.2032,77.0
1305.7253,85.0
1306.2477,100.0
1306.7701,80.0
1307.2928,74.0
1307.8158,64.0
1308.3389,90.0
1308.8622,75.0
1309.3857,94.0
1309.9095,57.0
1310.4335,68.0
1310.9576,80.0
1311.482,68.0
1312.0066,65.0
1312.5314,88.0
1313.0564,48.0
1313.5817,83.0
1314.107,60.0
1314.6327,67.0
1315.1586,57.0
1315.6847,67.0
1316.2109,72.0
1316.7374,61.0
1317.2642,71.0
1317.791,67.0
1318.3181,65.0
1318.8455,65.0
1319.373,91.0
1319.9008,62.0
1320.4287,73.0
1320.9569,87.0
1321.4854,83.0
1322.0139,67.0
1322.5427,97.0
1323.0718,69.0
1323.601,79.0
1324.1304,64.0
1324.66,88.0
1325.19,77.0
1325.72,65.0
1326.2502,60.0
1326.7808,70.0
1327.3115,75.0
1327.8424,68.0
1328.3735,80.0
1328.9049,63.0
1329.4365,91.0
1329.9683,60.0
1330.5002,89.0
1331.0325,71.0
1331.565,120.0
1332.0975,57.0
1332.6304,105.0
1333.1635,58.0
1333.6968,97.0
1334.2302,77.0
1334.7639,70.0
1335.2979,64.0
1335.832,65.0
1336.3663,74.0
1336.9009,64.0
1337.4357,67.0
1337.9707,50.0
1338.5059,72.0
1339.0413,71.0
1339.5769,85.0
1340.1128,62.0
1340.6488,64.0
1341.185,59.0
1341.7216,65.0
1342.2583,73.0
1342.7952,80.0
1343.3323,90.0
1343.8696,48.0
1344.4072,87.0
1344.945,47.0
1345.4829,105.0
1346.0211,69.0
1346.5596,94.0
1347.0981,74.0
1347.637,80.0
1348.176,74.0
1348.7153,91.0
1349.2548,78.0
1349.7944,57.0
1350.3344,89.0
1350.8745,59.0
1351.4149,77.0
1351.9554,57.0
1352.4962,79.0
1353.0372,55.0
1353.5785,71.0
1354.1199,58.0
1354.6615,70.0
1355.2034,80.0
1355.7455,57.0
1356.2878,96.0
1356.8303,76.0
1357.373,66.0
1357.916,57.0
1358.4592,67.0
1359.0026,43.0
1359.5461,83.0
1360.09,52.0
1360.634,79.0
1361.1783,92.0
1361.7228,81.0
1362.2675,71.0
1362.8124,81.0
1363.3575,92.0
1363.9028,63.0
1364.4484,69.0
1364.9941,57.0
1365.5402,87.0
1366.0864,67.0
1366.6328,95.0
1367.1794,60.0
1367.7263,78.0
1368.2734,69.0
1368.8208,50.0
1369.3683,90.0
1369.916,62.0
1370.464,74.0
1371.0122,65.0
1371.5607,76.0
1372.1093,76.0
1372.6581,82.0
1373.2072,61.0
1373.7565,64.0
1374.306,76.0
1374.8557,56.0
1375.4056,114.0
1375.9558,52.0
1376.5062,105.0
1377.0569,81.0
1377.6077,78.0
1378.1587,70.0
1378.71,81.0
1379.2615,80.0
1379.8132,67.0
1380.3651,87.0
1380.9172,55.0
1381.4696,90.0
1382.0222,61.0
1382.5751,72.0
1383.128,67.0
1383.6813,99.0
1384.2347,55.0
1384.7885,83.0
1385.3424,84.0
1385.8965,78.0
1386.4508,86.0
1387.0054,53.0
1387.5602,80.0
1388.1152,55.0
1388.6705,84.0
1389.226,83.0
1389.7816,68.0
1390.3375,83.0
1390.8937,60.0
1391.4501,92.0
1392.0067,75.0
1392.5635,66.0
1393.1205,79.0
1393.6777,66.0
1394.2352,73.0
1394.793,63.0
1395.3508,74.0
1395.9089,70.0
1396.4673,89.0
1397.0259,72.0
1397.5847,92.0
1398.1438,64.0
1398.703,55.0
1399.2625,71.0
1399.8221,67.0
1400.3821,78.0
1400.9423,66.0
1401.5027,80.0
1402.0632,67.0
1402.624,98.0
1403.185,64.0
1403.7463,99.0
1404.3079,89.0
1404.8696,67.0
1405.4315,75.0
1405.9937,67.0
1406.556,80.0
1407.1187,62.0
1407.6815,102.0
1408.2446,85.0
1408.808,69.0
1409.3715,77.0
1409.9352,69.0
1410.4991,81.0
1411.0634,68.0
1411.6278,85.0
1412.1925,75.0
1412.7573,88.0
1413.3224,73.0
1413.8877,54.0
1414.4532,86.0
1415.019,57.0
1415.5851,96.0
1416.1514,71.0
1416.7178,97.0
1417.2844,83.0
1417.8513,67.0
1418.4185,82.0
1418.9858,61.0
1419.5535,142.0
1420.1213,68.0
1420.6893,92.0
1421.2576,81.0
1421.826,69.0
1422.3948,85.0
1422.9637,62.0
1423.533,76.0
1424.1024,65.0
1424.672,95.0
1425.2418,63.0
1425.8119,70.0
1426.3822,80.0
1426.9528,60.0
1427.5236,78.0
1428.0946,68.0
1428.6659,72.0
1429.2373,75.0
1429.809,85.0
1430.3809,103.0
1430.953,57.0
1431.5254,87.0
1432.098,84.0
1432.6709,95.0
1433.244,80.0
1433.8173,118.0
1434.3907,98.0
1434.9645,62.0
1435.5385,110.0
1436.1127,154.0
1436.6871,111.0
1437.2618,101.0
1437.8368,92.0
1438.412,76.0
1438.9873,77.0
1439.5629,105.0
1440.1387,71.0
1440.7147,65.0
1441.291,77.0
1441.8676,65.0
1442.4443,81.0
1443.0214,63.0
1443.5985,83.0
1444.1759,83.0
1444.7535,85.0
1445.3314,81.0
1445.9095,87.0
1446.4879,85.0
1447.0665,80.0
1447.6454,77.0
1448.2245,70.0
1448.8038,84.0
1449.3833,82.0
1449.963,85.0
1450.543,91.0
1451.1232,62.0
1451.7036,112.0
1452.2843,73.0
1452.8652,84.0
1453.4464,88.0
1454.0278,103.0
1454.6095,84.0
1455.1913,68.0
1455.7733,108.0
1456.3556,79.0
1456.9381,86.0
1457.5209,83.0
1458.1039,72.0
1458.6871,90.0
1459.2706,74.0
1459.8544,84.0
1460.4384,86.0
1461.0226,75.0
1461.6069,133.0
1462.1915,87.0
1462.7764,103.0
1463.3615,106.0
1463.9468,87.0
1464.5323,98.0
1465.1182,65.0
1465.7042,95.0
1466.2905,76.0
1466.8771,89.0
1467.4639,89.0
1468.0509,71.0
1468.6382,94.0
1469.2256,81.0
1469.8132,85.0
1470.4011,92.0
1470.9893,71.0
1471.5776,74.0
1472.1663,82.0
1472.7551,101.0
1473.3442,80.0
1473.9336,93.0
1474.5232,114.0
1475.113,91.0
1475.7031,83.0
1476.2935,92.0
1476.884,72.0
1477.4747,98.0
1478.0657,106.0
1478.6569,108.0
1479.2483,84.0
1479.84,86.0
1480.4319,74.0
1481.024,67.0
1481.6165,103.0
1482.2091,81.0
1482.802,83.0
1483.3951,95.0
1483.9885,73.0
1484.5822,93.0
1485.176,70.0
1485.7701,84.0
1486.3645,68.0
1486.9591,80.0
1487.5538,96.0
1488.1488,70.0
1488.744,81.0
1489.3395,82.0
1489.9352,84.0
1490.5311,96.0
1491.1273,65.0
1491.7238,81.0
1492.3204,79.0
1492.9174,67.0
1493.5145,87.0
1494.1119,80.0
1494.7096,76.0
1495.3075,80.0
1495.9056,84.0
1496.504,84.0
1497.1027,74.0
1497.7015,88.0
1498.3007,68.0
1498.9,65.0
1499.4996,72.0
1500.0995,70.0
1500.6996,80.0
1501.2998,75.0
1501.9003,83.0
1502.501,98.0
1503.1019,53.0
1503.7031,102.0
1504.3046,76.0
1504.9062,79.0
1505.5082,76.0
1506.1104,65.0
1506.7128,87.0
1507.3154,90.0
1507.9183,94.0
1508.5215,110.0
1509.1249,69.0
1509.7285,96.0
1510.3324,83.0
1510.9365,80.0
1511.5409,75.0
1512.1455,98.0
1512.7504,118.0
1513.3555,96.0
1513.9608,80.0
1514.5664,115.0
1515.1722,70.0
1515.7783,85.0
1516.3846,91.0
1516.9912,72.0
1517.598,96.0
1518.2051,66.0
1518.8124,71.0
1519.4199,80.0
1520.0277,82.0
1520.6357,72.0
1521.244,61.0
1521.8525,77.0
1522.4613,71.0
1523.0703,56.0
1523.6796,91.0
1524.2891,71.0
1524.8988,63.0
1525.5088,91.0
1526.119,73.0
1526.7295,96.0
1527.3402,79.0
1527.9512,67.0
1528.5624,83.0
1529.1738,56.0
1529.7855,87.0
1530.3975,80.0
1531.0096,65.0
1531.6221,72.0
1532.2347,66.0
1532.8477,68.0
1533.4608,78.0
1534.0742,86.0
1534.6879,75.0
1535.3018,85.0
1535.9159,61.0
1536.5303,76.0
1537.1449,54.0
1537.7598,84.0
1538.3749,64.0
1538.9902,62.0
1539.6058,82.0
1540.2217,67.0
1540.8378,76.0
1541.4541,69.0
1542.0707,70.0
1542.6875,69.0
1543.3046,61.0
1543.9219,74.0
1544.5394,83.0
1545.1572,64.0
1545.7753,86.0
1546.3936,67.0
1547.0121,58.0
1547.6309,72.0
1548.2499,74.0
1548.8691,62.0
1549.4886,75.0
1550.1084,61.0
1550.7284,87.0
1551.3486,81.0
1551.9691,78.0
1552.5898,95.0
1553.2109,66.0
1553.8323,92.0
1554.4539,78.0
1555.0757,49.0
1555.6978,81.0
1556.3201,74.0
1556.9426,57.0
1557.5654,82.0
1558.1885,60.0
1558.8118,88.0
1559.4353,75.0
1560.0591,71.0
1560.6831,77.0
1561.3074,69.0
1561.9319,57.0
1562.5566,77.0
1563.1816,48.0
1563.8069,52.0
1564.4324,65.0
1565.0581,61.0
1565.6841,70.0
1566.3103,55.0
1566.9368,66.0
1567.5636,69.0
1568.1907,62.0
1568.818,67.0
1569.4456,67.0
1570.0734,59.0
1570.7014,74.0
1571.3297,81.0
1571.9583,76.0
1572.587,80.0
1573.2161,75.0
1573.8453,73.0
1574.4749,81.0
1575.1046,60.0
1575.7346,84.0
1576.3649,67.0
1576.9954,72.0
1577.6261,66.0
1578.2572,66.0
1578.8885,67.0
1579.5201,74.0
1580.152,81.0
1580.784,65.0
1581.4164,63.0
1582.049,65.0
1582.6818,82.0
1583.3148,55.0
1583.9481,60.0
1584.5817,73.0
1585.2155,77.0
1585.8495,82.0
1586.4839,75.0
1587.1185,68.0
1587.7534,80.0
1588.3885,78.0
1589.0239,53.0
1589.6595,69.0
1590.2954,59.0
1590.9315,40.0
1591.5679,72.0
1592.2045,59.0
1592.8413,69.0
1593.4784,80.0
1594.1158,62.0
1594.7535,64.0
1595.3915,88.0
1596.0297,72.0
1596.6681,108.0
1597.3068,82.0
1597.9457,72.0
1598.5848,68.0
1599.2242,78.0
1599.8639,63.0
1600.5038,68.0
1601.144,52.0
1601.7845,71.0
1602.4253,96.0
1603.0663,86.0
1603.7075,81.0
1604.349,72.0
1604.9907,72.0
1605.6327,87.0
1606.2749,71.0
1606.9174,60.0
1607.5602,73.0
1608.2032,80.0
1608.8466,71.0
1609.4901,71.0
1610.1339,66.0
1610.778,72.0
1611.4222,88.0
1612.0668,65.0
1612.7115,80.0
1613.3567,95.0
1614.0021,68.0
1614.6477,72.0
1615.2936,77.0
1615.9397,76.0
1616.586,77.0
1617.2327,79.0
1617.8795,73.0
1618.5266,83.0
1619.1741,58.0
1619.8218,66.0
1620.4697,72.0
1621.1179,64.0
1621.7664,100.0
1622.415,62.0
1623.064,73.0
1623.7131,73.0
1624.3627,65.0
1625.0125,88.0
1625.6625,86.0
1626.3127,67.0
1626.9633,70.0
1627.614,77.0
1628.265,75.0
1628.9163,66.0
1629.5679,108.0
1630.2197,63.0
1630.8718,79.0
1631.5242,92.0
1632.1768,61.0
1632.8296,57.0
1633.4827,72.0
1634.1361,45.0
1634.7898,72.0
1635.4437,75.0
1636.0979,68.0
1636.7523,78.0
1637.407,69.0
1638.0619,60.0
1638.7172,80.0
1639.3727,85.0
1640.0284,67.0
1640.6844,97.0
1641.3407,87.0
1641.9972,71.0
1642.6539,90.0
1643.311,73.0
1643.9684,71.0
1644.626,121.0
1645.2838,81.0
1645.9419,98.0
1646.6002,125.0
1647.2589,67.0
1647.9178,84.0
1648.577,87.0
1649.2365,86.0
1649.8961,67.0
1650.556,71.0
1651.2163,66.0
1651.8768,83.0
1652.5376,77.0
1653.1986,56.0
1653.8599,61.0
1654.5214,61.0
1655.1832,62.0
1655.8453,84.0
1656.5077,92.0
1657.1703,57.0
1657.8331,75.0
1658.4962,83.0
1659.1597,53.0
1659.8234,79.0
1660.4873,84.0
1661.1515,78.0
1661.8159,72.0
1662.4806,97.0
1663.1456,81.0
1663.8109,93.0
1664.4764,67.0
1665.1422,77.0
1665.8082,74.0
1666.4746,79.0
1667.1412,60.0
1667.8081,101.0
1668.4752,78.0
1669.1426,64.0
1669.8102,63.0
1670.4781,88.0
1671.1464,67.0
1671.8148,79.0
1672.4835,85.0
1673.1525,42.0
1673.8218,64.0
1674.4913,79.0
1675.1611,54.0
1675.8312,66.0
1676.5015,76.0
1677.1721,65.0
1677.843,82.0
1678.5142,70.0
1679.1855,68.0
1679.8572,83.0
1680.5292,81.0
1681.2014,56.0
1681.8739,78.0
1682.5466,88.0
1683.2196,65.0
1683.893,78.0
1684.5665,101.0
1685.2404,71.0
1685.9144,82.0
1686.5887,61.0
1687.2634,53.0
1687.9384,78.0
1688.6135,91.0
1689.289,69.0
1689.9646,77.0
1690.6406,83.0
1691.3169,54.0
1691.9934,71.0
1692.6702,90.0
1693.3473,62.0
1694.0247,76.0
1694.7023,89.0
1695.3801,71.0
1696.0582,60.0
1696.7367,70.0
1697.4154,90.0
1698.0944,50.0
1698.7736,67.0
1699.4531,79.0
1700.1329,66.0
1700.813,97.0
1701.4933,89.0
1702.1738,63.0
1702.8547,80.0
1703.5359,64.0
1704.2173,71.0
1704.8989,77.0
1705.5809,101.0
1706.2632,64.0
1706.9457,73.0
1707.6284,78.0
1708.3115,65.0
1708.9949,82.0
1709.6785,83.0
1710.3623,64.0
1711.0465,69.0
1711.731,71.0
1712.4156,73.0
1713.1006,53.0
1713.7858,64.0
1714.4713,63.0
1715.1571,55.0
1715.8431,75.0
1716.5294,74.0
1717.2161,63.0
1717.903,79.0
1718.5901,75.0
1719.2775,62.0
1719.9652,67.0
1720.6532,71.0
1721.3414,91.0
1722.0299,84.0
1722.7188,74.0
1723.4078,76.0
1724.0972,49.0
1724.7869,81.0
1725.4768,79.0
1726.167,35.0
1726.8574,84.0
1727.5482,87.0
1728.2393,73.0
1728.9305,93.0
1729.6221,80.0
1730.314,63.0
1731.0061,70.0
1731.6985,86.0
1732.3911,66.0
1733.0841,63.0
1733.7773,72.0
1734.4708,75.0
1735.1647,63.0
1735.8588,62.0
1736.5531,88.0
1737.2477,58.0
1737.9426,68.0
1738.6378,70.0
1739.3333,73.0
1740.0289,78.0
1740.725,70.0
1741.4213,71.0
1742.1178,59.0
1742.8147,59.0
1743.5118,66.0
1744.2092,58.0
1744.9069,59.0
1745.6049,58.0
1746.3031,63.0
1747.0016,58.0
1747.7004,79.0
1748.3995,58.0
1749.0989,58.0
1749.7985,84.0
1750.4984,62.0
1751.1986,69.0
1751.899,86.0
1752.5999,63.0
1753.3009,59.0
1754.0022,61.0
1754.7039,83.0
1755.4058,77.0
1756.1079,62.0
1756.8103,80.0
1757.5131,78.0
1758.2161,63.0
1758.9193,70.0
1759.6229,80.0
1760.3268,62.0
1761.0309,57.0
1761.7354,69.0
1762.4401,76.0
1763.145,59.0
1763.8502,75.0
1764.5558,82.0
1765.2616,55.0
1765.9677,68.0
1766.6741,80.0
1767.3807,66.0
1768.0876,78.0
1768.7949,68.0
1769.5024,73.0
1770.2102,60.0
1770.9183,69.0
1771.6267,72.0
1772.3353,71.0
1773.0443,59.0
1773.7535,77.0
1774.463,62.0
1775.1729,57.0
1775.8829,66.0
1776.5933,55.0
1777.304,70.0
1778.0149,50.0
1778.7261,71.0
1779.4376,54.0
1780.1494,47.0
1780.8615,73.0
1781.5739,83.0
1782.2865,60.0
1782.9994,65.0
1783.7126,75.0
1784.4261,69.0
1785.1399,55.0
1785.854,64.0
1786.5684,71.0
1787.283,64.0
1787.9979,62.0
1788.7131,68.0
1789.4286,61.0
1790.1444,57.0
1790.8605,67.0
1791.5768,64.0
1792.2935,54.0
1793.0104,63.0
1793.7275,91.0
1794.4451,70.0
1795.1628,53.0
1795.8809,84.0
1796.5992,62.0
1797.3179,75.0
1798.0367,67.0
1798.756,58.0
1799.4755,55.0
1800.1953,68.0
1800.9154,71.0
1801.6357,55.0
1802.3564,75.0
1803.0774,72.0
1803.7986,59.0
1804.5201,70.0
1805.242,69.0
1805.964,133.0
1806.6864,131.0
1807.409,98.0
1808.1321,73.0
1808.8553,97.0
1809.5789,93.0
1810.3027,60.0
1811.0269,86.0
1811.7512,82.0
1812.476,84.0
1813.2009,57.0
1813.9261,62.0
1814.6517,88.0
1815.3776,70.0
1816.1038,57.0
1816.8302,75.0
1817.5569,74.0
1818.2839,71.0
1819.0112,62.0
1819.7389,69.0
1820.4668,67.0
1821.195,56.0
1821.9235,66.0
1822.6522,69.0
1823.3812,52.0
1824.1106,52.0
1824.8402,66.0
1825.5702,56.0
1826.3004,74.0
1827.0309,67.0
1827.7617,93.0
1828.4928,65.0
1829.2242,51.0
1829.9559,58.0
1830.6879,65.0
1831.4202,75.0
1832.1527,69.0
1832.8856,71.0
1833.6188,90.0
1834.3522,58.0
1835.0859,55.0
1835.82,67.0
1836.5543,58.0
1837.289,55.0
1838.0238,65.0
1838.759,75.0
1839.4945,77.0
1840.2303,53.0
1840.9664,62.0
1841.7028,79.0
1842.4395,63.0
1843.1764,78.0
1843.9137,67.0
1844.6512,86.0
1845.3892,72.0
1846.1273,64.0
1846.8657,73.0
1847.6045,71.0
1848.3435,63.0
1849.0829,57.0
1849.8225,80.0
1850.5624,68.0
1851.3026,74.0
1852.0431,67.0
1852.7839,77.0
1853.525,59.0
1854.2665,63.0
1855.0082,77.0
1855.7501,71.0
1856.4924,78.0
1857.235,67.0
1857.9779,72.0
1858.7211,78.0
1859.4646,75.0
1860.2084,64.0
1860.9525,65.0
1861.6969,77.0
1862.4415,82.0
1863.1865,46.0
1863.9318,62.0
1864.6774,80.0
1865.4232,68.0
1866.1694,57.0
1866.9159,73.0
1867.6627,74.0
1868.4098,65.0
1869.1571,66.0
1869.9048,83.0
1870.6527,76.0
1871.401,63.0
1872.1495,61.0
1872.8984,69.0
1873.6476,95.0
1874.3971,68.0
1875.1469,63.0
1875.8969,88.0
1876.6472,89.0
1877.3978,75.0
1878.1488,67.0
1878.9,65.0
1879.6516,63.0
1880.4034,58.0
1881.1556,69.0
1881.9081,75.0
1882.6609,78.0
1883.414,58.0
1884.1674,61.0
1884.921,110.0
1885.675,127.0
1886.4293,84.0
1887.1838,72.0
1887.9387,81.0
1888.6938,59.0
1889.4493,62.0
1890.2051,60.0
1890.9612,62.0
1891.7175,67.0
1892.4742,72.0
1893.2312,53.0
1893.9885,53.0
1894.7461,83.0
1895.504,83.0
1896.2622,80.0
1897.0208,88.0
1897.7795,99.0
1898.5387,80.0
1899.2981,59.0
1900.0579,90.0
1900.8179,84.0
1901.5782,52.0
1902.3389,61.0
1903.0999,53.0
1903.8611,61.0
1904.6227,65.0
1905.3845,65.0
1906.1467,61.0
1906.9092,85.0
1907.672,77.0
1908.435,63.0
1909.1985,68.0
1909.9622,60.0
1910.7262,67.0
1911.4905,71.0
1912.2551,65.0
1913.02,79.0
1913.7853,336.0
1914.5508,277.0
1915.3167,177.0
1916.0828,197.0
1916.8492,141.0
1917.616,81.0
1918.383,67.0
1919.1504,74.0
1919.9181,64.0
1920.686,80.0
1921.4543,62.0
1922.2229,71.0
1922.9918,69.0
1923.761,68.0
1924.5305,63.0
1925.3003,72.0
1926.0704,53.0
1926.8408,63.0
1927.6116,69.0
1928.3826,62.0
1929.1539,63.0
1929.9255,64.0
1930.6975,65.0
1931.4698,61.0
1932.2424,54.0
1933.0154,63.0
1933.7886,69.0
1934.5621,63.0
1935.3359,70.0
1936.1101,77.0
1936.8845,73.0
1937.6593,96.0
1938.4343,64.0
1939.2097,69.0
1939.9854,62.0
1940.7614,48.0
1941.5376,60.0
1942.3142,64.0
1943.0912,68.0
1943.8684,79.0
1944.646,51.0
1945.4238,47.0
1946.202,54.0
1946.9805,54.0
1947.7593,62.0
1948.5383,57.0
1949.3177,57.0
1950.0975,73.0
1950.8776,73.0
1951.658,78.0
1952.4386,70.0
1953.2196,64.0
1954.0009,73.0
1954.7825,73.0
1955.5643,66.0
1956.3466,53.0
1957.1292,57.0
1957.912,57.0
1958.6952,58.0
1959.4786,74.0
1960.2625,51.0
1961.0465,79.0
1961.8309,69.0
1962.6157,61.0
1963.4008,63.0
1964.1862,57.0
1964.9718,69.0
1965.7578,59.0
1966.5441,68.0
1967.3307,66.0
1968.1177,63.0
1968.9049,83.0
1969.6925,77.0
1970.4803,79.0
1971.2686,64.0
1972.057,82.0
1972.8458,66.0
1973.635,64.0
1974.4244,55.0
1975.2142,56.0
1976.0043,58.0
1976.7947,68.0
1977.5854,56.0
1978.3765,70.0
1979.1678,59.0
1979.9595,62.0
1980.7515,51.0
1981.5438,61.0
1982.3364,60.0
1983.1294,58.0
1983.9226,76.0
1984.7162,75.0
1985.5101,93.0
1986.3043,53.0
1987.0989,66.0
1987.8937,63.0
1988.6888,59.0
1989.4844,64.0
1990.2802,47.0
1991.0763,49.0
1991.8727,68.0
1992.6694,70.0
1993.4666,75.0
1994.2639,74.0
1995.0616,65.0
1995.8596,76.0
1996.658,79.0
1997.4567,71.0
1998.2556,59.0
1999.0549,73.0
1999.8546,70.0
2000.6545,77.0
2001.4548,56.0
2002.2554,60.0
2003.0563,67.0
2003.8575,79.0
2004.659,71.0
2005.4609,63.0
2006.2631,64.0
2007.0656,53.0
2007.8684,65.0
2008.6715,69.0
2009.475,89.0
2010.2788,89.0
2011.0829,101.0
2011.8873,113.0
2012.6921,127.0
2013.4972,89.0
2014.3026,79.0
2015.1083,80.0
2015.9143,80.0
2016.7207,83.0
2017.5273,49.0
2018.3344,64.0
2019.1417,51.0
2019.9493,58.0
2020.7573,69.0
2021.5657,75.0
2022.3743,71.0
2023.1832,64.0
2023.9926,60.0
2024.8021,59.0
2025.612,98.0
2026.4224,94.0
2027.2329,83.0
2028.0438,74.0
2028.855,94.0
2029.6665,97.0
2030.4784,60.0
2031.2905,70.0
2032.103,61.0
2032.9159,73.0
2033.729,85.0
2034.5425,79.0
2035.3563,73.0
2036.1704,60.0
2036.9849,80.0
2037.7997,69.0
2038.6147,67.0
2039.4302,71.0
2040.246,52.0
2041.062,55.0
2041.8784,70.0
2042.6952,72.0
2043.5123,67.0
2044.3297,58.0
2045.1475,65.0
2045.9656,71.0
2046.7839,70.0
2047.6027,84.0
2048.4216,57.0
2049.241,60.0
2050.0605,77.0
2050.8806,71.0
2051.701,83.0
2052.5217,81.0
2053.3428,75.0
2054.164,60.0
2054.9858,75.0
2055.8079,67.0
2056.6301,59.0
2057.453,67.0
2058.276,51.0
2059.099,66.0
2059.9229,72.0
2060.7468,72.0
2061.571,54.0
2062.3958,64.0
2063.2207,65.0
2064.046,73.0
2064.8716,59.0
2065.6975,48.0
2066.5237,68.0
2067.3503,67.0
2068.1772,70.0
2069.0046,55.0
2069.8323,69.0
2070.6602,65.0
2071.4885,49.0
2072.3171,50.0
2073.146,52.0
2073.9753,58.0
2074.805,70.0
2075.6348,66.0
2076.465,70.0
2077.2957,70.0
2078.1265,59.0
2078.9578,67.0
2079.7893,66.0
2080.6213,72.0
2081.4536,70.0
2082.2861,86.0
2083.1191,93.0
2083.9524,112.0
2084.786,96.0
2085.6199,77.0
2086.454,68.0
2087.2886,68.0
2088.1235,78.0
2088.9587,60.0
2089.7944,69.0
2090.6304,69.0
2091.4666,67.0
2092.3032,73.0
2093.1401,55.0
2093.9773,64.0
2094.815,74.0
2095.6528,61.0
2096.4912,71.0
2097.3298,68.0
2098.1687,55.0
2099.008,70.0
2099.8477,63.0
2100.6875,62.0
2101.5278,69.0
2102.3684,63.0
2103.2095,65.0
2104.0508,71.0
2104.8923,71.0
2105.7344,64.0
2106.5767,58.0
2107.4192,52.0
2108.2622,49.0
2109.1055,66.0
2109.9492,69.0
2110.7932,76.0
2111.6375,63.0
2112.4822,62.0
2113.3271,53.0
2114.1724,45.0
2115.018,65.0
2115.864,65.0
2116.7104,57.0
2117.5571,52.0
2118.404,45.0
2119.2515,58.0
2120.099,57.0
2120.9473,67.0
2121.7957,60.0
2122.6443,65.0
2123.4934,57.0
2124.3428,72.0
2125.1926,75.0
2126.0427,70.0
2126.893,73.0
2127.744,69.0
2128.595,72.0
2129.4463,65.0
2130.298,60.0
2131.1501,55.0
2132.0027,68.0
2132.8555,58.0
2133.7085,65.0
2134.562,53.0
2135.4158,65.0
2136.27,61.0
2137.1245,59.0
2137.9792,79.0
2138.8345,68.0
2139.69,61.0
2140.546,73.0
2141.402,81.0
2142.2585,105.0
2143.1155,107.0
2143.9727,80.0
2144.8303,67.0
2145.6882,72.0
2146.5464,60.0
2147.405,73.0
2148.264,67.0
2149.1233,67.0
2149.983,68.0
2150.843,50.0
2151.7034,70.0
2152.564,73.0
2153.425,60.0
2154.2864,54.0
2155.1482,66.0
2156.0103,68.0
2156.8726,65.0
2157.7354,73.0
2158.5984,71.0
2159.462,59.0
2160.3257,64.0
2161.1897,71.0
2162.0542,70.0
2162.919,75.0
2163.7842,73.0
2164.6497,66.0
2165.5156,68.0
2166.3818,53.0
2167.2483,62.0
2168.1152,77.0
2168.9824,84.0
2169.85,105.0
2170.718,91.0
2171.5864,76.0
2172.455,66.0
2173.324,54.0
2174.1934,83.0
2175.063,54.0
2175.933,64.0
2176.8035,64.0
2177.674,73.0
2178.5452,76.0
2179.4165,60.0
2180.2883,65.0
2181.1604,76.0
2182.033,79.0
2182.9058,81.0
2183.7788,69.0
2184.6523,70.0
2185.5261,62.0
2186.4004,60.0
2187.275,64.0
2188.15,64.0
2189.0251,59.0
2189.9006,64.0
2190.7766,67.0
2191.6528,66.0
2192.5295,54.0
2193.4065,56.0
2194.284,82.0
2195.1616,80.0
2196.0398,76.0
2196.9182,77.0
2197.7969,98.0
2198.676,67.0
2199.5554,60.0
2200.4353,64.0
2201.3154,61.0
2202.196,70.0
2203.077,57.0
2203.9583,70.0
2204.8398,73.0
2205.7217,71.0
2206.604,65.0
2207.4866,60.0
2208.3696,68.0
2209.253,56.0
2210.1367,71.0
2211.0208,66.0
2211.9053,66.0
2212.79,82.0
2213.675,88.0
2214.5605,67.0
2215.4463,77.0
2216.3325,81.0
2217.219,73.0
2218.106,64.0
2218.9932,69.0
2219.8809,76.0
2220.7688,70.0
2221.6572,52.0
2222.546,61.0
2223.4348,56.0
2224.3242,59.0
2225.2139,72.0
2226.104,46.0
2226.9944,67.0
2227.8853,71.0
2228.7764,47.0
2229.668,60.0
2230.5598,86.0
2231.4521,77.0
2232.3447,66.0
2233.2375,80.0
2234.1309,78.0
2235.0244,66.0
2235.9185,59.0
2236.8127,80.0
2237.7075,71.0
2238.6025,50.0
2239.498,65.0
2240.3938,64.0
2241.29,68.0
2242.1865,70.0
2243.0835,84.0
2243.9807,62.0
2244.8784,82.0
2245.7764,84.0
2246.6746,79.0
2247.5732,69.0
2248.4722,65.0
2249.3716,64.0
2250.2712,57.0
2251.1714,66.0
2252.0718,76.0
2252.9727,52.0
2253.8738,69.0
2254.7754,69.0
2255.6772,71.0
2256.5796,78.0
2257.4822,69.0
2258.3853,77.0
2259.2886,82.0
2260.1924,78.0
2261.0964,75.0
2262.001,73.0
2262.9058,70.0
2263.811,78.0
2264.7166,78.0
2265.6226,55.0
2266.5288,67.0
2267.4353,60.0
2268.3423,49.0
2269.2495,67.0
2270.1572,68.0
2271.0652,78.0
2271.9736,66.0
2272.8823,83.0
2273.7915,72.0
2274.701,71.0
2275.6108,83.0
2276.521,94.0
2277.4316,94.0
2278.3425,81.0
2279.254,71.0
2280.1655,75.0
2281.0776,66.0
2281.99,69.0
2282.9028,76.0
2283.816,73.0
2284.7295,80.0
2285.6433,70.0
2286.5576,72.0
2287.4722,63.0
2288.3872,64.0
2289.3025,70.0
2290.2183,62.0
2291.1343,77.0
2292.0508,65.0
2292.9675,73.0
2293.8848,93.0
2294.8022,77.0
2295.7202,80.0
2296.6384,81.0
2297.5571,79.0
2298.476,76.0
2299.3955,64.0
2300.3152,67.0
2301.2354,66.0
2302.1558,76.0
2303.0767,88.0
2303.9978,77.0
2304.9194,82.0
2305.8413,68.0
2306.7637,72.0
2307.6863,63.0
2308.6094,69.0
2309.5327,71.0
2310.4565,74.0
2311.3806,72.0
2312.3052,73.0
2313.23,64.0
2314.1553,86.0
2315.081,71.0
2316.007,63.0
2316.9336,68.0
2317.8604,81.0
2318.7876,78.0
2319.715,102.0
2320.643,93.0
2321.5713,85.0
2322.5,88.0
2323.429,69.0
2324.3584,74.0
2325.288,73.0
2326.2183,73.0
2327.1487,83.0
2328.0796,81.0
2329.0107,87.0
2329.9424,76.0
2330.8743,71.0
2331.8066,77.0
2332.7393,72.0
2333.6724,75.0
2334.6057,72.0
2335.5396,88.0
2336.4739,59.0
2337.4084,75.0
2338.3435,70.0
2339.2788,66.0
2340.2146,69.0
2341.1506,67.0
2342.0872,93.0
2343.024,65.0
2343.9612,84.0
2344.8987,93.0
2345.8367,109.0
2346.775,98.0
2347.7136,94.0
2348.6526,85.0
2349.592,79.0
2350.532,72.0
2351.4722,69.0
2352.4128,74.0
2353.3538,72.0
2354.2952,94.0
2355.2368,58.0
2356.179,66.0
2357.1213,65.0
2358.0642,80.0
2359.0073,84.0
2359.951,79.0
2360.895,77.0
2361.8394,70.0
2362.7842,97.0
2363.7292,67.0
2364.6748,76.0
2365.6206,82.0
2366.567,97.0
2367.5134,84.0
2368.4604,54.0
2369.4077,83.0
2370.3555,73.0
2371.3037,73.0
2372.2522,78.0
2373.2012,57.0
2374.1504,70.0
2375.1,51.0
2376.05,76.0
2377.0005,71.0
2377.9512,74.0
2378.9023,69.0
2379.854,89.0
2380.806,81.0
2381.7583,66.0
2382.711,82.0
2383.664,62.0
2384.6174,62.0
2385.5713,67.0
2386.5256,77.0
2387.4802,94.0
2388.4353,103.0
2389.3906,89.0
2390.3464,84.0
2391.3025,66.0
2392.259,72.0
2393.2158,66.0
2394.173,76.0
2395.1309,80.0
2396.0889,84.0
2397.0474,87.0
2398.006,79.0
2398.9653,84.0
2399.9248,70.0
2400.8848,74.0
2401.8452,74.0
2402.806,71.0
2403.767,76.0
2404.7285,78.0
2405.6904,98.0
2406.6526,69.0
2407.6152,74.0
2408.5784,67.0
2409.5417,85.0
2410.5056,96.0
2411.4697,74.0
2412.4343,70.0
2413.3994,67.0
2414.3647,80.0
2415.3306,80.0
2416.2966,89.0
2417.2632,55.0
2418.23,60.0
2419.1973,51.0
2420.165,89.0
2421.133,81.0
2422.1016,79.0
2423.0703,84.0
2424.0396,71.0
2425.0093,74.0
2425.9792,51.0
2426.9497,76.0
2427.9204,73.0
2428.8916,62.0
2429.863,68.0
2430.835,78.0
2431.8074,81.0
2432.78,77.0
2433.7532,75.0
2434.7266,73.0
2435.7004,71.0
2436.6748,76.0
2437.6494,73.0
2438.6245,53.0
2439.5999,62.0
2440.5757,53.0
2441.552,59.0
2442.5286,72.0
2443.5056,61.0
2444.483,62.0
2445.4607,73.0
2446.439,73.0
2447.4175,74.0
2448.3965,80.0
2449.3757,64.0
2450.3555,79.0
2451.3357,78.0
2452.3162,61.0
2453.297,86.0
2454.2783,82.0
2455.26,61.0
2456.2422,76.0
2457.2246,67.0
2458.2075,68.0
2459.191,65.0
2460.1746,65.0
2461.1587,68.0
2462.143,66.0
2463.128,72.0
2464.1133,61.0
2465.0989,81.0
2466.085,80.0
2467.0713,77.0
2468.058,75.0
2469.0454,67.0
2470.033,78.0
2471.021,65.0
2472.0095,55.0
2472.9983,89.0
2473.9875,77.0
2474.977,69.0
2475.967,73.0
2476.9575,77.0
2477.9482,61.0
2478.9395,57.0
2479.931,52.0
2480.9229,64.0
2481.9153,68.0
2482.908,75.0
2483.9011,63.0
2484.8948,85.0
2485.8887,81.0
2486.883,68.0
2487.878,90.0
2488.873,81.0
2489.8687,77.0
2490.8645,58.0
2491.8608,86.0
2492.8577,74.0
2493.8547,80.0
2494.8523,90.0
2495.8503,87.0
2496.8486,83.0
2497.8474,83.0
2498.8464,74.0
2499.846,83.0
2500.846,79.0
2501.8462,64.0
2502.847,59.0
2503.8481,69.0
2504.8496,69.0
2505.8516,84.0
2506.854,57.0
2507.8567,62.0
2508.8599,74.0
2509.8635,72.0
2510.8674,63.0
2511.8718,71.0
2512.8765,59.0
2513.8816,69.0
2514.8872,73.0
2515.893,73.0
2516.8994,76.0
2517.9062,60.0
2518.9133,66.0
2519.921,75.0
2520.929,73.0
2521.9373,87.0
2522.946,58.0
2523.9553,77.0
2524.9648,63.0
2525.9749,69.0
2526.9854,67.0
2527.996,71.0
2529.0073,60.0
2530.019,77.0
2531.031,67.0
2532.0435,64.0
2533.0562,82.0
2534.0693,80.0
2535.083,59.0
2536.097,68.0
2537.1113,76.0
2538.1262,82.0
2539.1414,72.0
2540.157,70.0
2541.173,72.0
2542.1895,81.0
2543.2063,69.0
2544.2236,71.0
2545.2412,74.0
2546.2593,76.0
2547.2778,64.0
2548.2966,74.0
2549.316,73.0
2550.3357,60.0
2551.3557,58.0
2552.3762,70.0
2553.3972,70.0
2554.4185,58.0
2555.4402,59.0
2556.4624,62.0
2557.485,77.0
2558.508,63.0
2559.5315,68.0
2560.5554,80.0
2561.5796,65.0
2562.6042,79.0
2563.6294,76.0
2564.6548,105.0
2565.6807,78.0
2566.707,79.0
2567.7336,74.0
2568.7607,68.0
2569.7883,69.0
2570.8162,67.0
2571.8445,74.0
2572.8733,80.0
2573.9023,63.0
2574.932,62.0
2575.962,83.0
2576.9922,80.0
2578.023,69.0
2579.0542,73.0
2580.086,68.0
2581.118,59.0
2582.1504,85.0
2583.1833,72.0
2584.2166,71.0
2585.2502,78.0
2586.2844,77.0
2587.3188,81.0
2588.3538,75.0
2589.3892,86.0
2590.4248,61.0
2591.461,66.0
2592.4976,85.0
2593.5347,85.0
2594.572,79.0
2595.6099,79.0
2596.6482,74.0
2597.6868,67.0
2598.7258,77.0
2599.7654,72.0
2600.8052,56.0
2601.8455,69.0
2602.8862,76.0
2603.9275,64.0
2604.969,74.0
2606.011,77.0
2607.0535,70.0
2608.0962,79.0
2609.1394,84.0
2610.183,87.0
2611.2273,76.0
2612.2717,79.0
2613.3167,54.0
2614.362,63.0
2615.4077,85.0
2616.4539,78.0
2617.5005,73.0
2618.5476,80.0
2619.595,78.0
2620.6428,68.0
2621.6912,83.0
2622.7397,73.0
2623.7888,73.0
2624.8384,65.0
2625.8884,81.0
2626.9387,79.0
2627.9895,82.0
2629.0408,66.0
2630.0923,89.0
2631.1443,60.0
2632.1968,71.0
2633.2498,75.0
2634.303,64.0
2635.3567,86.0
2636.411,69.0
2637.4653,73.0
2638.5203,70.0
2639.5757,72.0
2640.6316,84.0
2641.6877,89.0
2642.7444,65.0
2643.8015,78.0
2644.8591,82.0
2645.917,79.0
2646.9753,95.0
2648.0342,62.0
2649.0935,84.0
2650.153,78.0
2651.2131,96.0
2652.2737,85.0
2653.3345,70.0
2654.3958,77.0
2655.4575,69.0
2656.5198,72.0
2657.5823,74.0
2658.6453,77.0
2659.7087,87.0
2660.7727,92.0
2661.837,87.0
2662.9016,66.0
2663.9668,99.0
2665.0325,106.0
2666.0984,93.0
2667.1648,98.0
2668.2317,88.0
2669.299,81.0
2670.3667,69.0
2671.4348,84.0
2672.5034,95.0
2673.5725,70.0
2674.6418,87.0
2675.7117,71.0
2676.782,74.0
2677.8528,78.0
2678.9238,66.0
2679.9954,77.0
2681.0674,83.0
2682.14,76.0
2683.2126,85.0
2684.286,72.0
2685.3596,76.0
2686.4338,77.0
2687.5083,75.0
2688.5833,65.0
2689.6587,71.0
2690.7346,57.0
2691.8108,73.0
2692.8875,87.0
2693.9646,66.0
2695.0422,64.0
2696.1204,72.0
2697.1987,73.0
2698.2776,93.0
2699.357,103.0
2700.4368,87.0
2701.5168,82.0
2702.5974,72.0
2703.6785,97.0
2704.76,81.0
2705.8418,68.0
2706.924,87.0
2708.0068,71.0
2709.09,74.0
2710.1738,67.0
2711.2578,74.0
2712.3423,75.0
2713.4272,71.0
2714.5127,89.0
2715.5984,93.0
2716.6846,77.0
2717.7712,68.0
2718.8584,92.0
2719.946,62.0
2721.034,80.0
2722.1223,104.0
2723.2112,82.0
2724.3005,82.0
2725.3901,89.0
2726.4802,72.0
2727.5708,78.0
2728.6619,100.0
2729.7534,107.0
2730.8452,95.0
2731.9375,81.0
2733.0303,81.0
2734.1235,71.0
2735.2173,158.0
2736.3113,168.0
2737.4058,116.0
2738.5007,100.0
2739.5962,75.0
2740.6921,66.0
2741.7883,59.0
2742.885,76.0
2743.9822,82.0
2745.0798,85.0
2746.178,77.0
2747.2764,85.0
2748.3752,73.0
2749.4746,64.0
2750.5745,92.0
2751.6748,91.0
2752.7754,87.0
2753.8765,72.0
2754.978,70.0
2756.08,65.0
2757.1826,82.0
2758.2854,62.0
2759.3887,80.0
2760.4924,72.0
2761.5967,75.0
2762.7014,76.0
2763.8064,65.0
2764.9119,88.0
2766.0178,78.0
2767.1243,84.0
2768.2312,71.0
2769.3384,78.0
2770.446,82.0
2771.5542,75.0
2772.6628,74.0
2773.772,74.0
2774.8816,81.0
2775.9915,100.0
2777.1018,98.0
2778.2126,85.0
2779.324,95.0
2780.4358,91.0
2781.5479,74.0
2782.6604,74.0
2783.7734,80.0
2784.887,72.0
2786.001,77.0
2787.1155,78.0
2788.2302,83.0
2789.3455,64.0
2790.4612,79.0
2791.5774,108.0
2792.694,116.0
2793.8113,144.0
2794.9287,155.0
2796.0466,160.0
2797.165,172.0
2798.284,125.0
2799.4033,115.0
2800.5232,100.0
2801.6433,105.0
2802.764,120.0
2803.885,109.0
2805.0066,110.0
2806.1287,120.0
2807.2512,150.0
2808.374,119.0
2809.4973,123.0
2810.621,127.0
2811.7454,110.0
2812.87,122.0
2813.9954,108.0
2815.1208,134.0
2816.2468,122.0
2817.3733,128.0
2818.5002,120.0
2819.6277,110.0
2820.7556,108.0
2821.884,117.0
2823.0127,110.0
2824.1418,105.0
2825.2715,119.0
2826.4016,102.0
2827.5322,114.0
2828.6633,118.0
2829.7947,113.0
2830.9265,100.0
2832.0588,114.0
2833.1917,97.0
2834.325,97.0
2835.4587,106.0
2836.593,113.0
2837.7275,128.0
2838.8625,117.0
2839.998,101.0
2841.134,102.0
2842.2705,123.0
2843.4075,111.0
2844.545,101.0
2845.6829,112.0
2846.821,109.0
2847.9597,109.0
2849.0989,117.0
2850.2385,104.0
2851.3787,131.0
2852.5193,108.0
2853.6604,118.0
2854.8018,121.0
2855.9436,112.0
2857.086,140.0
2858.2288,140.0
2859.372,123.0
2860.5159,105.0
2861.6602,122.0
2862.805,105.0
2863.95,125.0
2865.0955,118.0
2866.2415,128.0
2867.388,139.0
2868.535,111.0
2869.6824,109.0
2870.8303,92.0
2871.9788,106.0
2873.1274,98.0
2874.2766,123.0
2875.4263,133.0
2876.5764,106.0
2877.727,107.0
2878.8782,92.0
2880.0298,135.0
2881.182,124.0
2882.3345,121.0
2883.4873,95.0
2884.6406,117.0
2885.7944,114.0
2886.9487,116.0
2888.1035,125.0
2889.2588,138.0
2890.4146,141.0
2891.5708,120.0
2892.7275,127.0
2893.8845,110.0
2895.042,123.0
2896.2,121.0
2897.3584,96.0
2898.5173,113.0
2899.6768,106.0
2900.8367,79.0
2901.997,113.0
2903.158,91.0
2904.3193,129.0
2905.481,158.0
2906.643,142.0
2907.8057,155.0
2908.9688,168.0
2910.1323,159.0
2911.2964,151.0
2912.461,114.0
2913.626,101.0
2914.7915,107.0
2915.9575,107.0
2917.124,121.0
2918.2908,102.0
2919.458,134.0
2920.6257,129.0
2921.794,169.0
2922.9626,225.0
2924.1318,223.0
2925.3015,175.0
2926.4717,142.0
2927.6423,139.0
2928.8135,119.0
2929.985,115.0
2931.157,120.0
2932.3293,133.0
2933.5022,132.0
2934.6755,120.0
2935.8494,121.0
2937.0237,116.0
2938.1985,130.0
2939.3738,157.0
2940.5496,129.0
2941.7258,116.0
2942.9026,134.0
2944.0798,128.0
2945.2576,141.0
2946.4358,126.0
2947.6143,165.0
2948.7932,209.0
2949.9727,202.0
2951.1526,157.0
2952.333,135.0
2953.514,102.0
2954.6953,115.0
2955.8772,110.0
2957.0596,115.0
2958.2424,115.0
2959.4258,125.0
2960.6096,141.0
2961.794,115.0
2962.9788,123.0
2964.164,107.0
2965.3496,130.0
2966.5356,119.0
2967.7222,119.0
2968.9092,98.0
2970.0967,110.0
2971.2847,129.0
2972.4731,140.0
2973.662,134.0
2974.8516,110.0
2976.0415,110.0
2977.232,101.0
2978.4229,99.0
2979.6143,120.0
2980.8062,110.0
2981.9985,110.0
2983.1914,123.0
2984.3848,112.0
2985.5786,128.0
2986.773,138.0
2987.9678,111.0
2989.1628,133.0
2990.3584,99.0
2991.5544,109.0
2992.751,110.0
2993.948,117.0
2995.1455,114.0
2996.3435,127.0
2997.542,98.0
2998.741,96.0
2999.9404,111.0
3001.1404,112.0
3002.3408,132.0
3003.5417,141.0
3004.7432,96.0
3005.945,122.0
3007.1475,114.0
3008.3503,103.0
3009.5537,128.0
3010.7576,120.0
3011.962,120.0
3013.1667,109.0
3014.372,104.0
3015.578,109.0
3016.7842,114.0
3017.991,113.0
3019.1982,112.0
3020.406,153.0
3021.6143,143.0
3022.823,115.0
3024.0322,118.0
3025.242,120.0
3026.4521,121.0
3027.6628,122.0
3028.874,116.0
3030.0857,95.0
3031.2976,137.0
3032.51,121.0
3033.723,121.0
3034.9363,109.0
3036.1501,124.0
3037.3645,121.0
3038.5793,124.0
3039.7947,104.0
3041.0105,105.0
3042.2268,124.0
3043.4436,133.0
3044.661,102.0
3045.8787,101.0
3047.097,110.0
3048.3157,106.0
3049.535,104.0
3050.7546,105.0
3051.9749,101.0
3053.1956,104.0
3054.4167,140.0
3055.6384,132.0
3056.8606,128.0
3058.0833,97.0
3059.3064,123.0
3060.53,94.0
3061.7542,130.0
3062.9788,128.0
3064.2039,130.0
3065.4294,118.0
3066.6555,103.0
3067.882,114.0
3069.1091,106.0
3070.3367,127.0
3071.5647,118.0
3072.7932,125.0
3074.0222,86.0
3075.2517,143.0
3076.4817,121.0
3077.7124,126.0
3078.9436,148.0
3080.1753,124.0
3081.4075,107.0
3082.6401,123.0
3083.8733,118.0
3085.107,113.0
3086.341,112.0
3087.5757,128.0
3088.8108,132.0
3090.0464,102.0
3091.2825,102.0
3092.519,96.0
3093.756,130.0
3094.9937,111.0
3096.2317,130.0
3097.4702,116.0
3098.7092,113.0
3099.9487,113.0
3101.1887,104.0
3102.4292,127.0
3103.6702,134.0
3104.9116,102.0
3106.1536,100.0
3107.396,128.0
3108.639,106.0
3109.8823,100.0
3111.1262,112.0
3112.3706,118.0
3113.6155,105.0
3114.8608,108.0
3116.1067,125.0
3117.353,104.0
3118.5999,117.0
3119.8474,117.0
3121.0955,104.0
3122.344,124.0
3123.593,131.0
3124.8425,112.0
3126.0925,94.0
3127.343,120.0
3128.594,107.0
3129.8455,80.0
3131.0974,113.0
3132.3499,134.0
3133.6028,142.0
3134.8562,135.0
3136.11,114.0
3137.3645,125.0
3138.6194,121.0
3139.8748,120.0
3141.1306,118.0
3142.387,113.0
3143.6438,129.0
3144.9014,129.0
3146.1594,149.0
3147.418,158.0
3148.677,126.0
3149.9365,110.0
3151.1965,124.0
3152.457,105.0
3153.718,134.0
3154.9795,108.0
3156.2415,115.0
3157.504,111.0
3158.7668,121.0
3160.0303,92.0
3161.2942,118.0
3162.5586,118.0
3163.8237,113.0
3165.0894,99.0
3166.3555,125.0
3167.622,118.0
3168.8892,121.0
3170.1567,108.0
3171.4248,124.0
3172.6934,144.0
3173.9624,103.0
3175.232,101.0
3176.502,99.0
3177.7725,130.0
3179.0435,96.0
3180.3152,113.0
3181.5874,121.0
3182.86,113.0
3184.1333,119.0
3185.407,126.0
3186.6812,133.0
3187.9558,125.0
3189.231,129.0
3190.5066,97.0
3191.7827,157.0
3193.0593,131.0
3194.3367,144.0
3195.6145,119.0
3196.8928,129.0
3198.1716,107.0
3199.451,113.0
3200.7307,96.0
3202.011,108.0
3203.2917,115.0
3204.573,120.0
3205.8547,116.0
3207.137,116.0
3208.42,107.0
3209.7034,127.0
3210.9873,112.0
3212.2717,119.0
3213.5566,116.0
3214.842,123.0
3216.128,119.0
3217.4143,134.0
3218.7012,117.0
3219.9888,119.0
3221.2769,124.0
3222.5654,116.0
3223.8545,107.0
3225.144,141.0
3226.434,161.0
3227.7246,115.0
3229.0156,100.0
3230.3071,115.0
3231.5994,128.0
3232.892,120.0
3234.1853,107.0
3235.479,116.0
3236.7732,125.0
3238.0679,129.0
3239.363,142.0
3240.6587,111.0
3241.9548,101.0
3243.2517,123.0
3244.549,116.0
3245.847,125.0
3247.1453,114.0
3248.444,118.0
3249.7434,118.0
3251.0432,114.0
3252.3438,107.0
3253.6448,113.0
3254.9463,113.0
3256.2483,110.0
3257.5508,130.0
3258.8538,152.0
3260.1572,95.0
3261.4612,114.0
3262.7659,101.0
3264.071,107.0
3265.3767,118.0
3266.6829,116.0
3267.9895,117.0
3269.2966,107.0
3270.6042,152.0
3271.9126,131.0
3273.2214,123.0
3274.5308,128.0
3275.8406,133.0
3277.151,124.0
3278.4617,121.0
3279.773,108.0
3281.085,124.0
3282.3975,117.0
3283.7104,111.0
3285.024,102.0
3286.338,124.0
3287.6523,106.0
3288.9673,118.0
3290.283,113.0
3291.599,126.0
3292.9158,115.0
3294.233,117.0
3295.5505,139.0
3296.8687,111.0
3298.1875,114.0
3299.5068,117.0
3300.8267,103.0
3302.147,86.0
3303.4678,127.0
3304.789,129.0
3306.111,103.0
3307.4336,104.0
3308.7566,111.0
3310.08,143.0
3311.404,124.0
3312.7285,111.0
3314.0537,104.0
3315.3794,125.0
3316.7056,131.0
3318.0322,125.0
3319.3594,136.0
3320.687,140.0
3322.0154,110.0
3323.3442,115.0
3324.6736,132.0
3326.0034,113.0
3327.3337,119.0
3328.6648,126.0
3329.9963,130.0
3331.3284,117.0
3332.661,111.0
3333.994,127.0
3335.3274,119.0
3336.6616,122.0
3337.9963,102.0
3339.3315,135.0
3340.6672,131.0
3342.0034,115.0
3343.3403,119.0
3344.6777,136.0
3346.0156,109.0
3347.354,125.0
3348.6929,139.0
3350.0322,117.0
3351.3723,115.0
3352.713,113.0
3354.054,119.0
3355.3955,133.0
3356.7375,102.0
3358.0803,134.0
3359.4236,132.0
3360.7673,116.0
3362.1116,125.0
3363.4563,121.0
3364.8018,134.0
3366.1477,135.0
3367.4941,145.0
3368.841,114.0
3370.1887,137.0
3371.5369,135.0
3372.8855,124.0
3374.2346,121.0
3375.5842,140.0
3376.9346,128.0
3378.2854,119.0
3379.6367,147.0
3380.9885,135.0
3382.3408,143.0
3383.6938,135.0
3385.0474,136.0
3386.4014,151.0
3387.7559,151.0
3389.1108,154.0
3390.4666,138.0
3391.8228,136.0
3393.1794,133.0
3394.5366,107.0
3395.8945,114.0
3397.253,152.0
3398.6118,121.0
3399.9712,139.0
3401.3313,132.0
3402.692,169.0
3404.053,142.0
3405.4146,131.0
3406.7766,145.0
3408.1394,126.0
3409.5027,114.0
3410.8665,142.0
3412.2307,126.0
3413.5957,137.0
3414.9612,148.0
3416.3271,146.0
3417.6936,136.0
3419.0608,150.0
3420.4285,145.0
3421.7966,156.0
3423.1653,133.0
3424.5347,135.0
3425.9045,125.0
3427.275,126.0
3428.6458,144.0
3430.017,127.0
3431.3892,144.0
3432.7617,144.0
3434.1348,121.0
3435.5083,158.0
3436.8826,135.0
3438.2573,135.0
3439.6326,127.0
3441.0083,119.0
3442.3848,124.0
3443.7617,115.0
3445.1392,146.0
3446.5173,117.0
3447.896,114.0
3449.2751,123.0
3450.6548,115.0
3452.0352,128.0
3453.416,129.0
3454.7974,134.0
3456.1792,126.0
3457.5618,136.0
3458.9448,147.0
3460.3284,121.0
3461.7124,139.0
3463.0972,108.0
3464.4824,129.0
3465.8682,133.0
3467.2544,123.0
3468.6414,144.0
3470.0288,120.0
3471.4167,131.0
3472.8054,130.0
3474.1946,130.0
3475.5842,136.0
3476.9744,141.0
3478.3652,145.0
3479.7566,138.0
3481.1484,123.0
3482.541,150.0
3483.934,113.0
3485.3276,128.0
3486.7217,128.0
3488.1165,141.0
3489.5117,135.0
3490.9075,119.0
3492.304,141.0
3493.701,147.0
3495.0984,154.0
3496.4963,141.0
3497.895,148.0
3499.2942,163.0
3500.6938,159.0
3502.0942,141.0
3503.495,151.0
3504.8965,136.0
3506.2983,138.0
3507.701,146.0
3509.104,165.0
3510.5076,157.0
3511.9119,154.0
3513.3167,163.0
3514.722,149.0
3516.128,131.0
3517.5344,147.0
3518.9414,142.0
3520.3489,139.0
3521.757,174.0
3523.1658,198.0
3524.575,164.0
3525.9849,162.0
3527.3953,143.0
3528.8062,156.0
3530.2178,186.0
3531.63,215.0
3533.0425,146.0
3534.4558,146.0
3535.8696,151.0
3537.284,128.0
3538.6987,146.0
3540.1143,158.0
3541.5303,142.0
3542.9468,159.0
3544.364,142.0
3545.7817,127.0
3547.2,142.0
3548.619,165.0
3550.0383,146.0
3551.4583,137.0
3552.879,126.0
3554.3,136.0
3555.7217,137.0
3557.144,134.0
3558.567,155.0
3559.9902,123.0
3561.4143,138.0
3562.8389,140.0
3564.264,171.0
3565.6897,126.0
3567.116,142.0
3568.5427,158.0
3569.9702,140.0
3571.3982,149.0
3572.8267,144.0
3574.2559,130.0
3575.6855,150.0
3577.1157,143.0
3578.5466,194.0
3579.978,207.0
3581.41,181.0
3582.8425,154.0
3584.2756,162.0
3585.7092,156.0
3587.1436,178.0
3588.5784,161.0
3590.014,158.0
3591.45,164.0
3592.8865,171.0
3594.3237,164.0
3595.7615,191.0
3597.1997,157.0
3598.6387,174.0
3600.0781,202.0
3601.518,184.0
3602.9587,163.0
3604.4,151.0
3605.8416,156.0
3607.284,237.0
3608.7268,269.0
3610.1704,187.0
3611.6145,148.0
3613.059,167.0
3614.5044,170.0
3615.9502,305.0
3617.3965,334.0
3618.8435,270.0
3620.291,181.0
3621.739,149.0
3623.1877,156.0
3624.637,131.0
3626.087,181.0
3627.5374,192.0
3628.9883,173.0
3630.44,182.0
3631.892,158.0
3633.3447,130.0
3634.798,157.0
3636.252,176.0
3637.7065,143.0
3639.1616,145.0
3640.6172,125.0
3642.0735,167.0
3643.5303,151.0
3644.9878,189.0
3646.4458,159.0
3647.9043,162.0
3649.3635,120.0
3650.8232,135.0
3652.2837,145.0
3653.7446,140.0
3655.206,157.0
3656.6682,164.0
3658.1309,156.0
3659.594,179.0
3661.0579,171.0
3662.5222,177.0
3663.9873,165.0
3665.453,196.0
3666.919,178.0
3668.3857,159.0
3669.853,134.0
3671.321,141.0
3672.7896,165.0
3674.2585,163.0
3675.7283,174.0
3677.1985,210.0
3678.6694,214.0
3680.1409,191.0
3681.613,173.0
3683.0857,170.0
3684.5588,164.0
3686.0327,154.0
3687.507,159.0
3688.9822,164.0
3690.4578,164.0
3691.9338,159.0
3693.4106,182.0
3694.888,166.0
3696.366,160.0
3697.8445,150.0
3699.3237,165.0
3700.8035,163.0
3702.2837,177.0
3703.7646,150.0
3705.246,139.0
3706.7283,165.0
3708.211,164.0
3709.6943,198.0
3711.1782,195.0
3712.6626,166.0
3714.1477,151.0
3715.6333,173.0
3717.1196,175.0
3718.6064,165.0
3720.094,177.0
3721.582,176.0
3723.0706,144.0
3724.5598,174.0
3726.0496,145.0
3727.54,163.0
3729.031,160.0
3730.5227,147.0
3732.015,162.0
3733.5078,212.0
3735.0012,198.0
3736.495,196.0
3737.9897,170.0
3739.4849,164.0
3740.9807,168.0
3742.477,147.0
3743.974,175.0
3745.4717,203.0
3746.97,167.0
3748.4688,169.0
3749.968,268.0
3751.468,425.0
3752.9685,468.0
3754.4697,310.0
3755.9714,248.0
3757.4739,178.0
3758.9768,167.0
3760.4805,191.0
3761.9846,178.0
3763.4895,157.0
3764.9949,179.0
3766.501,208.0
3768.0076,228.0
3769.515,190.0
3771.0227,181.0
3772.531,179.0
3774.04,215.0
3775.5496,200.0
3777.0598,194.0
3778.5706,199.0
3780.082,196.0
3781.594,199.0
3783.1067,223.0
3784.6199,241.0
3786.1338,222.0
3787.6482,171.0
3789.1633,190.0
3790.679,168.0
3792.1953,152.0
3793.7122,164.0
3795.2297,173.0
3796.7478,183.0
3798.2666,216.0
3799.786,194.0
3801.306,226.0
3802.8264,191.0
3804.3477,167.0
3805.8694,198.0
3807.3918,196.0
3808.9148,208.0
3810.4385,186.0
3811.9626,199.0
3813.4875,194.0
3815.013,265.0
3816.539,249.0
3818.0657,209.0
3819.593,171.0
3821.1208,165.0
3822.6494,154.0
3824.1785,192.0
3825.7083,184.0
3827.2385,154.0
3828.7695,200.0
3830.301,192.0
3831.8333,234.0
3833.366,209.0
3834.8994,165.0
3836.4333,173.0
3837.968,209.0
3839.5032,200.0
3841.039,182.0
3842.5754,183.0
3844.1125,191.0
3845.6501,197.0
3847.1885,233.0
3848.7273,311.0
3850.2668,229.0
3851.807,227.0
3853.3477,194.0
3854.889,199.0
3856.431,182.0
3857.9734,201.0
3859.5166,182.0
3861.0603,164.0
3862.6047,186.0
3864.1497,179.0
3865.6953,195.0
3867.2417,205.0
3868.7886,222.0
3870.3362,181.0
3871.8843,204.0
3873.433,224.0
3874.9824,232.0
3876.5325,173.0
3878.083,188.0
3879.6343,196.0
3881.186,205.0
3882.7385,225.0
3884.2915,214.0
3885.8452,214.0
3887.3997,231.0
3888.9546,189.0
3890.5103,188.0
3892.0664,211.0
3893.6233,177.0
3895.1807,199.0
3896.7388,189.0
3898.2974,209.0
3899.8567,256.0
3901.4167,255.0
3902.9773,215.0
3904.5386,195.0
3906.1003,214.0
3907.6628,218.0
3909.2258,166.0
3910.7896,166.0
3912.3538,199.0
3913.9187,212.0
3915.4844,220.0
3917.0505,206.0
3918.6174,203.0
3920.1848,216.0
3921.753,202.0
3923.3215,216.0
3924.8909,197.0
3926.461,186.0
3928.0315,188.0
3929.6028,164.0
3931.1746,173.0
3932.747,208.0
3934.32,185.0
3935.8938,185.0
3937.4683,188.0
3939.0432,191.0
3940.619,199.0
3942.195,196.0
3943.772,209.0
3945.3494,170.0
3946.9275,178.0
3948.5063,187.0
3950.0857,204.0
3951.6658,178.0
3953.2463,196.0
3954.8276,163.0
3956.4097,166.0
3957.9922,188.0
3959.5754,196.0
3961.1592,220.0
3962.7437,207.0
3964.3289,165.0
3965.9146,166.0
3967.501,166.0
3969.088,156.0
3970.6755,168.0
3972.264,170.0
3973.8528,166.0
3975.4424,194.0
3977.0325,189.0
3978.6233,171.0
3980.2148,180.0
3981.807,200.0
3983.3997,192.0
3984.993,184.0
3986.587,185.0
3988.1816,167.0
3989.7769,181.0
3991.3728,162.0
3992.9692,192.0
3994.5664,192.0
3996.1643,187.0
3997.7627,198.0
3999.3618,177.0
4000.9617,179.0
4002.562,213.0
4004.163,239.0
4005.7646,196.0
4007.367,190.0
4008.97,210.0
4010.5735,186.0
4012.1777,185.0
4013.7827,188.0
4015.3882,208.0
4016.9944,191.0
4018.601,197.0
4020.2085,186.0
4021.8167,250.0
4023.4253,184.0
4025.0347,192.0
4026.6448,196.0
4028.2554,219.0
4029.8667,224.0
4031.4788,243.0
4033.0913,214.0
4034.7046,230.0
4036.3184,246.0
4037.9329,267.0
4039.548,276.0
4041.1638,275.0
4042.7803,303.0
4044.3975,277.0
4046.0151,265.0
4047.6335,293.0
4049.2527,314.0
4050.8723,383.0
4052.4927,333.0
4054.1138,317.0
4055.7354,287.0
4057.3577,305.0
4058.9807,337.0
4060.6042,386.0
4062.2285,369.0
4063.8535,407.0
4065.479,326.0
4067.1052,348.0
4068.7322,339.0
4070.3596,397.0
4071.9878,553.0
4073.6167,538.0
4075.246,440.0
4076.8762,423.0
4078.507,459.0
4080.1384,511.0
4081.7705,671.0
4083.4033,595.0
4085.0366,735.0
4086.6707,787.0
4088.3054,611.0
4089.9407,471.0
4091.5767,418.0
4093.2134,1115.0
4094.8506,1784.0
4096.489,1002.0
4098.1274,532.0
4099.7666,396.0
4101.4067,1242.0
4103.0474,3682.0
4104.6885,2757.0
4106.3306,1084.0
4107.973,510.0
4109.616,415.0
4111.2603,430.0
4112.905,442.0
4114.55,628.0
4116.196,499.0
4117.8423,359.0
4119.4893,237.0
4121.137,293.0
4122.7856,311.0
4124.4346,301.0
4126.0845,254.0
4127.735,243.0
4129.3857,229.0
4131.0376,230.0
4132.69,214.0
4134.343,246.0
4135.9966,232.0
4137.651,222.0
4139.306,221.0
4140.962,217.0
4142.618,215.0
4144.2754,219.0
4145.933,215.0
4147.5913,213.0
4149.2505,217.0
4150.91,225.0
4152.5703,243.0
4154.2314,216.0
4155.893,176.0
4157.5557,202.0
4159.2188,234.0
4160.8823,220.0
4162.547,236.0
4164.212,219.0
4165.8774,276.0
4167.544,264.0
4169.211,236.0
4170.8784,230.0
4172.547,216.0
4174.216,286.0
4175.8857,328.0
4177.556,275.0
4179.227,241.0
4180.899,231.0
4182.5713,222.0
4184.244,237.0
4185.918,282.0
4187.5923,263.0
4189.267,242.0
4190.943,243.0
4192.619,196.0
4194.2964,247.0
4195.974,273.0
4197.6523,300.0
4199.3315,279.0
4201.011,235.0
4202.6914,190.0
4204.3726,264.0
4206.054,225.0
4207.737,245.0
4209.42,213.0
4211.1035,218.0
4212.788,204.0
4214.473,220.0
4216.1587,235.0
4217.845,225.0
4219.532,194.0
4221.22,206.0
4222.9087,195.0
4224.5977,210.0
4226.2876,190.0
4227.978,233.0
4229.6694,217.0
4231.3613,219.0
4233.0537,213.0
4234.747,231.0
4236.441,223.0
4238.1353,213.0
4239.8306,233.0
4241.5264,226.0
4243.223,212.0
4244.9204,221.0
4246.618,258.0
4248.317,252.0
4250.016,239.0
4251.7163,245.0
4253.417,245.0
4255.118,260.0
4256.8203,262.0
4258.523,263.0
4260.2266,242.0
4261.9307,265.0
4263.6353,294.0
4265.341,283.0
4267.047,371.0
4268.754,352.0
4270.4614,327.0
4272.1694,291.0
4273.8784,267.0
4275.588,376.0
4277.2983,505.0
4279.0093,415.0
4280.7207,312.0
4282.433,268.0
4284.146,450.0
4285.86,783.0
4287.574,609.0
4289.289,365.0
4291.005,257.0
4292.721,247.0
4294.4385,289.0
4296.1562,275.0
4297.8745,340.0
4299.5938,319.0
4301.3135,247.0
4303.034,217.0
4304.7554,260.0
4306.477,223.0
4308.1997,222.0
4309.923,216.0
4311.647,221.0
4313.3716,223.0
4315.097,212.0
4316.823,188.0
4318.55,215.0
4320.2773,210.0
4322.0054,242.0
4323.7344,220.0
4325.464,231.0
4327.194,218.0
4328.925,216.0
4330.6562,219.0
4332.3887,200.0
4334.1216,211.0
4335.8555,214.0
4337.59,197.0
4339.3247,221.0
4341.0605,236.0
4342.797,198.0
4344.534,202.0
4346.272,205.0
4348.0103,228.0
4349.7495,226.0
4351.4893,216.0
4353.23,207.0
4354.971,198.0
4356.7134,224.0
4358.456,242.0
4360.199,258.0
4361.9434,217.0
4363.688,233.0
4365.4336,215.0
4367.1797,205.0
4368.927,205.0
4370.6743,211.0
4372.4224,242.0
4374.1714,229.0
4375.921,220.0
4377.6714,237.0
4379.4224,256.0
4381.1743,208.0
4382.927,229.0
4384.6797,230.0
4386.4336,237.0
4388.188,247.0
4389.9434,238.0
4391.699,248.0
4393.456,240.0
4395.2134,225.0
4396.9717,257.0
4398.7305,239.0
4400.4897,301.0
4402.25,271.0
4404.0107,257.0
4405.7725,250.0
4407.5347,323.0
4409.298,372.0
4411.0615,301.0
4412.826,244.0
4414.5913,264.0
4416.357,369.0
4418.1235,417.0
4419.8906,305.0
4421.6587,302.0
4423.4272,255.0
4425.197,258.0
4426.967,240.0
4428.738,330.0
4430.5093,350.0
4432.2812,288.0
4434.054,245.0
4435.8276,281.0
4437.602,307.0
4439.377,437.0
4441.153,329.0
4442.929,266.0
4444.7065,254.0
4446.4844,247.0
4448.263,277.0
4450.0425,325.0
4451.8223,326.0
4453.603,312.0
4455.3843,256.0
4457.1665,261.0
4458.949,324.0
4460.733,363.0
4462.517,261.0
4464.3022,278.0
4466.088,283.0
4467.8745,387.0
4469.6616,371.0
4471.4497,334.0
4473.2383,330.0
4475.0273,302.0
4476.8174,255.0
4478.608,278.0
4480.3994,274.0
4482.1914,329.0
4483.9844,313.0
4485.778,271.0
4487.5723,301.0
4489.367,310.0
4491.163,300.0
4492.9595,299.0
4494.757,270.0
4496.5547,284.0
4498.3535,342.0
4500.153,313.0
4501.953,333.0
4503.754,304.0
4505.555,333.0
4507.3574,281.0
4509.16,309.0
4510.964,270.0
4512.768,324.0
4514.573,315.0
4516.379,337.0
4518.1855,228.0
4519.9927,254.0
4521.801,341.0
4523.6094,325.0
4525.419,295.0
4527.229,264.0
4529.04,283.0
4530.8516,408.0
4532.664,389.0
4534.477,277.0
4536.291,272.0
4538.1055,301.0
4539.921,345.0
4541.737,284.0
4543.5537,251.0
4545.371,262.0
4547.1895,288.0
4549.0083,304.0
4550.828,272.0
4552.6484,242.0
4554.4697,243.0
4556.2915,243.0
4558.1143,217.0
4559.9375,248.0
4561.7617,246.0
4563.5864,268.0
4565.4116,234.0
4567.238,228.0
4569.0645,234.0
4570.892,251.0
4572.72,243.0
4574.5493,233.0
4576.379,247.0
4578.2095,225.0
4580.0405,235.0
4581.8726,241.0
4583.705,232.0
4585.5386,218.0
4587.3726,201.0
4589.2075,221.0
4591.043,264.0
4592.8794,266.0
4594.7163,286.0
4596.554,249.0
4598.3926,229.0
4600.232,236.0
4602.0723,281.0
4603.913,243.0
4605.755,231.0
4607.597,228.0
4609.4404,250.0
4611.284,260.0
4613.129,283.0
4614.974,226.0
4616.8203,234.0
4618.667,227.0
4620.5146,215.0
4622.363,259.0
4624.212,227.0
4626.0615,221.0
4627.912,221.0
4629.763,222.0
4631.615,230.0
4633.468,231.0
4635.3213,200.0
4637.1753,211.0
4639.0303,254.0
4640.8857,260.0
4642.742,244.0
4644.599,233.0
4646.457,237.0
4648.3154,218.0
4650.175,196.0
4652.0347,186.0
4653.8955,215.0
4655.757,209.0
4657.619,224.0
4659.4824,212.0
4661.346,233.0
4663.211,209.0
4665.076,205.0
4666.9424,209.0
4668.809,187.0
4670.677,237.0
4672.545,221.0
4674.414,204.0
4676.2837,206.0
4678.1543,228.0
4680.0254,228.0
4681.8975,247.0
4683.77,221.0
4685.6436,231.0
4687.5176,217.0
4689.3926,216.0
4691.2686,259.0
4693.145,228.0
4695.0225,248.0
4696.9004,215.0
4698.7793,223.0
4700.6587,206.0
4702.539,225.0
4704.42,214.0
4706.302,228.0
4708.184,221.0
4710.0674,228.0
4711.951,256.0
4713.836,250.0
4715.7217,228.0
4717.608,199.0
4719.495,229.0
4721.383,205.0
4723.2715,224.0
4725.1606,195.0
4727.051,246.0
4728.9414,249.0
4730.833,240.0
4732.725,204.0
4734.618,233.0
4736.512,209.0
4738.4067,216.0
4740.3022,212.0
4742.198,213.0
4744.095,216.0
4745.9927,211.0
4747.891,199.0
4749.79,181.0
4751.69,217.0
4753.591,200.0
4755.492,203.0
4757.3945,186.0
4759.2974,199.0
4761.201,220.0
4763.1055,231.0
4765.0107,200.0
4766.9165,199.0
4768.823,187.0
4770.731,198.0
4772.639,205.0
4774.5483,188.0
4776.458,190.0
4778.3687,195.0
4780.28,203.0
4782.192,181.0
4784.105,203.0
4786.0186,195.0
4787.933,195.0
4789.848,191.0
4791.764,188.0
4793.6807,208.0
4795.598,207.0
4797.5166,178.0
4799.4355,172.0
4801.3555,178.0
4803.276,176.0
4805.1973,185.0
4807.119,177.0
4809.042,202.0
4810.966,192.0
4812.89,191.0
4814.8154,183.0
4816.741,195.0
4818.668,166.0
4820.595,170.0
4822.5234,190.0
4824.4526,180.0
4826.3823,177.0
4828.313,189.0
4830.244,187.0
4832.1763,175.0
4834.1094,175.0
4836.043,212.0
4837.9775,186.0
4839.9126,231.0
4841.8486,199.0
4843.785,181.0
4845.7227,179.0
4847.661,176.0
4849.6,183.0
4851.54,167.0
4853.4805,196.0
4855.422,190.0
4857.3643,191.0
4859.307,182.0
4861.251,209.0
4863.1953,186.0
4865.1406,202.0
4867.087,202.0
4869.0337,177.0
4870.9814,176.0
4872.9297,183.0
4874.879,180.0
4876.829,187.0
4878.78,174.0
4880.7314,170.0
4882.6836,191.0
4884.6367,179.0
4886.5903,188.0
4888.545,172.0
4890.5005,189.0
4892.4565,171.0
4894.4136,175.0
4896.3716,179.0
4898.33,192.0
4900.2896,198.0
4902.2495,183.0
4904.2104,158.0
4906.1724,166.0
4908.135,194.0
4910.098,167.0
4912.062,180.0
4914.027,176.0
4915.9927,161.0
4917.959,215.0
4919.9263,202.0
4921.894,223.0
4923.863,186.0
4925.8325,201.0
4927.8027,172.0
4929.774,188.0
4931.7456,183.0
4933.7183,209.0
4935.692,169.0
4937.666,172.0
4939.641,165.0
4941.617,174.0
4943.5938,185.0
4945.5713,213.0
4947.5493,161.0
4949.5283,194.0
4951.5083,216.0
4953.489,214.0
4955.47,204.0
4957.4526,201.0
4959.4355,186.0
4961.4194,233.0
4963.404,226.0
4965.389,192.0
4967.3755,171.0
4969.3623,186.0
4971.35,226.0
4973.339,176.0
4975.328,187.0
4977.3184,180.0
4979.309,211.0
4981.301,194.0
4983.2935,190.0
4985.2866,214.0
4987.281,183.0
4989.276,241.0
4991.2715,209.0
4993.268,201.0
4995.265,219.0
4997.263,221.0
4999.262,207.0
5001.2617,183.0
5003.262,193.0
5005.2637,231.0
5007.2656,211.0
5009.2686,216.0
5011.2725,204.0
5013.277,178.0
5015.282,233.0
5017.2886,213.0
5019.2954,191.0
5021.303,196.0
5023.3115,206.0
5025.321,202.0
5027.331,196.0
5029.342,245.0
5031.3535,217.0
5033.366,220.0
5035.3794,183.0
5037.3936,217.0
5039.4087,201.0
5041.4243,212.0
5043.441,196.0
5045.4585,204.0
5047.4766,238.0
5049.4956,254.0
5051.5156,237.0
5053.536,209.0
5055.5576,234.0
5057.58,209.0
5059.603,231.0
5061.627,222.0
5063.6514,224.0
5065.677,207.0
5067.703,239.0
5069.73,195.0
5071.758,243.0
5073.7866,222.0
5075.816,192.0
5077.846,192.0
5079.8774,196.0
5081.909,212.0
5083.942,224.0
5085.9756,215.0
5088.01,221.0
5090.045,223.0
5092.081,218.0
5094.1177,202.0
5096.1553,223.0
5098.194,230.0
5100.233,209.0
5102.273,222.0
5104.314,220.0
5106.3555,215.0
5108.398,221.0
5110.4414,238.0
5112.4854,233.0
5114.5303,222.0
5116.576,222.0
5118.6226,200.0
5120.67,182.0
5122.7183,221.0
5124.7676,245.0
5126.8174,234.0
5128.868,254.0
5130.92,261.0
5132.972,237.0
5135.0254,217.0
5137.0796,229.0
5139.1343,218.0
5141.19,214.0
5143.2466,212.0
5145.3037,285.0
5147.362,282.0
5149.421,277.0
5151.4805,253.0
5153.541,224.0
5155.6025,226.0
5157.6646,258.0
5159.7275,219.0
5161.7915,228.0
5163.8564,217.0
5165.922,202.0
5167.9883,237.0
5170.0557,240.0
5172.1235,230.0
5174.1924,248.0
5176.262,235.0
5178.3325,238.0
5180.404,206.0
5182.476,205.0
5184.549,234.0
5186.6226,230.0
5188.6973,233.0
5190.773,260.0
5192.849,184.0
5194.9263,201.0
5197.0044,217.0
5199.083,232.0
5201.1626,241.0
5203.243,267.0
5205.324,255.0
5207.4062,242.0
5209.4893,227.0
5211.573,216.0
5213.6577,232.0
5215.743,243.0
5217.8296,227.0
5219.9165,232.0
5222.0044,262.0
5224.0933,251.0
5226.183,230.0
5228.2734,253.0
5230.3647,242.0
5232.457,236.0
5234.55,242.0
5236.6436,237.0
5238.7383,237.0
5240.834,204.0
5242.93,260.0
5245.0273,258.0
5247.1255,232.0
5249.224,260.0
5251.3237,245.0
5253.4243,242.0
5255.526,228.0
5257.628,274.0
5259.731,243.0
5261.835,241.0
5263.9395,246.0
5266.045,241.0
5268.1514,242.0
5270.259,206.0
5272.3667,254.0
5274.4756,238.0
5276.5854,225.0
5278.6963,229.0
5280.8076,243.0
5282.92,242.0
5285.033,255.0
5287.147,187.0
5289.2617,199.0
5291.3774,218.0
5293.494,257.0
5295.6113,221.0
5297.7295,257.0
5299.8486,285.0
5301.9688,266.0
5304.0894,251.0
5306.211,214.0
5308.3335,212.0
5310.457,209.0
5312.581,227.0
5314.706,254.0
5316.832,283.0
5318.959,319.0
5321.0864,286.0
5323.215,240.0
5325.344,241.0
5327.4746,211.0
5329.6055,224.0
5331.7373,198.0
5333.87,249.0
5336.004,235.0
5338.138,207.0
5340.2734,259.0
5342.4097,260.0
5344.547,236.0
5346.6846,229.0
5348.823,220.0
5350.963,242.0
5353.1035,231.0
5355.2446,228.0
5357.3867,270.0
5359.53,262.0
5361.674,227.0
5363.8184,222.0
5365.964,265.0
5368.1104,259.0
5370.258,251.0
5372.406,221.0
5374.5547,249.0
5376.7046,274.0
5378.8555,235.0
5381.007,272.0
5383.159,230.0
5385.3125,230.0
5387.467,240.0
5389.6216,261.0
5391.7773,264.0
5393.934,261.0
5396.092,257.0
5398.25,283.0
5400.409,246.0
5402.5693,253.0
5404.7305,227.0
5406.8926,256.0
5409.055,235.0
5411.2188,288.0
5413.3833,282.0
5415.549,272.0
5417.715,257.0
5419.882,244.0
5422.05,230.0
5424.2188,285.0
5426.3887,243.0
5428.559,251.0
5430.7305,256.0
5432.903,253.0
5435.076,241.0
5437.25,268.0
5439.425,257.0
5441.6006,269.0
5443.7773,291.0
5445.955,269.0
5448.1333,256.0
5450.3125,237.0
5452.4927,241.0
5454.674,254.0
5456.8555,224.0
5459.038,283.0
5461.2217,274.0
5463.4062,244.0
5465.592,281.0
5467.778,247.0
5469.965,232.0
5472.153,289.0
5474.342,279.0
5476.5317,261.0
5478.722,290.0
5480.9136,243.0
5483.106,259.0
5485.2993,250.0
5487.4937,262.0
5489.6885,274.0
5491.8843,261.0
5494.081,257.0
5496.279,280.0
5498.4775,283.0
5500.677,268.0
5502.877,272.0
5505.078,339.0
5507.2803,278.0
5509.4834,299.0
5511.687,260.0
5513.8916,279.0
5516.097,286.0
5518.3037,278.0
5520.511,284.0
5522.719,299.0
5524.928,284.0
5527.138,292.0
5529.349,291.0
5531.561,283.0
5533.7734,230.0
5535.987,274.0
5538.201,271.0
5540.4165,297.0
5542.633,285.0
5544.85,263.0
5547.068,271.0
5549.2866,278.0
5551.5063,259.0
5553.727,287.0
5555.9487,264.0
5558.171,291.0
5560.394,302.0
5562.618,284.0
5564.8433,275.0
5567.0693,296.0
5569.2964,261.0
5571.524,286.0
5573.7524,256.0
5575.982,293.0
5578.2124,247.0
5580.444,270.0
5582.676,264.0
5584.9087,286.0
5587.1426,312.0
5589.3774,233.0
5591.6133,273.0
5593.85,242.0
5596.0874,252.0
5598.3257,301.0
5600.565,304.0
5602.805,268.0
5605.0464,238.0
5607.2886,274.0
5609.5312,245.0
5611.775,256.0
5614.0195,261.0
5616.265,249.0
5618.5117,257.0
5620.7593,218.0
5623.008,222.0
5625.257,260.0
5627.507,244.0
5629.758,254.0
5632.01,258.0
5634.2627,249.0
5636.5166,237.0
5638.771,237.0
5641.0264,248.0
5643.2827,258.0
5645.54,242.0
5647.7983,269.0
5650.0576,251.0
5652.318,250.0
5654.5786,254.0
5656.8403,237.0
5659.103,278.0
5661.3667,265.0
5663.6313,263.0
5665.897,254.0
5668.1636,259.0
5670.4307,252.0
5672.6987,284.0
5674.968,271.0
5677.238,275.0
5679.509,270.0
5681.781,269.0
5684.0537,274.0
5686.327,306.0
5688.6016,289.0
5690.877,285.0
5693.1533,319.0
5695.4307,264.0
5697.709,287.0
5699.9883,271.0
5702.268,317.0
5704.549,290.0
5706.8306,298.0
5709.1133,333.0
5711.397,295.0
5713.6816,293.0
5715.9673,303.0
5718.254,324.0
5720.541,281.0
5722.829,302.0
5725.118,285.0
5727.408,299.0
5729.699,301.0
5731.991,306.0
5734.284,307.0
5736.578,328.0
5738.8726,338.0
5741.168,339.0
5743.4644,305.0
5745.7617,316.0
5748.06,358.0
5750.3594,326.0
5752.6597,314.0
5754.961,364.0
5757.2627,344.0
5759.5654,345.0
5761.869,348.0
5764.174,333.0
5766.4795,354.0
5768.786,379.0
5771.0938,396.0
5773.4023,384.0
5775.712,376.0
5778.022,347.0
5780.333,382.0
5782.645,403.0
5784.958,379.0
5787.272,405.0
5789.587,378.0
5791.903,382.0
5794.2197,403.0
5796.5376,403.0
5798.8564,423.0
5801.176,382.0
5803.496,383.0
5805.8174,419.0
5808.1396,430.0
5810.463,379.0
5812.787,421.0
5815.1123,437.0
5817.4385,425.0
5819.7656,426.0
5822.0938,492.0
5824.4224,449.0
5826.752,437.0
5829.0825,434.0
5831.414,556.0
5833.7466,408.0
5836.08,407.0
5838.4146,547.0
5840.75,516.0
5843.0864,439.0
5845.424,472.0
5847.762,491.0
5850.101,465.0
5852.441,433.0
5854.7817,425.0
5857.1235,381.0
5859.4663,429.0
5861.81,408.0
5864.155,452.0
5866.5005,391.0
5868.847,393.0
5871.195,400.0
5873.5435,384.0
5875.893,433.0
5878.2437,408.0
5880.5947,389.0
5882.947,343.0
5885.3,372.0
5887.654,365.0
5890.009,385.0
5892.3647,370.0
5894.7217,380.0
5897.0796,395.0
5899.4385,392.0
5901.7983,436.0
5904.159,372.0
5906.521,412.0
5908.884,392.0
5911.2476,402.0
5913.612,440.0
5915.977,431.0
5918.3433,415.0
5920.7104,432.0
5923.0786,378.0
5925.4478,391.0
5927.818,423.0
5930.189,433.0
5932.561,418.0
5934.934,408.0
5937.308,406.0
5939.683,462.0
5942.059,441.0
5944.436,478.0
5946.814,446.0
5949.193,433.0
5951.5728,443.0
5953.9536,400.0
5956.335,414.0
5958.7173,464.0
5961.1006,468.0
5963.485,442.0
5965.87,416.0
5968.2563,467.0
5970.6436,404.0
5973.0317,425.0
5975.421,439.0
5977.811,462.0
5980.202,413.0
5982.594,424.0
5984.9873,401.0
5987.3813,421.0
5989.7764,391.0
5992.1724,434.0
5994.5693,462.0
5996.9673,435.0
5999.366,389.0
6001.766,464.0
6004.167,504.0
6006.569,448.0
6008.9717,495.0
6011.3755,496.0
6013.7803,477.0
6016.1855,411.0
6018.592,451.0
6020.999,447.0
6023.407,377.0
6025.8164,394.0
6028.2266,415.0
6030.6377,408.0
6033.05,472.0
6035.463,474.0
6037.877,422.0
6040.292,447.0
6042.708,367.0
6045.125,451.0
6047.543,483.0
6049.962,404.0
6052.382,350.0
6054.8027,374.0
6057.2246,373.0
6059.6475,382.0
6062.0713,534.0
6064.496,530.0
6066.922,399.0
6069.3486,391.0
6071.7764,364.0
6074.205,355.0
6076.635,399.0
6079.0654,390.0
6081.497,410.0
6083.9297,395.0
6086.3633,396.0
6088.798,381.0
6091.2334,396.0
6093.67,370.0
6096.1074,417.0
6098.546,386.0
6100.9854,399.0
6103.426,442.0
6105.867,381.0
6108.3096,379.0
6110.753,409.0
6113.1973,450.0
6115.6426,448.0
6118.089,454.0
6120.536,426.0
6122.9844,408.0
6125.4336,407.0
6127.884,438.0
6130.335,472.0
6132.787,544.0
6135.24,499.0
6137.6943,440.0
6140.1494,481.0
6142.6055,454.0
6145.0625,492.0
6147.5205,526.0
6149.9795,599.0
6152.4395,505.0
6154.9004,524.0
6157.3623,530.0
6159.825,611.0
6162.289,540.0
6164.754,471.0
6167.2197,450.0
6169.6865,460.0
6172.1543,581.0
6174.623,729.0
6177.093,707.0
6179.5635,650.0
6182.035,538.0
6184.508,501.0
6186.9814,523.0
6189.456,568.0
6191.9316,830.0
6194.408,941.0
6196.8857,737.0
6199.3643,595.0
6201.844,573.0
6204.325,562.0
6206.807,521.0
6209.29,505.0
6211.774,502.0
6214.259,562.0
6216.7446,637.0
6219.2314,576.0
6221.719,516.0
6224.208,497.0
6226.6978,542.0
6229.1885,585.0
6231.68,640.0
6234.173,617.0
6236.6665,594.0
6239.161,573.0
6241.6567,517.0
6244.1533,523.0
6246.651,656.0
6249.1494,697.0
6251.649,666.0
6254.1494,646.0
6256.651,770.0
6259.1533,666.0
6261.6567,562.0
6264.1616,506.0
6266.6675,503.0
6269.1743,485.0
6271.682,821.0
6274.191,1108.0
6276.7007,857.0
6279.2114,604.0
6281.723,482.0
6284.236,465.0
6286.7495,522.0
6289.264,1102.0
6291.78,1561.0
6294.2964,1187.0
6296.814,733.0
6299.3325,576.0
6301.852,496.0
6304.3726,506.0
6306.8945,493.0
6309.4175,517.0
6311.9414,543.0
6314.4663,518.0
6316.992,457.0
6319.519,454.0
6322.047,436.0
6324.5757,463.0
6327.1055,408.0
6329.636,465.0
6332.168,439.0
6334.7007,463.0
6337.2344,457.0
6339.769,422.0
6342.305,417.0
6344.8423,429.0
6347.3804,411.0
6349.9194,425.0
6352.4595,421.0
6355.0005,406.0
6357.5425,405.0
6360.0854,421.0
6362.6294,405.0
6365.1743,434.0
6367.72,438.0
6370.267,459.0
6372.8154,410.0
6375.3647,395.0
6377.915,452.0
6380.4663,438.0
6383.0186,443.0
6385.572,444.0
6388.126,433.0
6390.681,413.0
6393.2373,439.0
6395.7944,394.0
6398.3525,423.0
6400.912,432.0
6403.4727,457.0
6406.034,514.0
6408.5967,412.0
6411.16,481.0
6413.7246,429.0
6416.29,460.0
6418.8564,435.0
6421.424,450.0
6423.992,430.0
6426.562,461.0
6429.133,452.0
6431.7046,456.0
6434.2773,415.0
6436.851,446.0
6439.426,462.0
6442.0015,410.0
6444.578,466.0
6447.156,489.0
6449.735,486.0
6452.315,430.0
6454.896,444.0
6457.478,432.0
6460.061,417.0
6462.645,422.0
6465.23,460.0
6467.816,449.0
6470.403,447.0
6472.991,440.0
6475.5806,463.0
6478.171,458.0
6480.762,453.0
6483.3545,429.0
6485.9478,461.0
6488.542,462.0
6491.137,455.0
6493.734,503.0
6496.3315,442.0
6498.93,457.0
6501.53,441.0
6504.1304,455.0
6506.732,483.0
6509.3345,452.0
6511.938,489.0
6514.543,533.0
6517.149,514.0
6519.756,476.0
6522.364,508.0
6524.9727,496.0
6527.5825,492.0
6530.1934,480.0
6532.8057,515.0
6535.419,473.0
6538.033,494.0
6540.6484,583.0
6543.2646,542.0
6545.882,486.0
6548.5,527.0
6551.1196,516.0
6553.74,601.0
6556.362,567.0
6558.9844,637.0
6561.608,575.0
6564.2324,553.0
6566.858,496.0
6569.485,462.0
6572.113,502.0
6574.7417,550.0
6577.3716,535.0
6580.0024,516.0
6582.6343,522.0
6585.267,539.0
6587.9014,514.0
6590.5366,589.0
6593.173,564.0
6595.81,555.0
6598.448,501.0
6601.0874,510.0
6603.728,478.0
6606.3696,547.0
6609.012,543.0
6611.656,570.0
6614.3003,511.0
6616.946,491.0
6619.593,567.0
6622.2407,538.0
6624.8896,549.0
6627.5396,503.0
6630.1904,519.0
6632.8423,506.0
6635.4956,557.0
6638.15,652.0
6640.805,634.0
6643.4614,575.0
6646.1187,540.0
6648.7773,517.0
6651.437,513.0
6654.0977,581.0
6656.7593,696.0
6659.422,650.0
6662.0854,546.0
6664.7505,536.0
6667.4165,485.0
6670.0835,499.0
6672.7515,476.0
6675.4204,525.0
6678.091,456.0
6680.762,529.0
6683.4346,503.0
6686.108,479.0
6688.782,474.0
6691.4575,529.0
6694.1343,524.0
6696.812,526.0
6699.4907,495.0
6702.1704,500.0
6704.851,513.0
6707.533,508.0
6710.2163,535.0
6712.9004,532.0
6715.5854,511.0
6718.2715,551.0
6720.959,549.0
6723.6475,575.0
6726.337,539.0
6729.0273,577.0
6731.7188,540.0
6734.4116,515.0
6737.1055,556.0
6739.8003,655.0
6742.496,720.0
6745.193,614.0
6747.891,568.0
6750.5903,561.0
6753.2905,588.0
6755.9917,620.0
6758.6943,778.0
6761.398,794.0
6764.1025,680.0
6766.808,627.0
6769.5146,606.0
6772.2227,565.0
6774.9316,639.0
6777.6416,731.0
6780.3525,677.0
6783.0645,734.0
6785.778,691.0
6788.492,655.0
6791.2075,692.0
6793.924,654.0
6796.6416,635.0
6799.3604,663.0
6802.08,607.0
6804.801,625.0
6807.5225,733.0
6810.2456,776.0
6812.9697,598.0
6815.695,602.0
6818.421,528.0
6821.1484,613.0
6823.877,765.0
6826.6064,863.0
6829.337,745.0
6832.069,564.0
6834.802,517.0
6837.5356,515.0
6840.2705,731.0
6843.007,903.0
6845.744,796.0
6848.4824,629.0
6851.2217,533.0
6853.9624,617.0
6856.704,658.0
6859.447,705.0
6862.1904,637.0
6864.9355,598.0
6867.6816,531.0
6870.4287,561.0
6873.177,519.0
6875.9263,541.0
6878.677,539.0
6881.428,560.0
6884.1807,522.0
6886.9346,565.0
6889.6895,523.0
6892.4453,471.0
6895.202,538.0
6897.9604,513.0
6900.7197,529.0
6903.48,618.0
6906.241,585.0
6909.004,532.0
6911.7676,635.0
6914.532,597.0
6917.298,614.0
6920.065,609.0
6922.833,574.0
6925.602,556.0
6928.372,587.0
6931.1436,570.0
6933.916,535.0
6936.6895,508.0
6939.4644,574.0
6942.24,551.0
6945.017,592.0
6947.795,637.0
6950.574,639.0
6953.3545,576.0
6956.1357,557.0
6958.918,563.0
6961.7017,558.0
6964.4863,539.0
6967.272,546.0
6970.059,524.0
6972.847,562.0
6975.636,593.0
6978.4263,605.0
6981.218,667.0
6984.0103,676.0
6986.8037,632.0
6989.5986,622.0
6992.3945,606.0
6995.1914,677.0
6997.9893,717.0
7000.7886,737.0
7003.589,715.0
7006.39,665.0
7009.193,683.0
7011.9966,655.0
7014.8013,684.0
7017.6074,809.0
7020.4146,812.0
7023.2227,851.0
7026.0317,896.0
7028.8423,809.0
7031.654,682.0
7034.4663,600.0
7037.2803,601.0
7040.095,799.0
7042.911,1036.0
7045.7285,898.0
7048.547,692.0
7051.366,616.0
7054.1865,650.0
7057.0083,880.0
7059.831,1376.0
7062.655,1287.0
7065.48,847.0
7068.306,690.0
7071.1333,595.0
7073.962,661.0
7076.7915,615.0
7079.622,639.0
7082.454,668.0
7085.287,686.0
7088.121,642.0
7090.9565,626.0
7093.793,693.0
7096.6304,667.0
7099.469,649.0
7102.309,661.0
7105.15,682.0
7107.992,693.0
7110.8354,712.0
7113.6797,754.0
7116.5254,750.0
7119.372,704.0
7122.2197,827.0
7125.069,813.0
7127.919,805.0
7130.77,820.0
7133.6226,690.0
7136.476,745.0
7139.3306,953.0
7142.1865,925.0
7145.0435,894.0
7147.9014,815.0
7150.7607,829.0
7153.621,911.0
7156.4824,1147.0
7159.345,1327.0
7162.209,1035.0
7165.0737,899.0
7167.94,943.0
7170.807,1048.0
7173.6753,1086.0
7176.545,950.0
7179.4155,1004.0
7182.287,937.0
7185.16,912.0
7188.034,1034.0
7190.909,1009.0
7193.7856,945.0
7196.663,1174.0
7199.542,1328.0
7202.422,989.0
7205.3027,824.0
7208.185,645.0
7211.0684,932.0
7213.9526,1640.0
7216.8384,1581.0
7219.725,1006.0
7222.613,695.0
7225.502,681.0
7228.392,970.0
7231.283,2247.0
7234.176,2339.0
7237.0693,1344.0
7239.9644,799.0
7242.8604,650.0
7245.7573,666.0
7248.656,673.0
7251.555,768.0
7254.4556,709.0
7257.3574,656.0
7260.2603,623.0
7263.1646,561.0
7266.07,573.0
7268.976,650.0
7271.884,620.0
7274.7925,607.0
7277.7026,589.0
7280.614,572.0
7283.526,594.0
7286.4395,656.0
7289.354,618.0
7292.2695,585.0
7295.1865,641.0
7298.1045,627.0
7301.024,581.0
7303.9443,601.0
7306.8657,558.0
7309.7886,630.0
7312.7124,855.0
7315.6377,731.0
7318.564,611.0
7321.491,545.0
7324.42,481.0
7327.3496,724.0
7330.281,999.0
7333.213,865.0
7336.146,634.0
7339.0806,595.0
7342.016,537.0
7344.953,562.0
7347.891,671.0
7350.83,658.0
7353.7705,582.0
7356.712,571.0
7359.655,521.0
7362.5986,538.0
7365.5435,558.0
7368.4897,512.0
7371.437,550.0
7374.3857,548.0
7377.3354,554.0
7380.2866,575.0
7383.239,571.0
7386.192,498.0
7389.1465,463.0
7392.102,505.0
7395.059,457.0
7398.017,526.0
7400.976,627.0
7403.9365,574.0
7406.898,494.0
7409.861,445.0
7412.8247,461.0
7415.79,560.0
7418.7563,657.0
7421.7236,534.0
7424.6924,481.0
7427.662,442.0
7430.6333,470.0
7433.6055,608.0
7436.579,585.0
7439.5537,508.0
7442.5293,521.0
7445.5063,447.0
7448.4844,436.0
7451.464,412.0
7454.4443,414.0
7457.4263,448.0
7460.409,463.0
7463.3936,432.0
7466.379,454.0
7469.365,432.0
7472.353,409.0
7475.342,431.0
7478.332,403.0
7481.323,428.0
7484.316,458.0
7487.3096,495.0
7490.3047,431.0
7493.301,401.0
7496.2983,376.0
7499.297,411.0
7502.2964,481.0
7505.2974,460.0
7508.2993,410.0
7511.3027,455.0
7514.307,367.0
7517.313,409.0
7520.32,409.0
7523.328,432.0
7526.3374,439.0
7529.348,429.0
7532.36,447.0
7535.373,407.0
7538.387,433.0
7541.4023,397.0
7544.419,448.0
7547.4365,514.0
7550.4556,418.0
7553.4756,372.0
7556.497,401.0
7559.5195,408.0
7562.5435,533.0
7565.5684,542.0
7568.5947,468.0
7571.622,412.0
7574.651,422.0
7577.6807,401.0
7580.712,423.0
7583.744,419.0
7586.778,423.0
7589.8125,429.0
7592.8486,380.0
7595.8857,368.0
7598.9243,446.0
7601.964,435.0
7605.005,393.0
7608.047,383.0
7611.0903,359.0
7614.135,429.0
7617.18,567.0
7620.227,479.0
7623.275,375.0
7626.324,411.0
7629.3745,383.0
7632.4263,475.0
7635.479,412.0
7638.533,408.0
7641.5884,403.0
7644.645,403.0
7647.7026,400.0
7650.7617,406.0
7653.8223,383.0
7656.884,386.0
7659.947,439.0
7663.0107,407.0
7666.076,384.0
7669.1426,410.0
7672.2104,402.0
7675.2793,444.0
7678.3496,381.0
7681.421,418.0
7684.4937,411.0
7687.5674,423.0
7690.6426,493.0
7693.7188,472.0
7696.7964,430.0
7699.875,461.0
7702.955,441.0
7706.036,449.0
7709.1187,510.0
7712.202,453.0
7715.287,489.0
7718.373,487.0
7721.4604,447.0
7724.549,475.0
7727.6387,501.0
7730.7295,483.0
7733.822,501.0
7736.9155,517.0
7740.0103,493.0
7743.1064,519.0
7746.2036,562.0
7749.3022,550.0
7752.402,502.0
7755.503,569.0
7758.605,583.0
7761.7085,559.0
7764.813,542.0
7767.919,609.0
7771.026,613.0
7774.1343,651.0
7777.244,521.0
7780.355,539.0
7783.4673,602.0
7786.5806,645.0
7789.6953,665.0
7792.811,659.0
7795.928,594.0
7799.0464,599.0
7802.166,579.0
7805.287,629.0
7808.409,684.0
7811.5327,692.0
7814.657,663.0
7817.783,617.0
7820.91,560.0
7824.0386,654.0
7827.168,797.0
7830.299,857.0
7833.431,655.0
7836.5645,601.0
7839.699,588.0
7842.835,694.0
7845.972,865.0
7849.1104,818.0
7852.25,692.0
7855.391,650.0
7858.533,604.0
7861.677,596.0
7864.8213,624.0
7867.9673,612.0
7871.1143,624.0
7874.2627,661.0
7877.4126,629.0
7880.5635,601.0
7883.716,700.0
7886.869,625.0
7890.024,592.0
7893.18,586.0
7896.3374,735.0
7899.496,769.0
7902.656,802.0
7905.817,725.0
7908.979,655.0
7912.1426,698.0
7915.3076,870.0
7918.4736,1045.0
7921.641,873.0
7924.8096,751.0
7927.9795,733.0
7931.151,664.0
7934.323,733.0
7937.497,742.0
7940.672,773.0
7943.848,727.0
7947.026,714.0
7950.2046,799.0
7953.385,843.0
7956.566,873.0
7959.7485,848.0
7962.9326,870.0
7966.1177,895.0
7969.304,1001.0
7972.4917,1016.0
7975.6807,892.0
7978.871,921.0
7982.0625,1000.0
7985.2554,1126.0
7988.4497,1203.0
7991.645,1156.0
7994.842,1030.0
7998.0396,1066.0
8001.239,1128.0
8004.4395,1379.0
8007.641,1392.0
8010.844,1202.0
8014.0483,1158.0
8017.254,1257.0
8020.461,1229.0
8023.669,1309.0
8026.8784,1347.0
8030.0894,1342.0
8033.3013,1414.0
8036.5146,1532.0
8039.7295,1685.0
8042.9453,1577.0
8046.1626,1568.0
8049.381,1613.0
8052.6006,1722.0
8055.822,2013.0
8059.044,2159.0
8062.2676,2023.0
8065.4927,2100.0
8068.7188,2226.0
8071.9463,2242.0
8075.1753,2387.0
8078.4053,2439.0
8081.6367,2910.0
8084.869,3130.0
8088.103,2912.0
8091.3384,2602.0
8094.5747,2504.0
8097.8125,3324.0
8101.052,4417.0
8104.292,4349.0
8107.5337,3956.0
8110.777,3492.0
8114.021,3283.0
8117.2666,4271.0
8120.5137,5183.0
8123.7617,5351.0
8127.011,5386.0
8130.262,4587.0
8133.514,4114.0
8136.7676,4787.0
8140.0225,5893.0
8143.2783,8102.0
8146.5356,7279.0
8149.7944,5603.0
8153.054,6679.0
8156.3154,6463.0
8159.578,7524.0
8162.842,8984.0
8166.107,8340.0
8169.3735,12271.0
8172.641,11902.0
8175.91,7411.0
8179.1807,4301.0
8182.452,5549.0
8185.725,18789.0
8188.9995,23717.0
8192.275,11137.0
8195.553,5087.0
8198.831,4363.0
8202.11,19383.0
8205.392,44635.0
8208.674,27441.0
8211.957,9535.0
8215.242,4244.0
8218.528,3641.0
8221.815,3382.0
8225.1045,4529.0
8228.395,5503.0
8231.686,3956.0
8234.979,2424.0
8238.272,1791.0
8241.567,1955.0
8244.864,2130.0
8248.162,2090.0
8251.461,1954.0
8254.762,1559.0
8258.063,1301.0
8261.367,1382.0
8264.672,1438.0
8267.978,1502.0
8271.285,1384.0
8274.594,1346.0
8277.903,1210.0
8281.215,1172.0
8284.527,1234.0
8287.841,1481.0
8291.156,1352.0
8294.473,1211.0
8297.79,1260.0
8301.109,1187.0
8304.43,1309.0
8307.751,1449.0
8311.074,1430.0
8314.398,1415.0
8317.725,1440.0
8321.052,1273.0
8324.38,1193.0
8327.71,1358.0
8331.041,1769.0
8334.373,1634.0
8337.707,1342.0
8341.042,1180.0
8344.378,1315.0
8347.716,1897.0
8351.055,2056.0
8354.3955,1669.0
8357.737,1483.0
8361.08,1368.0
8364.425,1270.0
8367.7705,1148.0
8371.117,1170.0
8374.466,1576.0
8377.815,1676.0
8381.167,1336.0
8384.52,945.0
8387.873,1037.0
8391.229,1437.0
8394.585,1882.0
8397.942,1498.0
8401.302,1059.0
8404.662,1023.0
8408.024,1158.0
8411.388,1001.0
8414.752,1072.0
8418.118,893.0
8421.485,902.0
8424.854,754.0
8428.224,850.0
8431.595,921.0
8434.968,933.0
8438.342,838.0
8441.717,826.0
8445.094,807.0
8448.472,946.0
8451.851,941.0
8455.231,901.0
8458.613,890.0
8461.997,971.0
8465.382,1131.0
8468.768,1060.0
8472.155,1027.0
8475.544,1085.0
8478.935,1018.0
8482.326,1011.0
8485.719,1229.0
8489.113,1393.0
8492.509,1501.0
8495.906,1311.0
8499.305,1216.0
8502.704,1360.0
8506.105,1623.0
8509.508,1771.0
8512.911,1545.0
8516.316,1677.0
8519.723,1871.0
8523.131,1714.0
8526.54,1864.0
8529.95,1928.0
8533.362,2506.0
8536.775,3034.0
8540.19,2144.0
8543.606,1466.0
8547.023,1372.0
8550.442,3227.0
8553.862,4539.0
8557.284,2771.0
8560.707,1637.0
8564.131,1513.0
8567.557,4129.0
8570.983,6732.0
8574.412,4607.0
8577.842,2260.0
8581.272,1603.0
8584.705,1329.0
8588.139,1233.0
8591.574,1587.0
8595.011,2033.0
8598.449,1727.0
8601.889,1129.0
8605.329,861.0
8608.771,881.0
8612.215,868.0
8615.66,883.0
8619.106,866.0
8622.554,869.0
8626.003,764.0
8629.453,756.0
8632.905,757.0
8636.358,805.0
8639.8125,845.0
8643.269,801.0
8646.726,712.0
8650.185,762.0
8653.645,840.0
8657.106,745.0
8660.569,792.0
8664.033,806.0
8667.499,805.0
8670.966,873.0
8674.435,809.0
8677.904,884.0
8681.375,881.0
8684.848,844.0
8688.321,839.0
8691.797,849.0
8695.273,1002.0
8698.752,1051.0
8702.231,945.0
8705.712,954.0
8709.194,1038.0
8712.678,1128.0
8716.163,1179.0
8719.649,1113.0
8723.138,1052.0
8726.627,1100.0
8730.117,1111.0
8733.609,1148.0
8737.103,1210.0
8740.598,1299.0
8744.094,1192.0
8747.592,1180.0
8751.091,1309.0
8754.591,1478.0
8758.093,1473.0
8761.596,1432.0
8765.101,1318.0
8768.606,1494.0
8772.114,1685.0
8775.623,1726.0
8779.133,1600.0
8782.645,1686.0
8786.157,1582.0
8789.672,1716.0
8793.1875,1693.0
8796.705,2250.0
8800.224,2426.0
8803.744,1780.0
8807.266,1497.0
8810.788,1655.0
8814.3125,2930.0
8817.838,3190.0
8821.365,2119.0
8824.894,1657.0
8828.424,1911.0
8831.955,3519.0
8835.488,3697.0
8839.022,2654.0
8842.558,2117.0
8846.095,1845.0
8849.633,1710.0
8853.173,1831.0
8856.714,2298.0
8860.257,2788.0
8863.801,2194.0
8867.347,1685.0
8870.894,1806.0
8874.442,2602.0
8877.992,3439.0
8881.543,2660.0
8885.096,2059.0
8888.649,1720.0
8892.205,1666.0
8895.762,1883.0
8899.32,2402.0
8902.88,2330.0
8906.441,1872.0
8910.004,1670.0
8913.568,1921.0
8917.134,2441.0
8920.7,2391.0
8924.269,1952.0
8927.838,1847.0
8931.409,2023.0
8934.981,2759.0
8938.556,2497.0
8942.131,2092.0
8945.708,1972.0
8949.286,1772.0
8952.866,1545.0
8956.447,1717.0
8960.03,2051.0
8963.614,1927.0
8967.199,1706.0
8970.786,1505.0
8974.374,1693.0
8977.964,1962.0
8981.555,1776.0
8985.147,1618.0
8988.741,1539.0
8992.337,1699.0
8995.934,1801.0
8999.532,1695.0
9003.132,1544.0
9006.733,1703.0
9010.336,1747.0
9013.94,1627.0
9017.546,1575.0
9021.153,1483.0
9024.762,1811.0
9028.372,1832.0
9031.983,1553.0
9035.597,1306.0
9039.211,1423.0
9042.826,1853.0
9046.443,1700.0
9050.062,1371.0
9053.682,1191.0
9057.303,1600.0
9060.926,2122.0
9064.55,1749.0
9068.176,1298.0
9071.803,1136.0
9075.432,1519.0
9079.062,1777.0
9082.693,1429.0
9086.326,1178.0
9089.961,1123.0
9093.597,1306.0
9097.234,1361.0
9100.873,1155.0
9104.514,1186.0
9108.155,1022.0
9111.799,1030.0
9115.443,879.0
9119.09,1033.0
9122.737,1217.0
9126.387,1017.0
9130.037,886.0
9133.689,883.0
9137.343,1021.0
9140.998,1132.0
9144.654,1004.0
9148.3125,964.0
9151.972,849.0
9155.633,844.0
9159.295,861.0
9162.959,1052.0
9166.624,1091.0
9170.291,815.0
9173.959,765.0
9177.629,870.0
9181.3,1233.0
9184.973,1272.0
9188.646,961.0
9192.322,766.0
9195.999,1021.0
9199.678,1195.0
9203.357,1023.0
9207.039,895.0
9210.722,798.0
9214.406,645.0
9218.092,659.0
9221.779,776.0
9225.468,918.0
9229.158,754.0
9232.85,655.0
9236.543,681.0
9240.237,814.0
9243.934,927.0
9247.631,771.0
9251.33,642.0
9255.03,542.0
9258.732,470.0
9262.436,548.0
9266.141,614.0
9269.847,583.0
9273.555,499.0
9277.264,469.0
9280.975,459.0
9284.687,507.0
9288.4,477.0
9292.116,443.0
9295.833,448.0
9299.552,436.0
9303.271,446.0
9306.993,437.0
9310.716,382.0
9314.44,450.0
9318.166,419.0
9321.894,383.0
9325.622,408.0
9329.353,412.0
9333.084,414.0
9336.817,398.0
9340.552,426.0
9344.288,387.0
9348.025,431.0
9351.765,378.0
9355.505,379.0
9359.247,383.0
9362.991,462.0
9366.736,393.0
9370.483,379.0
9374.231,373.0
9377.981,403.0
9381.732,440.0
9385.485,388.0
9389.239,316.0
9392.995,370.0
9396.752,347.0
9400.511,398.0
9404.2705,378.0
9408.032,333.0
9411.796,335.0
9415.561,354.0
9419.327,323.0
9423.095,333.0
9426.864,310.0
9430.635,341.0
9434.407,333.0
9438.181,322.0
9441.956,354.0
9445.732,352.0
9449.511,296.0
9453.291,257.0
9457.072,355.0
9460.855,320.0
9464.64,348.0
9468.426,322.0
9472.213,307.0
9476.002,283.0
9479.792,280.0
9483.584,294.0
9487.377,347.0
9491.172,320.0
9494.969,275.0
9498.767,278.0
9502.566,319.0
9506.367,341.0
9510.17,327.0
9513.974,310.0
9517.779,253.0
9521.586,268.0
9525.395,264.0
9529.205,286.0
9533.017,287.0
9536.83,260.0
9540.645,253.0
9544.461,260.0
9548.278,312.0
9552.098,303.0
9555.919,282.0
9559.741,244.0
9563.565,273.0
9567.391,237.0
9571.218,279.0
9575.046,250.0
9578.876,213.0
9582.708,241.0
9586.541,249.0
9590.376,241.0
9594.212,220.0
9598.05,238.0
9601.889,217.0
9605.7295,228.0
9609.572,238.0
9613.416,237.0
9617.262,229.0
9621.108,205.0
9624.957,200.0
9628.807,226.0
9632.658,250.0
9636.512,232.0
9640.366,247.0
9644.223,193.0
9648.08,194.0
9651.939,222.0
9655.8,200.0
9659.662,245.0
9663.526,206.0
9667.392,183.0
9671.259,187.0
9675.127,217.0
9678.997,219.0
9682.869,193.0
9686.742,219.0
9690.617,194.0
9694.493,204.0
9698.371,212.0
9702.25,191.0
9706.131,197.0
9710.014,175.0
9713.897,191.0
9717.783,170.0
9721.67,196.0
9725.559,184.0
9729.449,198.0
9733.341,176.0
9737.234,198.0
9741.129,191.0
9745.025,179.0
9748.924,188.0
9752.823,174.0
9756.725,189.0
9760.627,197.0
9764.531,182.0
9768.4375,182.0
9772.345,222.0
9776.254,204.0
9780.164,176.0
9784.076,211.0
9787.99,203.0
9791.905,182.0
9795.822,193.0
9799.74,200.0
9803.66,166.0
9807.582,218.0
9811.505,196.0
9815.43,223.0
9819.355,169.0
9823.283,178.0
9827.213,204.0
9831.144,202.0
9835.076,176.0
9839.01,194.0
9842.945,179.0
9846.883,229.0
9850.821,215.0
9854.762,195.0
9858.704,180.0
9862.647,201.0
9866.593,198.0
9870.539,207.0
9874.487,194.0
9878.4375,215.0
9882.389,196.0
9886.342,173.0
9890.296,192.0
9894.252,206.0
9898.21,168.0
9902.169,214.0
9906.13,183.0
9910.093,229.0
9914.057,215.0
9918.022,202.0
9921.989,196.0
9925.958,201.0
9929.929,214.0
9933.9,215.0
9937.874,185.0
9941.85,210.0
9945.826,215.0
9949.805,222.0
9953.784,201.0
9957.766,210.0
9961.749,218.0
9965.733,194.0
9969.72,199.0
9973.708,199.0
9977.697,212.0
9981.688,193.0
9985.681,194.0
9989.675,230.0
9993.671,198.0
9997.668,208.0
10001.667,192.0
10005.668,197.0
10009.67,227.0
10013.674,205.0
10017.68,201.0
10021.687,208.0
10025.695,197.0
10029.706,209.0
10033.718,182.0
10037.731,176.0
10041.746,220.0
10045.763,204.0
10049.781,198.0
10053.801,182.0
10057.822,204.0
10061.846,202.0
10065.87,192.0
10069.896,194.0
10073.925,222.0
10077.954,226.0
10081.985,228.0
10086.019,188.0
10090.053,216.0
10094.089,207.0
10098.127,213.0
10102.166,229.0
10106.207,203.0
10110.25,213.0
10114.294,196.0
10118.34,235.0
10122.387,230.0
10126.436,213.0
10130.486,207.0
10134.538,233.0
10138.592,219.0
10142.647,241.0
10146.704,179.0
10150.763,214.0
10154.823,202.0
10158.885,203.0
10162.948,201.0
10167.014,223.0
10171.08,183.0
10175.148,214.0
10179.219,214.0
10183.29,221.0
10187.363,207.0
10191.438,213.0
10195.515,202.0
10199.593,226.0
10203.673,210.0
10207.754,245.0
10211.837,211.0
10215.922,189.0
10220.008,253.0
10224.096,199.0
10228.186,226.0
10232.276,239.0
10236.369,231.0
10240.464,214.0
10244.56,225.0
10248.657,218.0
10252.757,212.0
10256.858,187.0
10260.961,226.0
10265.065,231.0
10269.172,214.0
10273.279,203.0
10277.389,208.0
10281.5,237.0
10285.612,229.0
10289.727,228.0
10293.843,232.0
10297.96,215.0
10302.079,227.0
10306.2,241.0
10310.322,198.0
10314.446,234.0
10318.572,205.0
10322.699,230.0
10326.828,222.0
10330.959,219.0
10335.092,205.0
10339.226,204.0
10343.361,227.0
10347.499,234.0
10351.638,214.0
10355.778,239.0
10359.921,248.0
10364.064,256.0
10368.21,205.0
10372.357,246.0
10376.507,245.0
10380.657,240.0
10384.81,236.0
10388.964,236.0
10393.119,232.0
10397.276,245.0
10401.436,212.0
10405.596,208.0
10409.758,224.0
10413.922,240.0
10418.088,209.0
10422.255,223.0
10426.424,227.0
10430.595,210.0
10434.767,221.0
10438.94,219.0
10443.116,200.0
10447.294,215.0
10451.473,209.0
10455.653,237.0
10459.836,215.0
10464.02,242.0
10468.205,243.0
10472.393,236.0
10476.581,213.0
10480.771,241.0
10484.964,222.0
10489.158,216.0
10493.354,244.0
10497.551,232.0
10501.75,248.0
10505.951,229.0
10510.153,239.0
10514.357,219.0
10518.563,241.0
10522.7705,205.0
10526.9795,236.0
10531.19,232.0
10535.403,240.0
10539.617,238.0
10543.833,206.0
10548.051,233.0
10552.27,247.0
10556.49,242.0
10560.713,249.0
10564.9375,223.0
10569.163,233.0
10573.391,207.0
10577.62,225.0
10581.852,209.0
10586.084,224.0
10590.318,215.0
10594.555,222.0
10598.793,240.0
10603.032,239.0
10607.273,225.0
10611.517,215.0
10615.761,243.0
10620.007,242.0
10624.255,231.0
10628.505,226.0
10632.756,241.0
10637.009,247.0
10641.264,238.0
10645.5205,209.0
10649.778,222.0
10654.038,247.0
10658.3,221.0
10662.563,226.0
10666.828,240.0
10671.095,251.0
10675.363,245.0
10679.634,258.0
10683.905,236.0
10688.179,238.0
10692.454,265.0
10696.731,242.0
10701.01,246.0
10705.29,254.0
10709.572,222.0
10713.856,250.0
10718.142,268.0
10722.429,245.0
10726.718,258.0
10731.009,266.0
10735.301,258.0
10739.595,281.0
10743.891,269.0
10748.188,267.0
10752.487,256.0
10756.788,294.0
10761.091,278.0
10765.3955,239.0
10769.702,247.0
10774.01,252.0
10778.319,247.0
10782.631,252.0
10786.944,274.0
10791.259,264.0
10795.575,225.0
10799.894,244.0
10804.214,233.0
10808.535,249.0
10812.858,235.0
10817.184,237.0
10821.511,247.0
10825.839,274.0
10830.169,233.0
10834.501,254.0
10838.835,263.0
10843.171,248.0
10847.508,263.0
10851.847,244.0
10856.1875,256.0
10860.53,245.0
10864.874,256.0
10869.22,257.0
10873.567,243.0
10877.917,255.0
10882.269,243.0
10886.621,283.0
10890.976,255.0
10895.332,262.0
10899.69,240.0
10904.051,254.0
10908.412,271.0
10912.775,260.0
10917.141,267.0
10921.508,293.0
10925.876,302.0
10930.246,270.0
10934.618,279.0
10938.992,268.0
10943.368,282.0
10947.745,252.0
10952.124,281.0
10956.505,270.0
10960.888,316.0
10965.272,283.0
10969.658,291.0
10974.046,294.0
10978.436,271.0
10982.827,278.0
10987.221,281.0
10991.615,278.0
10996.012,266.0
11000.41,313.0
11004.811,300.0
11009.213,294.0
11013.616,301.0
11018.021,318.0
11022.429,270.0
11026.838,259.0
11031.249,292.0
11035.661,280.0
11040.075,278.0
11044.491,299.0
11048.909,300.0
11053.329,299.0
11057.75,288.0
11062.173,299.0
11066.598,301.0
11071.024,306.0
11075.453,275.0
11079.884,324.0
11084.315,299.0
11088.749,303.0
11093.185,281.0
11097.622,297.0
11102.062,309.0
11106.502,315.0
11110.944,291.0
11115.389,289.0
11119.835,309.0
11124.283,319.0
11128.733,351.0
11133.185,321.0
11137.638,273.0
11142.093,364.0
11146.55,301.0
11151.009,351.0
11155.469,350.0
11159.931,317.0
11164.395,323.0
11168.86,349.0
11173.328,317.0
11177.798,327.0
11182.269,335.0
11186.741,348.0
11191.216,346.0
11195.692,365.0
11200.171,353.0
11204.651,385.0
11209.133,358.0
11213.616,363.0
11218.102,373.0
11222.589,374.0
11227.078,392.0
11231.569,390.0
11236.062,374.0
11240.556,394.0
11245.052,396.0
11249.55,405.0
11254.05,412.0
11258.552,370.0
11263.056,459.0
11267.561,427.0
11272.067,432.0
11276.576,417.0
11281.087,402.0
11285.6,405.0
11290.114,458.0
11294.63,499.0
11299.147,459.0
11303.667,464.0
11308.188,464.0
11312.712,485.0
11317.237,508.0
11321.765,494.0
11326.293,446.0
11330.823,516.0
11335.355,507.0
11339.89,558.0
11344.426,585.0
11348.964,589.0
11353.504,546.0
11358.045,586.0
11362.588,620.0
11367.133,612.0
11371.68,589.0
11376.229,630.0
11380.779,638.0
11385.332,644.0
11389.886,683.0
11394.441,715.0
11398.999,693.0
11403.559,689.0
11408.12,725.0
11412.684,744.0
11417.249,781.0
11421.816,749.0
11426.385,767.0
11430.955,811.0
11435.527,840.0
11440.102,811.0
11444.678,838.0
11449.256,903.0
11453.836,865.0
11458.417,911.0
11463.0,997.0
11467.585,987.0
11472.172,927.0
11476.761,983.0
11481.352,1010.0
11485.944,975.0
11490.539,1074.0
11495.136,1116.0
11499.733,1184.0
11504.333,1102.0
11508.935,1101.0
11513.538,1199.0
11518.144,1144.0
11522.751,1159.0
11527.36,1248.0
11531.972,1296.0
11536.584,1229.0
11541.198,1285.0
11545.814,1418.0
11550.433,1276.0
11555.053,1285.0
11559.675,1330.0
11564.299,1431.0
11568.925,1276.0
11573.553,1425.0
11578.183,1467.0
11582.813,1347.0
11587.446,1373.0
11592.081,1474.0
11596.718,1580.0
11601.356,1369.0
11605.997,1395.0
11610.64,1595.0
11615.284,1488.0
11619.931,1330.0
11624.579,1460.0
11629.229,1647.0
11633.88,1323.0
11638.533,1385.0
11643.188,1654.0
11647.846,1524.0
11652.505,1292.0
11657.166,1512.0
11661.829,1692.0
11666.494,1298.0
11671.161,1246.0
11675.83,1814.0
11680.5,1720.0
11685.172,1230.0
11689.846,1282.0
11694.521,1396.0
11699.199,1164.0
11703.879,1052.0
11708.561,1138.0
11713.244,978.0
11717.93,896.0
11722.617,925.0
11727.307,846.0
11731.998,777.0
11736.69,795.0
11741.385,781.0
11746.081,774.0
11750.779,639.0
11755.4795,727.0
11760.182,627.0
11764.886,586.0
11769.592,606.0
11774.3,611.0
11779.01,625.0
11783.722,545.0
11788.436,566.0
11793.151,528.0
11797.868,539.0
11802.587,493.0
11807.308,570.0
11812.03,515.0
11816.755,544.0
11821.481,528.0
11826.21,541.0
11830.94,510.0
11835.673,518.0
11840.407,468.0
11845.144,461.0
11849.882,443.0
11854.622,367.0
11859.364,405.0
11864.108,433.0
11868.8545,463.0
11873.602,436.0
11878.351,377.0
11883.102,352.0
11887.8545,348.0
11892.609,334.0
11897.366,339.0
11902.125,363.0
11906.886,311.0
11911.648,303.0
11916.413,289.0
11921.18,271.0
11925.948,301.0
11930.719,309.0
11935.491,291.0
11940.266,291.0
11945.042,266.0
11949.82,292.0
11954.601,274.0
11959.383,272.0
11964.167,271.0
11968.953,254.0
11973.74,261.0
11978.529,249.0
11983.32,271.0
11988.113,245.0
11992.908,238.0
