M/Z,Intensity
800.0,98.0
800.32,134.0
800.64014,50.0
800.9604,234.0
801.28076,253.0
801.60126,61.0
801.9219,134.0
802.2426,155.0
802.56354,70.0
802.8846,216.0
803.20575,169.0
803.52704,60.0
803.84845,103.0
804.17,172.0
804.49164,70.0
804.8134,58.0
805.1353,125.0
805.4574,82.0
805.7796,52.0
806.1019,124.0
806.4244,120.0
806.74695,44.0
807.06964,113.0
807.39246,113.0
807.7154,56.0
808.03845,97.0
808.3617,111.0
808.68506,51.0
809.00854,98.0
809.33215,137.0
809.6559,45.0
809.97974,74.0
810.3037,129.0
810.6278,56.0
810.9521,102.0
811.2765,119.0
811.601,48.0
811.92566,73.0
812.2504,152.0
812.5753,65.0
812.9003,80.0
813.22546,129.0
813.5508,51.0
813.8762,55.0
814.2018,130.0
814.52747,55.0
814.8533,85.0
815.1792,148.0
815.50525,84.0
815.8314,50.0
816.1578,109.0
816.48425,76.0
816.81085,138.0
817.1376,208.0
817.4644,101.0
817.7914,73.0
818.11847,164.0
818.44574,86.0
818.77313,70.0
819.10065,140.0
819.4283,91.0
819.75604,51.0
820.0839,93.0
820.412,83.0
820.7402,69.0
821.0685,124.0
821.3969,131.0
821.72546,51.0
822.05414,98.0
822.38293,116.0
822.7119,68.0
823.041,216.0
823.37024,121.0
823.6996,64.0
824.02905,177.0
824.35864,117.0
824.6884,285.0
825.0183,3298.0
825.3483,198.0
825.67847,141.0
826.0087,1498.0
826.3391,162.0
826.6696,61.0
827.0003,490.0
827.3311,133.0
827.66205,59.0
827.9931,148.0
828.3243,116.0
828.65564,45.0
828.9871,85.0
829.3187,146.0
829.65045,43.0
829.9823,73.0
830.3143,122.0
830.6464,53.0
830.9787,90.0
831.3111,134.0
831.6436,61.0
831.97626,98.0
832.309,115.0
832.64197,50.0
832.97504,102.0
833.3082,117.0
833.64154,56.0
833.975,102.0
834.3086,133.0
834.64233,51.0
834.9762,64.0
835.3102,132.0
835.6443,39.0
835.9785,83.0
836.3129,119.0
836.64746,54.0
836.9821,107.0
837.3169,129.0
837.6518,44.0
837.9869,96.0
838.3221,120.0
838.6574,87.0
838.99286,558.0
839.3284,120.0
839.6642,54.0
840.00006,319.0
840.33606,142.0
840.6722,109.0
841.0084,718.0
841.34485,125.0
841.6814,75.0
842.01807,377.0
842.35486,169.0
842.6918,76.0
843.0289,224.0
843.3661,114.0
843.7034,61.0
844.0409,133.0
844.37854,114.0
844.7163,155.0
845.0542,680.0
845.3922,197.0
845.73035,114.0
846.06866,417.0
846.4071,135.0
846.74567,125.0
847.08435,243.0
847.42316,111.0
847.76215,74.0
848.10126,162.0
848.4405,98.0
848.77985,58.0
849.1194,127.0
849.45905,105.0
849.7988,56.0
850.13873,97.0
850.47876,92.0
850.819,46.0
851.1593,111.0
851.49976,75.0
851.84033,56.0
852.1811,114.0
852.522,84.0
852.863,56.0
853.2041,112.0
853.5454,69.0
853.88684,61.0
854.2284,120.0
854.57007,69.0
854.9119,296.0
855.2539,125.0
855.596,57.0
855.93823,157.0
856.2806,117.0
856.6231,58.0
856.96576,155.0
857.30853,131.0
857.6514,60.0
857.9945,142.0
858.3377,139.0
858.681,55.0
859.0245,147.0
859.3681,134.0
859.71185,60.0
860.0557,116.0
860.3997,115.0
860.7439,759.0
861.0882,1209.0
861.4326,144.0
861.77716,473.0
862.1219,512.0
862.46674,110.0
862.8117,264.0
863.15686,173.0
863.50214,95.0
863.84753,112.0
864.19305,102.0
864.53876,84.0
864.8846,133.0
865.2305,127.0
865.5766,73.0
865.92285,76.0
866.2692,124.0
866.6157,64.0
866.96234,278.0
867.30914,143.0
867.65607,59.0
868.0031,144.0
868.35034,100.0
868.6977,62.0
869.04517,112.0
869.39276,100.0
869.74054,60.0
870.08844,94.0
870.43646,82.0
870.7846,65.0
871.13293,103.0
871.4814,85.0
871.82996,68.0
872.1787,96.0
872.5276,84.0
872.8766,78.0
873.2257,128.0
873.575,64.0
873.92444,63.0
874.274,150.0
874.6237,60.0
874.9736,74.0
875.32355,116.0
875.6737,53.0
876.024,81.0
876.3744,131.0
876.7249,191.0
877.0756,331.0
877.42645,128.0
877.7774,179.0
878.12854,169.0
878.4798,85.0
878.8312,122.0
879.18274,130.0
879.5344,73.0
879.8862,83.0
880.23816,123.0
880.5903,60.0
880.9425,86.0
881.29486,107.0
881.6474,60.0
882.00006,95.0
882.35284,110.0
882.7058,76.0
883.0589,147.0
883.4121,105.0
883.7655,89.0
884.119,115.0
884.47266,105.0
884.8264,79.0
885.18036,92.0
885.5344,67.0
885.8886,63.0
886.243,112.0
886.5975,58.0
886.9521,65.0
887.3069,111.0
887.6618,42.0
888.01685,92.0
888.3721,95.0
888.7274,53.0
889.0829,109.0
889.43854,150.0
889.7943,60.0
890.1502,100.0
890.5063,116.0
890.8625,55.0
891.2188,97.0
891.5753,92.0
891.93195,59.0
892.2887,127.0
892.6456,67.0
893.0027,80.0
893.35986,143.0
893.7172,57.0
894.0747,84.0
894.4323,121.0
894.7901,60.0
895.148,98.0
895.50604,87.0
895.86426,58.0
896.2226,94.0
896.58105,58.0
896.9397,79.0
897.29846,121.0
897.6574,39.0
898.0165,72.0
898.3757,89.0
898.73505,72.0
899.09454,126.0
899.45416,101.0
899.81396,46.0
900.1739,116.0
900.53394,71.0
900.89417,72.0
901.2545,95.0
901.615,53.0
901.97565,73.0
902.3364,126.0
902.6974,47.0
903.0585,91.0
903.4197,122.0
903.78107,52.0
904.1426,110.0
904.5042,94.0
904.866,104.0
905.22797,109.0
905.5901,82.0
905.95233,62.0
906.3147,136.0
906.67725,39.0
907.0399,78.0
907.4027,104.0
907.7657,54.0
908.1288,81.0
908.49207,99.0
908.85547,77.0
909.219,96.0
909.5827,76.0
909.94653,56.0
910.3105,101.0
910.6746,59.0
911.0389,88.0
911.4033,109.0
911.7679,58.0
912.13257,87.0
912.49744,97.0
912.8624,55.0
913.2276,104.0
913.5929,50.0
913.9583,70.0
914.3239,98.0
914.68964,54.0
915.05554,73.0
915.4216,86.0
915.7877,43.0
916.15405,88.0
916.5205,88.0
916.88715,58.0
917.2539,132.0
917.6208,64.0
917.98785,72.0
918.35504,121.0
918.7224,49.0
919.0899,84.0
919.4575,99.0
919.8253,62.0
920.19324,142.0
920.56134,77.0
920.92957,67.0
921.2979,126.0
921.66644,59.0
922.0351,88.0
922.40393,118.0
922.7729,55.0
923.14197,114.0
923.5112,82.0
923.8806,70.0
924.2502,96.0
924.6199,58.0
924.98975,78.0
925.35974,105.0
925.72986,59.0
926.10016,120.0
926.4706,88.0
926.8412,73.0
927.2119,105.0
927.5828,63.0
927.95386,83.0
928.325,109.0
928.69635,62.0
929.0678,85.0
929.43945,106.0
929.8112,48.0
930.18317,113.0
930.55524,85.0
930.9274,60.0
931.2998,104.0
931.6723,56.0
932.045,81.0
932.4178,90.0
932.7908,58.0
933.1639,104.0
933.5372,110.0
933.9106,61.0
934.2841,134.0
934.65784,59.0
935.0317,85.0
935.4057,101.0
935.77985,58.0
936.1542,106.0
936.5286,65.0
936.90326,58.0
937.278,130.0
937.65295,48.0
938.028,84.0
938.4032,98.0
938.77856,41.0
939.15405,72.0
939.5297,67.0
939.9055,66.0
940.2815,83.0
940.6576,49.0
941.0339,79.0
941.4103,95.0
941.78687,42.0
942.1636,95.0
942.54047,55.0
942.9175,84.0
943.2947,91.0
943.672,44.0
944.04944,104.0
944.42706,92.0
944.8048,44.0
945.18274,102.0
945.5608,65.0
945.939,68.0
946.3174,116.0
946.6959,52.0
947.0746,79.0
947.4534,80.0
947.8324,70.0
948.21155,124.0
948.5908,52.0
948.9703,74.0
949.34985,104.0
949.7296,50.0
950.1095,72.0
950.48956,55.0
950.86975,44.0
951.2501,109.0
951.6306,59.0
952.0113,72.0
952.3921,99.0
952.7731,48.0
953.1542,88.0
953.53546,71.0
953.9169,69.0
954.29846,120.0
954.6802,50.0
955.0621,62.0
955.4441,111.0
955.8263,55.0
956.2086,98.0
956.5911,67.0
956.97375,56.0
957.35657,102.0
957.7395,42.0
958.1226,77.0
958.50586,73.0
958.8893,55.0
959.2728,88.0
959.65656,40.0
960.0404,81.0
960.42444,86.0
960.8086,53.0
961.19293,102.0
961.5774,62.0
961.96204,84.0
962.3468,115.0
962.73175,50.0
963.1168,90.0
963.5021,70.0
963.88745,65.0
964.273,109.0
964.6587,60.0
965.04456,62.0
965.4306,96.0
965.8168,68.0
966.2031,85.0
966.5896,58.0
966.97626,68.0
967.36304,104.0
967.75,44.0
968.1371,105.0
968.52435,74.0
968.91174,60.0
969.2993,112.0
969.687,51.0
970.0749,139.0
970.4629,106.0
970.8511,60.0
971.23944,101.0
971.6279,61.0
972.0166,81.0
972.4054,116.0
972.7944,54.0
973.1835,89.0
973.57275,83.0
973.96216,59.0
974.35175,103.0
974.7415,41.0
975.1314,75.0
975.5215,88.0
975.9117,55.0
976.30206,87.0
976.69257,42.0
977.08325,67.0
977.47406,88.0
977.86505,47.0
978.2562,105.0
978.6475,58.0
979.039,88.0
979.4306,111.0
979.8224,53.0
980.2143,91.0
980.6064,77.0
980.99866,65.0
981.39105,98.0
981.7836,39.0
982.17633,94.0
982.5692,57.0
982.9622,66.0
983.3554,98.0
983.7488,71.0
984.1423,103.0
984.53595,68.0
984.92975,81.0
985.3237,103.0
985.71783,63.0
986.1121,125.0
986.5066,77.0
986.9012,81.0
987.29596,106.0
987.69086,46.0
988.08594,70.0
988.4812,79.0
988.8766,49.0
989.27216,92.0
989.66785,53.0
990.0637,91.0
990.4597,70.0
990.8559,60.0
991.25226,105.0
991.64874,85.0
992.0454,137.0
992.4422,92.0
992.8392,94.0
993.2363,94.0
993.6336,64.0
994.03107,88.0
994.42865,95.0
994.8264,61.0
995.22437,97.0
995.62244,41.0
996.0207,90.0
996.4191,103.0
996.8177,47.0
997.21643,104.0
997.6153,64.0
998.01434,63.0
998.4136,71.0
998.8129,48.0
999.21246,93.0
999.6121,67.0
1000.01196,74.0
1000.412,106.0
1000.81213,41.0
1001.21246,113.0
1001.613,54.0
1002.0136,87.0
1002.4144,102.0
1002.81537,59.0
1003.2165,79.0
1003.6178,61.0
1004.0192,75.0
1004.42084,112.0
1004.82263,77.0
1005.22455,90.0
1005.62665,78.0
1006.0289,130.0
1006.4313,105.0
1006.83386,91.0
1007.2366,91.0
1007.63947,40.0
1008.04254,117.0
1008.44574,71.0
1008.8491,89.0
1009.2527,90.0
1009.6564,71.0
1010.06024,86.0
1010.4643,93.0
1010.86847,67.0
1011.2728,92.0
1011.6773,65.0
1012.082,105.0
1012.4868,93.0
1012.8918,74.0
1013.29694,102.0
1013.7023,68.0
1014.1077,231.0
1014.51337,97.0
1014.9192,154.0
1015.32513,103.0
1015.73126,62.0
1016.1376,121.0
1016.544,77.0
1016.9506,66.0
1017.3574,111.0
1017.76434,54.0
1018.17145,87.0
1018.57874,75.0
1018.98615,74.0
1019.39374,107.0
1019.8015,47.0
1020.2094,95.0
1020.6175,54.0
1021.02576,77.0
1021.43414,132.0
1021.8427,72.0
1022.25146,114.0
1022.66034,58.0
1023.0694,107.0
1023.47864,110.0
1023.888,59.0
1024.2976,93.0
1024.7073,71.0
1025.1172,82.0
1025.5272,106.0
1025.9374,62.0
1026.3478,95.0
1026.7583,68.0
1027.169,88.0
1027.5798,97.0
1027.9908,150.0
1028.4021,108.0
1028.8135,82.0
1029.225,86.0
1029.6367,114.0
1030.0486,199.0
1030.4606,105.0
1030.8728,130.0
1031.2852,110.0
1031.6976,58.0
1032.1104,96.0
1032.5232,72.0
1032.9362,79.0
1033.3494,113.0
1033.7627,85.0
1034.1761,111.0
1034.5898,81.0
1035.0037,108.0
1035.4177,82.0
1035.8319,103.0
1036.2462,113.0
1036.6608,81.0
1037.0754,115.0
1037.4902,101.0
1037.9053,77.0
1038.3204,98.0
1038.7357,63.0
1039.1512,74.0
1039.5669,80.0
1039.9827,53.0
1040.3987,101.0
1040.8148,61.0
1041.2312,98.0
1041.6477,67.0
1042.0643,70.0
1042.4812,96.0
1042.8982,59.0
1043.3153,103.0
1043.7327,87.0
1044.1501,110.0
1044.5677,84.0
1044.9856,75.0
1045.4036,85.0
1045.8218,75.0
1046.2401,110.0
1046.6586,79.0
1047.0773,81.0
1047.4961,94.0
1047.915,70.0
1048.3342,116.0
1048.7535,57.0
1049.1731,95.0
1049.5928,111.0
1050.0126,343.0
1050.4326,105.0
1050.8528,207.0
1051.2731,119.0
1051.6936,99.0
1052.1143,163.0
1052.5352,80.0
1052.9562,100.0
1053.3773,118.0
1053.7987,87.0
1054.2202,99.0
1054.6418,63.0
1055.0637,74.0
1055.4857,96.0
1055.908,110.0
1056.3303,97.0
1056.7528,67.0
1057.1755,90.0
1057.5984,96.0
1058.0215,87.0
1058.4447,135.0
1058.868,56.0
1059.2916,104.0
1059.7153,84.0
1060.1392,109.0
1060.5632,151.0
1060.9874,75.0
1061.4119,138.0
1061.8364,61.0
1062.2611,109.0
1062.686,61.0
1063.1111,74.0
1063.5364,88.0
1063.9618,79.0
1064.3873,93.0
1064.8131,50.0
1065.239,82.0
1065.6652,159.0
1066.0914,238.0
1066.5178,109.0
1066.9445,193.0
1067.3712,129.0
1067.7982,116.0
1068.2253,105.0
1068.6526,74.0
1069.0801,84.0
1069.5077,89.0
1069.9355,75.0
1070.3635,98.0
1070.7916,56.0
1071.22,101.0
1071.6484,121.0
1072.0771,209.0
1072.506,103.0
1072.9349,149.0
1073.3641,125.0
1073.7935,98.0
1074.223,97.0
1074.6527,77.0
1075.0825,95.0
1075.5126,96.0
1075.9427,83.0
1076.3732,96.0
1076.8037,67.0
1077.2344,83.0
1077.6653,90.0
1078.0963,156.0
1078.5276,100.0
1078.959,125.0
1079.3906,91.0
1079.8224,89.0
1080.2543,98.0
1080.6864,69.0
1081.1187,89.0
1081.5511,74.0
1081.9838,87.0
1082.4165,100.0
1082.8495,85.0
1083.2826,98.0
1083.716,69.0
1084.1494,70.0
1084.5831,68.0
1085.017,70.0
1085.4509,104.0
1085.8851,63.0
1086.3195,86.0
1086.754,53.0
1087.1887,91.0
1087.6235,84.0
1088.0586,115.0
1088.4938,81.0
1088.9292,94.0
1089.3647,84.0
1089.8005,88.0
1090.2365,119.0
1090.6725,85.0
1091.1088,111.0
1091.5452,118.0
1091.9818,80.0
1092.4186,107.0
1092.8556,55.0
1093.2927,118.0
1093.7301,102.0
1094.1676,109.0
1094.6052,89.0
1095.0431,96.0
1095.4811,93.0
1095.9193,106.0
1096.3577,110.0
1096.7963,77.0
1097.235,91.0
1097.6738,73.0
1098.1129,80.0
1098.5521,92.0
1098.9916,50.0
1099.4312,80.0
1099.871,97.0
1100.3109,97.0
1100.751,75.0
1101.1913,93.0
1101.6317,74.0
1102.0724,78.0
1102.5132,83.0
1102.9542,51.0
1103.3954,100.0
1103.8368,65.0
1104.2783,79.0
1104.72,63.0
1105.1619,70.0
1105.6039,81.0
1106.0461,76.0
1106.4885,108.0
1106.9312,61.0
1107.3739,96.0
1107.8169,48.0
1108.26,94.0
1108.7034,72.0
1109.1469,86.0
1109.5905,68.0
1110.0343,93.0
1110.4783,102.0
1110.9225,79.0
1111.3668,74.0
1111.8114,66.0
1112.2561,84.0
1112.701,74.0
1113.1461,75.0
1113.5914,92.0
1114.0369,62.0
1114.4824,79.0
1114.9282,62.0
1115.3741,104.0
1115.8203,78.0
1116.2666,108.0
1116.7131,70.0
1117.1598,97.0
1117.6067,92.0
1118.0537,85.0
1118.501,66.0
1118.9484,64.0
1119.396,87.0
1119.8438,61.0
1120.2917,90.0
1120.7399,45.0
1121.1881,62.0
1121.6366,64.0
1122.0852,85.0
1122.534,106.0
1122.983,63.0
1123.4323,93.0
1123.8816,59.0
1124.3312,81.0
1124.7809,53.0
1125.2308,92.0
1125.6809,71.0
1126.1312,79.0
1126.5817,67.0
1127.0323,67.0
1127.4832,105.0
1127.9342,67.0
1128.3854,100.0
1128.8367,64.0
1129.2882,75.0
1129.7399,50.0
1130.1918,73.0
1130.6438,73.0
1131.0961,74.0
1131.5485,94.0
1132.0011,82.0
1132.4539,113.0
1132.9069,77.0
1133.36,97.0
1133.8134,59.0
1134.2668,102.0
1134.7206,61.0
1135.1744,96.0
1135.6285,90.0
1136.0828,88.0
1136.5372,73.0
1136.9918,72.0
1137.4467,91.0
1137.9016,67.0
1138.3568,82.0
1138.8121,66.0
1139.2677,81.0
1139.7234,76.0
1140.1793,75.0
1140.6354,80.0
1141.0917,52.0
1141.5481,92.0
1142.0048,79.0
1142.4615,70.0
1142.9186,58.0
1143.3757,96.0
1143.8331,57.0
1144.2906,91.0
1144.7484,61.0
1145.2063,98.0
1145.6644,67.0
1146.1227,76.0
1146.5812,77.0
1147.0398,61.0
1147.4987,85.0
1147.9576,57.0
1148.4169,105.0
1148.8762,63.0
1149.3358,124.0
1149.7955,72.0
1150.2555,94.0
1150.7156,76.0
1151.1759,105.0
1151.6364,93.0
1152.097,74.0
1152.5579,95.0
1153.0189,61.0
1153.4801,100.0
1153.9415,71.0
1154.4031,100.0
1154.8649,61.0
1155.3268,103.0
1155.789,65.0
1156.2512,91.0
1156.7137,63.0
1157.1764,88.0
1157.6393,79.0
1158.1023,74.0
1158.5656,104.0
1159.0289,82.0
1159.4926,111.0
1159.9563,66.0
1160.4203,77.0
1160.8844,76.0
1161.3488,94.0
1161.8134,53.0
1162.2781,89.0
1162.743,69.0
1163.2081,85.0
1163.6735,73.0
1164.1389,77.0
1164.6046,75.0
1165.0704,65.0
1165.5365,87.0
1166.0027,59.0
1166.4691,94.0
1166.9357,61.0
1167.4025,106.0
1167.8694,80.0
1168.3365,87.0
1168.8038,77.0
1169.2714,101.0
1169.739,75.0
1170.2069,88.0
1170.675,87.0
1171.1433,71.0
1171.6118,74.0
1172.0804,74.0
1172.5493,92.0
1173.0183,72.0
1173.4875,81.0
1173.9569,68.0
1174.4265,97.0
1174.8962,68.0
1175.3662,108.0
1175.8363,72.0
1176.3066,102.0
1176.7772,80.0
1177.2479,89.0
1177.7189,68.0
1178.19,98.0
1178.6613,73.0
1179.1327,79.0
1179.6044,79.0
1180.0762,60.0
1180.5482,99.0
1181.0204,88.0
1181.4928,99.0
1181.9655,84.0
1182.4382,101.0
1182.9113,76.0
1183.3844,100.0
1183.8578,72.0
1184.3313,88.0
1184.805,66.0
1185.2789,102.0
1185.753,83.0
1186.2273,93.0
1186.7018,86.0
1187.1765,65.0
1187.6514,81.0
1188.1265,97.0
1188.6017,74.0
1189.0771,77.0
1189.5527,81.0
1190.0286,67.0
1190.5045,85.0
1190.9807,80.0
1191.4572,85.0
1191.9337,72.0
1192.4105,88.0
1192.8875,76.0
1193.3646,95.0
1193.8419,71.0
1194.3195,101.0
1194.7972,74.0
1195.2751,95.0
1195.7533,73.0
1196.2316,74.0
1196.7101,69.0
1197.1887,89.0
1197.6676,71.0
1198.1467,71.0
1198.626,77.0
1199.1055,75.0
1199.5851,108.0
1200.065,66.0
1200.5449,94.0
1201.0251,77.0
1201.5056,101.0
1201.9862,72.0
1202.467,82.0
1202.948,91.0
1203.4292,96.0
1203.9105,74.0
1204.3921,88.0
1204.8739,66.0
1205.3558,77.0
1205.838,54.0
1206.3203,95.0
1206.8029,70.0
1207.2855,84.0
1207.7684,70.0
1208.2516,76.0
1208.7349,59.0
1209.2184,94.0
1209.702,77.0
1210.1859,78.0
1210.67,99.0
1211.1543,78.0
1211.6388,98.0
1212.1234,76.0
1212.6083,87.0
1213.0933,82.0
1213.5785,85.0
1214.064,76.0
1214.5496,100.0
1215.0354,64.0
1215.5214,90.0
1216.0076,63.0
1216.494,83.0
1216.9806,74.0
1217.4674,99.0
1217.9543,68.0
1218.4415,95.0
1218.929,69.0
1219.4165,96.0
1219.9043,72.0
1220.3922,90.0
1220.8804,56.0
1221.3688,92.0
1221.8573,46.0
1222.3461,99.0
1222.835,60.0
1223.3241,89.0
1223.8135,73.0
1224.303,84.0
1224.7927,78.0
1225.2826,83.0
1225.7727,79.0
1226.2631,74.0
1226.7535,61.0
1227.2443,75.0
1227.7351,62.0
1228.2262,69.0
1228.7175,72.0
1229.209,73.0
1229.7007,93.0
1230.1925,94.0
1230.6846,84.0
1231.1769,62.0
1231.6693,78.0
1232.162,64.0
1232.6549,94.0
1233.148,67.0
1233.6412,74.0
1234.1346,85.0
1234.6283,99.0
1235.1222,71.0
1235.6162,104.0
1236.1105,62.0
1236.6049,100.0
1237.0995,68.0
1237.5944,89.0
1238.0894,57.0
1238.5846,92.0
1239.0801,90.0
1239.5757,83.0
1240.0715,81.0
1240.5675,83.0
1241.0637,109.0
1241.5602,79.0
1242.0568,91.0
1242.5536,89.0
1243.0507,86.0
1243.5479,109.0
1244.0453,62.0
1244.5428,115.0
1245.0406,64.0
1245.5387,91.0
1246.0369,79.0
1246.5353,92.0
1247.0339,96.0
1247.5327,114.0
1248.0317,83.0
1248.531,90.0
1249.0304,90.0
1249.53,98.0
1250.0298,74.0
1250.5298,111.0
1251.03,84.0
1251.5304,92.0
1252.031,56.0
1252.5319,102.0
1253.0328,54.0
1253.534,89.0
1254.0355,64.0
1254.5371,74.0
1255.039,82.0
1255.541,92.0
1256.0432,87.0
1256.5457,83.0
1257.0482,79.0
1257.551,84.0
1258.0541,79.0
1258.5573,84.0
1259.0607,75.0
1259.5643,81.0
1260.0681,79.0
1260.5721,90.0
1261.0764,106.0
1261.5808,91.0
1262.0854,111.0
1262.5903,97.0
1263.0953,120.0
1263.6006,104.0
1264.1061,94.0
1264.6117,87.0
1265.1176,77.0
1265.6237,76.0
1266.1299,86.0
1266.6364,92.0
1267.1431,89.0
1267.6499,110.0
1268.157,85.0
1268.6642,91.0
1269.1716,67.0
1269.6793,76.0
1270.1871,71.0
1270.6952,102.0
1271.2035,74.0
1271.7119,89.0
1272.2206,78.0
1272.7295,77.0
1273.2385,78.0
1273.7478,65.0
1274.2573,86.0
1274.767,70.0
1275.2769,79.0
1275.787,71.0
1276.2972,81.0
1276.8077,141.0
1277.3185,85.0
1277.8295,124.0
1278.3406,109.0
1278.8519,118.0
1279.3635,93.0
1279.8752,68.0
1280.3872,85.0
1280.8994,73.0
1281.4117,102.0
1281.9243,80.0
1282.4371,81.0
1282.9501,124.0
1283.4633,106.0
1283.9767,101.0
1284.4902,105.0
1285.004,89.0
1285.5181,87.0
1286.0322,84.0
1286.5466,101.0
1287.0613,74.0
1287.576,106.0
1288.0911,65.0
1288.6063,135.0
1289.1218,99.0
1289.6375,110.0
1290.1533,115.0
1290.6694,96.0
1291.1857,97.0
1291.7021,66.0
1292.2189,93.0
1292.7357,88.0
1293.2528,76.0
1293.7701,88.0
1294.2876,80.0
1294.8053,77.0
1295.3232,84.0
1295.8414,82.0
1296.3597,87.0
1296.8783,72.0
1297.3971,88.0
1297.916,65.0
1298.4352,89.0
1298.9546,87.0
1299.4741,88.0
1299.9939,76.0
1300.5139,83.0
1301.0342,61.0
1301.5546,100.0
1302.0752,64.0
1302.5961,84.0
1303.1171,68.0
1303.6383,87.0
1304.1598,66.0
1304.6814,106.0
1305.2032,76.0
1305.7253,95.0
1306.2477,83.0
1306.7701,80.0
1307.2928,78.0
1307.8158,71.0
1308.3389,90.0
1308.8622,71.0
1309.3857,86.0
1309.9095,62.0
1310.4335,91.0
1310.9576,72.0
1311.482,90.0
1312.0066,88.0
1312.5314,81.0
1313.0564,67.0
1313.5817,76.0
1314.107,58.0
1314.6327,85.0
1315.1586,79.0
1315.6847,73.0
1316.2109,68.0
1316.7374,81.0
1317.2642,86.0
1317.791,69.0
1318.3181,90.0
1318.8455,67.0
1319.373,116.0
1319.9008,65.0
1320.4287,98.0
1320.9569,62.0
1321.4854,68.0
1322.0139,58.0
1322.5427,90.0
1323.0718,65.0
1323.601,90.0
1324.1304,61.0
1324.66,79.0
1325.19,63.0
1325.72,89.0
1326.2502,71.0
1326.7808,79.0
1327.3115,68.0
1327.8424,74.0
1328.3735,90.0
1328.9049,58.0
1329.4365,79.0
1329.9683,56.0
1330.5002,70.0
1331.0325,48.0
1331.565,111.0
1332.0975,77.0
1332.6304,99.0
1333.1635,70.0
1333.6968,94.0
1334.2302,74.0
1334.7639,75.0
1335.2979,92.0
1335.832,71.0
1336.3663,78.0
1336.9009,71.0
1337.4357,75.0
1337.9707,59.0
1338.5059,81.0
1339.0413,49.0
1339.5769,83.0
1340.1128,56.0
1340.6488,67.0
1341.185,66.0
1341.7216,88.0
1342.2583,70.0
1342.7952,79.0
1343.3323,81.0
1343.8696,82.0
1344.4072,98.0
1344.945,83.0
1345.4829,83.0
1346.0211,67.0
1346.5596,88.0
1347.0981,61.0
1347.637,93.0
1348.176,73.0
1348.7153,99.0
1349.2548,87.0
1349.7944,88.0
1350.3344,90.0
1350.8745,65.0
1351.4149,65.0
1351.9554,71.0
1352.4962,66.0
1353.0372,71.0
1353.5785,75.0
1354.1199,60.0
1354.6615,92.0
1355.2034,76.0
1355.7455,68.0
1356.2878,94.0
1356.8303,60.0
1357.373,84.0
1357.916,58.0
1358.4592,81.0
1359.0026,54.0
1359.5461,65.0
1360.09,64.0
1360.634,84.0
1361.1783,70.0
1361.7228,82.0
1362.2675,95.0
1362.8124,84.0
1363.3575,99.0
1363.9028,61.0
1364.4484,82.0
1364.9941,76.0
1365.5402,73.0
1366.0864,64.0
1366.6328,79.0
1367.1794,77.0
1367.7263,64.0
1368.2734,64.0
1368.8208,78.0
1369.3683,91.0
1369.916,66.0
1370.464,80.0
1371.0122,54.0
1371.5607,89.0
1372.1093,64.0
1372.6581,84.0
1373.2072,78.0
1373.7565,72.0
1374.306,80.0
1374.8557,78.0
1375.4056,134.0
1375.9558,76.0
1376.5062,95.0
1377.0569,53.0
1377.6077,91.0
1378.1587,73.0
1378.71,72.0
1379.2615,85.0
1379.8132,79.0
1380.3651,67.0
1380.9172,71.0
1381.4696,83.0
1382.0222,63.0
1382.5751,74.0
1383.128,71.0
1383.6813,106.0
1384.2347,92.0
1384.7885,101.0
1385.3424,80.0
1385.8965,87.0
1386.4508,80.0
1387.0054,64.0
1387.5602,94.0
1388.1152,71.0
1388.6705,79.0
1389.226,75.0
1389.7816,78.0
1390.3375,82.0
1390.8937,61.0
1391.4501,78.0
1392.0067,71.0
1392.5635,88.0
1393.1205,76.0
1393.6777,81.0
1394.2352,87.0
1394.793,70.0
1395.3508,90.0
1395.9089,60.0
1396.4673,79.0
1397.0259,67.0
1397.5847,99.0
1398.1438,62.0
1398.703,98.0
1399.2625,55.0
1399.8221,79.0
1400.3821,105.0
1400.9423,66.0
1401.5027,85.0
1402.0632,58.0
1402.624,90.0
1403.185,57.0
1403.7463,91.0
1404.3079,64.0
1404.8696,85.0
1405.4315,94.0
1405.9937,70.0
1406.556,103.0
1407.1187,72.0
1407.6815,100.0
1408.2446,80.0
1408.808,65.0
1409.3715,85.0
1409.9352,59.0
1410.4991,100.0
1411.0634,69.0
1411.6278,83.0
1412.1925,64.0
1412.7573,75.0
1413.3224,79.0
1413.8877,66.0
1414.4532,102.0
1415.019,76.0
1415.5851,94.0
1416.1514,77.0
1416.7178,75.0
1417.2844,93.0
1417.8513,76.0
1418.4185,87.0
1418.9858,77.0
1419.5535,115.0
1420.1213,66.0
1420.6893,108.0
1421.2576,94.0
1421.826,64.0
1422.3948,98.0
1422.9637,57.0
1423.533,106.0
1424.1024,75.0
1424.672,88.0
1425.2418,102.0
1425.8119,91.0
1426.3822,84.0
1426.9528,60.0
1427.5236,98.0
1428.0946,66.0
1428.6659,76.0
1429.2373,73.0
1429.809,96.0
1430.3809,101.0
1430.953,72.0
1431.5254,98.0
1432.098,93.0
1432.6709,99.0
1433.244,83.0
1433.8173,87.0
1434.3907,105.0
1434.9645,82.0
1435.5385,94.0
1436.1127,101.0
1436.6871,99.0
1437.2618,85.0
1437.8368,99.0
1438.412,104.0
1438.9873,70.0
1439.5629,100.0
1440.1387,80.0
1440.7147,89.0
1441.291,68.0
1441.8676,81.0
1442.4443,95.0
1443.0214,80.0
1443.5985,91.0
1444.1759,72.0
1444.7535,94.0
1445.3314,108.0
1445.9095,84.0
1446.4879,102.0
1447.0665,67.0
1447.6454,85.0
1448.2245,87.0
1448.8038,90.0
1449.3833,107.0
1449.963,70.0
1450.543,91.0
1451.1232,65.0
1451.7036,93.0
1452.2843,76.0
1452.8652,98.0
1453.4464,102.0
1454.0278,70.0
1454.6095,112.0
1455.1913,77.0
1455.7733,105.0
1456.3556,100.0
1456.9381,72.0
1457.5209,108.0
1458.1039,78.0
1458.6871,86.0
1459.2706,84.0
1459.8544,92.0
1460.4384,91.0
1461.0226,77.0
1461.6069,119.0
1462.1915,97.0
1462.7764,116.0
1463.3615,117.0
1463.9468,88.0
1464.5323,131.0
1465.1182,74.0
1465.7042,99.0
1466.2905,65.0
1466.8771,80.0
1467.4639,98.0
1468.0509,74.0
1468.6382,100.0
1469.2256,69.0
1469.8132,77.0
1470.4011,88.0
1470.9893,65.0
1471.5776,85.0
1472.1663,72.0
1472.7551,86.0
1473.3442,103.0
1473.9336,99.0
1474.5232,98.0
1475.113,81.0
1475.7031,118.0
1476.2935,85.0
1476.884,100.0
1477.4747,120.0
1478.0657,73.0
1478.6569,112.0
1479.2483,77.0
1479.84,77.0
1480.4319,92.0
1481.024,62.0
1481.6165,78.0
1482.2091,58.0
1482.802,91.0
1483.3951,91.0
1483.9885,92.0
1484.5822,84.0
1485.176,69.0
1485.7701,104.0
1486.3645,68.0
1486.9591,67.0
1487.5538,102.0
1488.1488,73.0
1488.744,86.0
1489.3395,76.0
1489.9352,78.0
1490.5311,77.0
1491.1273,68.0
1491.7238,87.0
1492.3204,63.0
1492.9174,64.0
1493.5145,80.0
1494.1119,78.0
1494.7096,107.0
1495.3075,83.0
1495.9056,101.0
1496.504,93.0
1497.1027,85.0
1497.7015,91.0
1498.3007,75.0
1498.9,71.0
1499.4996,95.0
1500.0995,94.0
1500.6996,80.0
1501.2998,80.0
1501.9003,85.0
1502.501,83.0
1503.1019,58.0
1503.7031,95.0
1504.3046,84.0
1504.9062,74.0
1505.5082,86.0
1506.1104,67.0
1506.7128,92.0
1507.3154,78.0
1507.9183,83.0
1508.5215,102.0
1509.1249,72.0
1509.7285,109.0
1510.3324,93.0
1510.9365,85.0
1511.5409,85.0
1512.1455,68.0
1512.7504,148.0
1513.3555,90.0
1513.9608,107.0
1514.5664,116.0
1515.1722,79.0
1515.7783,88.0
1516.3846,96.0
1516.9912,59.0
1517.598,85.0
1518.2051,73.0
1518.8124,83.0
1519.4199,92.0
1520.0277,72.0
1520.6357,92.0
1521.244,76.0
1521.8525,73.0
1522.4613,94.0
1523.0703,46.0
1523.6796,95.0
1524.2891,62.0
1524.8988,71.0
1525.5088,94.0
1526.119,84.0
1526.7295,98.0
1527.3402,76.0
1527.9512,68.0
1528.5624,81.0
1529.1738,77.0
1529.7855,96.0
1530.3975,90.0
1531.0096,80.0
1531.6221,73.0
1532.2347,57.0
1532.8477,87.0
1533.4608,93.0
1534.0742,64.0
1534.6879,83.0
1535.3018,66.0
1535.9159,90.0
1536.5303,88.0
1537.1449,58.0
1537.7598,67.0
1538.3749,86.0
1538.9902,84.0
1539.6058,78.0
1540.2217,70.0
1540.8378,91.0
1541.4541,101.0
1542.0707,53.0
1542.6875,81.0
1543.3046,68.0
1543.9219,72.0
1544.5394,81.0
1545.1572,71.0
1545.7753,93.0
1546.3936,77.0
1547.0121,55.0
1547.6309,82.0
1548.2499,67.0
1548.8691,72.0
1549.4886,75.0
1550.1084,61.0
1550.7284,94.0
1551.3486,104.0
1551.9691,77.0
1552.5898,108.0
1553.2109,87.0
1553.8323,94.0
1554.4539,78.0
1555.0757,69.0
1555.6978,92.0
1556.3201,80.0
1556.9426,77.0
1557.5654,90.0
1558.1885,59.0
1558.8118,107.0
1559.4353,109.0
1560.0591,85.0
1560.6831,98.0
1561.3074,88.0
1561.9319,80.0
1562.5566,81.0
1563.1816,48.0
1563.8069,85.0
1564.4324,78.0
1565.0581,61.0
1565.6841,80.0
1566.3103,67.0
1566.9368,69.0
1567.5636,85.0
1568.1907,62.0
1568.818,95.0
1569.4456,82.0
1570.0734,65.0
1570.7014,83.0
1571.3297,70.0
1571.9583,81.0
1572.587,69.0
1573.2161,93.0
1573.8453,98.0
1574.4749,87.0
1575.1046,74.0
1575.7346,100.0
1576.3649,70.0
1576.9954,66.0
1577.6261,80.0
1578.2572,66.0
1578.8885,90.0
1579.5201,84.0
1580.152,71.0
1580.784,78.0
1581.4164,81.0
1582.049,65.0
1582.6818,69.0
1583.3148,69.0
1583.9481,74.0
1584.5817,88.0
1585.2155,78.0
1585.8495,78.0
1586.4839,87.0
1587.1185,78.0
1587.7534,98.0
1588.3885,85.0
1589.0239,78.0
1589.6595,94.0
1590.2954,83.0
1590.9315,67.0
1591.5679,87.0
1592.2045,65.0
1592.8413,80.0
1593.4784,83.0
1594.1158,63.0
1594.7535,79.0
1595.3915,116.0
1596.0297,83.0
1596.6681,94.0
1597.3068,82.0
1597.9457,78.0
1598.5848,108.0
1599.2242,79.0
1599.8639,92.0
1600.5038,88.0
1601.144,67.0
1601.7845,89.0
1602.4253,79.0
1603.0663,89.0
1603.7075,122.0
1604.349,94.0
1604.9907,79.0
1605.6327,84.0
1606.2749,70.0
1606.9174,75.0
1607.5602,98.0
1608.2032,77.0
1608.8466,80.0
1609.4901,81.0
1610.1339,59.0
1610.778,84.0
1611.4222,85.0
1612.0668,67.0
1612.7115,76.0
1613.3567,102.0
1614.0021,76.0
1614.6477,83.0
1615.2936,77.0
1615.9397,71.0
1616.586,83.0
1617.2327,90.0
1617.8795,89.0
1618.5266,73.0
1619.1741,74.0
1619.8218,76.0
1620.4697,87.0
1621.1179,83.0
1621.7664,87.0
1622.415,91.0
1623.064,66.0
1623.7131,95.0
1624.3627,95.0
1625.0125,80.0
1625.6625,82.0
1626.3127,70.0
1626.9633,72.0
1627.614,94.0
1628.265,87.0
1628.9163,74.0
1629.5679,101.0
1630.2197,83.0
1630.8718,111.0
1631.5242,79.0
1632.1768,96.0
1632.8296,100.0
1633.4827,82.0
1634.1361,69.0
1634.7898,88.0
1635.4437,64.0
1636.0979,72.0
1636.7523,101.0
1637.407,97.0
1638.0619,64.0
1638.7172,96.0
1639.3727,109.0
1640.0284,67.0
1640.6844,118.0
1641.3407,71.0
1641.9972,90.0
1642.6539,78.0
1643.311,79.0
1643.9684,91.0
1644.626,143.0
1645.2838,148.0
1645.9419,110.0
1646.6002,125.0
1647.2589,78.0
1647.9178,109.0
1648.577,99.0
1649.2365,81.0
1649.8961,88.0
1650.556,74.0
1651.2163,77.0
1651.8768,88.0
1652.5376,78.0
1653.1986,76.0
1653.8599,82.0
1654.5214,90.0
1655.1832,57.0
1655.8453,95.0
1656.5077,79.0
1657.1703,72.0
1657.8331,87.0
1658.4962,86.0
1659.1597,69.0
1659.8234,74.0
1660.4873,97.0
1661.1515,89.0
1661.8159,94.0
1662.4806,76.0
1663.1456,87.0
1663.8109,102.0
1664.4764,107.0
1665.1422,87.0
1665.8082,96.0
1666.4746,100.0
1667.1412,72.0
1667.8081,95.0
1668.4752,78.0
1669.1426,63.0
1669.8102,71.0
1670.4781,76.0
1671.1464,72.0
1671.8148,73.0
1672.4835,86.0
1673.1525,81.0
1673.8218,79.0
1674.4913,91.0
1675.1611,68.0
1675.8312,85.0
1676.5015,87.0
1677.1721,67.0
1677.843,79.0
1678.5142,80.0
1679.1855,68.0
1679.8572,73.0
1680.5292,76.0
1681.2014,69.0
1681.8739,83.0
1682.5466,91.0
1683.2196,86.0
1683.893,82.0
1684.5665,98.0
1685.2404,77.0
1685.9144,90.0
1686.5887,72.0
1687.2634,63.0
1687.9384,64.0
1688.6135,81.0
1689.289,74.0
1689.9646,71.0
1690.6406,99.0
1691.3169,65.0
1691.9934,86.0
1692.6702,72.0
1693.3473,69.0
1694.0247,56.0
1694.7023,87.0
1695.3801,64.0
1696.0582,62.0
1696.7367,85.0
1697.4154,82.0
1698.0944,65.0
1698.7736,81.0
1699.4531,104.0
1700.1329,74.0
1700.813,97.0
1701.4933,96.0
1702.1738,72.0
1702.8547,87.0
1703.5359,68.0
1704.2173,65.0
1704.8989,98.0
1705.5809,89.0
1706.2632,74.0
1706.9457,90.0
1707.6284,80.0
1708.3115,60.0
1708.9949,80.0
1709.6785,83.0
1710.3623,60.0
1711.0465,84.0
1711.731,72.0
1712.4156,66.0
1713.1006,73.0
1713.7858,76.0
1714.4713,85.0
1715.1571,71.0
1715.8431,79.0
1716.5294,82.0
1717.2161,71.0
1717.903,74.0
1718.5901,67.0
1719.2775,81.0
1719.9652,69.0
1720.6532,96.0
1721.3414,83.0
1722.0299,78.0
1722.7188,99.0
1723.4078,61.0
1724.0972,79.0
1724.7869,76.0
1725.4768,94.0
1726.167,66.0
1726.8574,88.0
1727.5482,87.0
1728.2393,77.0
1728.9305,85.0
1729.6221,78.0
1730.314,74.0
1731.0061,57.0
1731.6985,79.0
1732.3911,73.0
1733.0841,69.0
1733.7773,85.0
1734.4708,63.0
1735.1647,75.0
1735.8588,74.0
1736.5531,79.0
1737.2477,63.0
1737.9426,64.0
1738.6378,89.0
1739.3333,77.0
1740.0289,59.0
1740.725,83.0
1741.4213,80.0
1742.1178,73.0
1742.8147,81.0
1743.5118,69.0
1744.2092,71.0
1744.9069,83.0
1745.6049,87.0
1746.3031,74.0
1747.0016,72.0
1747.7004,72.0
1748.3995,69.0
1749.0989,74.0
1749.7985,81.0
1750.4984,80.0
1751.1986,75.0
1751.899,84.0
1752.5999,67.0
1753.3009,59.0
1754.0022,55.0
1754.7039,80.0
1755.4058,70.0
1756.1079,58.0
1756.8103,72.0
1757.5131,84.0
1758.2161,59.0
1758.9193,83.0
1759.6229,91.0
1760.3268,60.0
1761.0309,60.0
1761.7354,77.0
1762.4401,78.0
1763.145,68.0
1763.8502,79.0
1764.5558,90.0
1765.2616,73.0
1765.9677,79.0
1766.6741,77.0
1767.3807,78.0
1768.0876,59.0
1768.7949,78.0
1769.5024,80.0
1770.2102,59.0
1770.9183,65.0
1771.6267,84.0
1772.3353,90.0
1773.0443,68.0
1773.7535,78.0
1774.463,79.0
1775.1729,64.0
1775.8829,71.0
1776.5933,70.0
1777.304,67.0
1778.0149,71.0
1778.7261,74.0
1779.4376,78.0
1780.1494,71.0
1780.8615,86.0
1781.5739,89.0
1782.2865,62.0
1782.9994,65.0
1783.7126,110.0
1784.4261,67.0
1785.1399,58.0
1785.854,79.0
1786.5684,76.0
1787.283,48.0
1787.9979,82.0
1788.7131,79.0
1789.4286,75.0
1790.1444,55.0
1790.8605,73.0
1791.5768,84.0
1792.2935,57.0
1793.0104,63.0
1793.7275,76.0
1794.4451,76.0
1795.1628,62.0
1795.8809,62.0
1796.5992,81.0
1797.3179,56.0
1798.0367,64.0
1798.756,72.0
1799.4755,76.0
1800.1953,61.0
1800.9154,75.0
1801.6357,75.0
1802.3564,63.0
1803.0774,75.0
1803.7986,60.0
1804.5201,78.0
1805.242,95.0
1805.964,123.0
1806.6864,151.0
1807.409,80.0
1808.1321,79.0
1808.8553,91.0
1809.5789,78.0
1810.3027,83.0
1811.0269,86.0
1811.7512,101.0
1812.476,77.0
1813.2009,66.0
1813.9261,88.0
1814.6517,79.0
1815.3776,60.0
1816.1038,59.0
1816.8302,93.0
1817.5569,66.0
1818.2839,61.0
1819.0112,62.0
1819.7389,83.0
1820.4668,74.0
1821.195,69.0
1821.9235,60.0
1822.6522,75.0
1823.3812,56.0
1824.1106,66.0
1824.8402,68.0
1825.5702,69.0
1826.3004,54.0
1827.0309,78.0
1827.7617,121.0
1828.4928,86.0
1829.2242,64.0
1829.9559,68.0
1830.6879,70.0
1831.4202,68.0
1832.1527,75.0
1832.8856,77.0
1833.6188,79.0
1834.3522,64.0
1835.0859,63.0
1835.82,70.0
1836.5543,92.0
1837.289,71.0
1838.0238,80.0
1838.759,94.0
1839.4945,76.0
1840.2303,70.0
1840.9664,90.0
1841.7028,102.0
1842.4395,76.0
1843.1764,56.0
1843.9137,77.0
1844.6512,60.0
1845.3892,75.0
1846.1273,71.0
1846.8657,73.0
1847.6045,61.0
1848.3435,67.0
1849.0829,73.0
1849.8225,62.0
1850.5624,86.0
1851.3026,66.0
1852.0431,71.0
1852.7839,89.0
1853.525,82.0
1854.2665,61.0
1855.0082,78.0
1855.7501,86.0
1856.4924,89.0
1857.235,84.0
1857.9779,117.0
1858.7211,127.0
1859.4646,93.0
1860.2084,71.0
1860.9525,84.0
1861.6969,80.0
1862.4415,71.0
1863.1865,61.0
1863.9318,82.0
1864.6774,75.0
1865.4232,67.0
1866.1694,54.0
1866.9159,81.0
1867.6627,80.0
1868.4098,65.0
1869.1571,79.0
1869.9048,73.0
1870.6527,87.0
1871.401,70.0
1872.1495,66.0
1872.8984,84.0
1873.6476,99.0
1874.3971,80.0
1875.1469,69.0
1875.8969,123.0
1876.6472,112.0
1877.3978,98.0
1878.1488,75.0
1878.9,72.0
1879.6516,84.0
1880.4034,58.0
1881.1556,58.0
1881.9081,75.0
1882.6609,82.0
1883.414,68.0
1884.1674,64.0
1884.921,145.0
1885.675,177.0
1886.4293,122.0
1887.1838,85.0
1887.9387,94.0
1888.6938,91.0
1889.4493,74.0
1890.2051,70.0
1890.9612,70.0
1891.7175,68.0
1892.4742,72.0
1893.2312,84.0
1893.9885,76.0
1894.7461,81.0
1895.504,79.0
1896.2622,71.0
1897.0208,105.0
1897.7795,105.0
1898.5387,88.0
1899.2981,74.0
1900.0579,76.0
1900.8179,81.0
1901.5782,85.0
1902.3389,56.0
1903.0999,56.0
1903.8611,62.0
1904.6227,68.0
1905.3845,66.0
1906.1467,70.0
1906.9092,71.0
1907.672,75.0
1908.435,79.0
1909.1985,70.0
1909.9622,71.0
1910.7262,78.0
1911.4905,92.0
1912.2551,71.0
1913.02,101.0
1913.7853,319.0
1914.5508,276.0
1915.3167,166.0
1916.0828,204.0
1916.8492,138.0
1917.616,98.0
1918.383,87.0
1919.1504,78.0
1919.9181,74.0
1920.686,90.0
1921.4543,62.0
1922.2229,69.0
1922.9918,89.0
1923.761,77.0
1924.5305,73.0
1925.3003,53.0
1926.0704,76.0
1926.8408,70.0
1927.6116,81.0
1928.3826,70.0
1929.1539,60.0
1929.9255,72.0
1930.6975,82.0
1931.4698,72.0
1932.2424,72.0
1933.0154,66.0
1933.7886,80.0
1934.5621,79.0
1935.3359,65.0
1936.1101,66.0
1936.8845,88.0
1937.6593,85.0
1938.4343,90.0
1939.2097,64.0
1939.9854,73.0
1940.7614,85.0
1941.5376,82.0
1942.3142,69.0
1943.0912,63.0
1943.8684,66.0
1944.646,80.0
1945.4238,61.0
1946.202,61.0
1946.9805,68.0
1947.7593,60.0
1948.5383,69.0
1949.3177,69.0
1950.0975,71.0
1950.8776,80.0
1951.658,74.0
1952.4386,81.0
1953.2196,68.0
1954.0009,69.0
1954.7825,68.0
1955.5643,69.0
1956.3466,72.0
1957.1292,50.0
1957.912,63.0
1958.6952,75.0
1959.4786,72.0
1960.2625,57.0
1961.0465,52.0
1961.8309,66.0
1962.6157,68.0
1963.4008,75.0
1964.1862,64.0
1964.9718,51.0
1965.7578,87.0
1966.5441,68.0
1967.3307,57.0
1968.1177,62.0
1968.9049,68.0
1969.6925,86.0
1970.4803,61.0
1971.2686,59.0
1972.057,54.0
1972.8458,71.0
1973.635,69.0
1974.4244,67.0
1975.2142,56.0
1976.0043,58.0
1976.7947,84.0
1977.5854,72.0
1978.3765,56.0
1979.1678,54.0
1979.9595,64.0
1980.7515,66.0
1981.5438,69.0
1982.3364,60.0
1983.1294,66.0
1983.9226,68.0
1984.7162,79.0
1985.5101,65.0
1986.3043,77.0
1987.0989,71.0
1987.8937,62.0
1988.6888,71.0
1989.4844,63.0
1990.2802,50.0
1991.0763,62.0
1991.8727,58.0
1992.6694,74.0
1993.4666,67.0
1994.2639,69.0
1995.0616,63.0
1995.8596,81.0
1996.658,84.0
1997.4567,67.0
1998.2556,68.0
1999.0549,66.0
1999.8546,64.0
2000.6545,61.0
2001.4548,62.0
2002.2554,59.0
2003.0563,55.0
2003.8575,73.0
2004.659,76.0
2005.4609,61.0
2006.2631,60.0
2007.0656,66.0
2007.8684,76.0
2008.6715,74.0
2009.475,85.0
2010.2788,73.0
2011.0829,80.0
2011.8873,136.0
2012.6921,155.0
2013.4972,84.0
2014.3026,73.0
2015.1083,90.0
2015.9143,94.0
2016.7207,67.0
2017.5273,71.0
2018.3344,69.0
2019.1417,45.0
2019.9493,66.0
2020.7573,61.0
2021.5657,67.0
2022.3743,64.0
2023.1832,60.0
2023.9926,65.0
2024.8021,64.0
2025.612,92.0
2026.4224,69.0
2027.2329,53.0
2028.0438,84.0
2028.855,87.0
2029.6665,96.0
2030.4784,59.0
2031.2905,68.0
2032.103,60.0
2032.9159,70.0
2033.729,74.0
2034.5425,78.0
2035.3563,85.0
2036.1704,81.0
2036.9849,79.0
2037.7997,81.0
2038.6147,78.0
2039.4302,64.0
2040.246,56.0
2041.062,66.0
2041.8784,61.0
2042.6952,66.0
2043.5123,52.0
2044.3297,59.0
2045.1475,59.0
2045.9656,78.0
2046.7839,76.0
2047.6027,74.0
2048.4216,59.0
2049.241,66.0
2050.0605,62.0
2050.8806,70.0
2051.701,88.0
2052.5217,66.0
2053.3428,81.0
2054.164,79.0
2054.9858,91.0
2055.8079,67.0
2056.6301,79.0
2057.453,63.0
2058.276,77.0
2059.099,70.0
2059.9229,65.0
2060.7468,67.0
2061.571,61.0
2062.3958,64.0
2063.2207,73.0
2064.046,54.0
2064.8716,81.0
2065.6975,76.0
2066.5237,86.0
2067.3503,69.0
2068.1772,54.0
2069.0046,69.0
2069.8323,62.0
2070.6602,68.0
2071.4885,63.0
2072.3171,60.0
2073.146,69.0
2073.9753,64.0
2074.805,74.0
2075.6348,65.0
2076.465,63.0
2077.2957,73.0
2078.1265,64.0
2078.9578,62.0
2079.7893,71.0
2080.6213,70.0
2081.4536,75.0
2082.2861,70.0
2083.1191,93.0
2083.9524,104.0
2084.786,95.0
2085.6199,90.0
2086.454,79.0
2087.2886,61.0
2088.1235,63.0
2088.9587,47.0
2089.7944,70.0
2090.6304,60.0
2091.4666,55.0
2092.3032,64.0
2093.1401,65.0
2093.9773,59.0
2094.815,65.0
2095.6528,68.0
2096.4912,64.0
2097.3298,64.0
2098.1687,59.0
2099.008,67.0
2099.8477,73.0
2100.6875,60.0
2101.5278,60.0
2102.3684,65.0
2103.2095,65.0
2104.0508,61.0
2104.8923,75.0
2105.7344,75.0
2106.5767,63.0
2107.4192,56.0
2108.2622,62.0
2109.1055,67.0
2109.9492,53.0
2110.7932,64.0
2111.6375,60.0
2112.4822,58.0
2113.3271,60.0
2114.1724,49.0
2115.018,67.0
2115.864,79.0
2116.7104,83.0
2117.5571,75.0
2118.404,57.0
2119.2515,68.0
2120.099,65.0
2120.9473,74.0
2121.7957,66.0
2122.6443,59.0
2123.4934,65.0
2124.3428,57.0
2125.1926,62.0
2126.0427,70.0
2126.893,74.0
2127.744,69.0
2128.595,72.0
2129.4463,64.0
2130.298,57.0
2131.1501,41.0
2132.0027,56.0
2132.8555,59.0
2133.7085,81.0
2134.562,67.0
2135.4158,68.0
2136.27,67.0
2137.1245,68.0
2137.9792,74.0
2138.8345,78.0
2139.69,69.0
2140.546,71.0
2141.402,59.0
2142.2585,93.0
2143.1155,120.0
2143.9727,99.0
2144.8303,81.0
2145.6882,64.0
2146.5464,74.0
2147.405,79.0
2148.264,49.0
2149.1233,60.0
2149.983,62.0
2150.843,59.0
2151.7034,63.0
2152.564,68.0
2153.425,65.0
2154.2864,69.0
2155.1482,70.0
2156.0103,82.0
2156.8726,64.0
2157.7354,65.0
2158.5984,58.0
2159.462,78.0
2160.3257,84.0
2161.1897,75.0
2162.0542,66.0
2162.919,56.0
2163.7842,83.0
2164.6497,65.0
2165.5156,71.0
2166.3818,68.0
2167.2483,64.0
2168.1152,100.0
2168.9824,104.0
2169.85,91.0
2170.718,83.0
2171.5864,76.0
2172.455,57.0
2173.324,65.0
2174.1934,60.0
2175.063,68.0
2175.933,69.0
2176.8035,85.0
2177.674,58.0
2178.5452,59.0
2179.4165,68.0
2180.2883,68.0
2181.1604,78.0
2182.033,76.0
2182.9058,62.0
2183.7788,79.0
2184.6523,59.0
2185.5261,54.0
2186.4004,58.0
2187.275,71.0
2188.15,56.0
2189.0251,50.0
2189.9006,53.0
2190.7766,52.0
2191.6528,53.0
2192.5295,61.0
2193.4065,67.0
2194.284,83.0
2195.1616,93.0
2196.0398,77.0
2196.9182,89.0
2197.7969,76.0
2198.676,91.0
2199.5554,77.0
2200.4353,82.0
2201.3154,84.0
2202.196,69.0
2203.077,55.0
2203.9583,53.0
2204.8398,67.0
2205.7217,67.0
2206.604,57.0
2207.4866,60.0
2208.3696,65.0
2209.253,70.0
2210.1367,71.0
2211.0208,65.0
2211.9053,75.0
2212.79,80.0
2213.675,79.0
2214.5605,58.0
2215.4463,61.0
2216.3325,66.0
2217.219,79.0
2218.106,68.0
2218.9932,72.0
2219.8809,61.0
2220.7688,68.0
2221.6572,72.0
2222.546,69.0
2223.4348,79.0
2224.3242,56.0
2225.2139,69.0
2226.104,62.0
2226.9944,73.0
2227.8853,83.0
2228.7764,64.0
2229.668,68.0
2230.5598,69.0
2231.4521,79.0
2232.3447,77.0
2233.2375,81.0
2234.1309,66.0
2235.0244,70.0
2235.9185,83.0
2236.8127,76.0
2237.7075,64.0
2238.6025,68.0
2239.498,84.0
2240.3938,77.0
2241.29,81.0
2242.1865,54.0
2243.0835,65.0
2243.9807,66.0
2244.8784,84.0
2245.7764,77.0
2246.6746,65.0
2247.5732,51.0
2248.4722,55.0
2249.3716,76.0
2250.2712,58.0
2251.1714,58.0
2252.0718,68.0
2252.9727,78.0
2253.8738,75.0
2254.7754,91.0
2255.6772,80.0
2256.5796,71.0
2257.4822,78.0
2258.3853,70.0
2259.2886,75.0
2260.1924,97.0
2261.0964,78.0
2262.001,70.0
2262.9058,79.0
2263.811,57.0
2264.7166,74.0
2265.6226,70.0
2266.5288,72.0
2267.4353,61.0
2268.3423,65.0
2269.2495,62.0
2270.1572,63.0
2271.0652,78.0
2271.9736,69.0
2272.8823,72.0
2273.7915,84.0
2274.701,78.0
2275.6108,100.0
2276.521,97.0
2277.4316,92.0
2278.3425,95.0
2279.254,75.0
2280.1655,88.0
2281.0776,66.0
2281.99,65.0
2282.9028,82.0
2283.816,70.0
2284.7295,68.0
2285.6433,75.0
2286.5576,69.0
2287.4722,69.0
2288.3872,65.0
2289.3025,59.0
2290.2183,66.0
2291.1343,82.0
2292.0508,81.0
2292.9675,88.0
2293.8848,82.0
2294.8022,96.0
2295.7202,77.0
2296.6384,78.0
2297.5571,83.0
2298.476,75.0
2299.3955,80.0
2300.3152,80.0
2301.2354,72.0
2302.1558,76.0
2303.0767,65.0
2303.9978,102.0
2304.9194,88.0
2305.8413,73.0
2306.7637,66.0
2307.6863,74.0
2308.6094,90.0
2309.5327,75.0
2310.4565,75.0
2311.3806,67.0
2312.3052,63.0
2313.23,72.0
2314.1553,79.0
2315.081,64.0
2316.007,76.0
2316.9336,70.0
2317.8604,70.0
2318.7876,90.0
2319.715,92.0
2320.643,101.0
2321.5713,99.0
2322.5,97.0
2323.429,74.0
2324.3584,68.0
2325.288,79.0
2326.2183,78.0
2327.1487,76.0
2328.0796,69.0
2329.0107,95.0
2329.9424,79.0
2330.8743,61.0
2331.8066,76.0
2332.7393,74.0
2333.6724,65.0
2334.6057,67.0
2335.5396,77.0
2336.4739,80.0
2337.4084,89.0
2338.3435,63.0
2339.2788,70.0
2340.2146,81.0
2341.1506,66.0
2342.0872,84.0
2343.024,79.0
2343.9612,72.0
2344.8987,96.0
2345.8367,106.0
2346.775,92.0
2347.7136,82.0
2348.6526,77.0
2349.592,82.0
2350.532,72.0
2351.4722,87.0
2352.4128,71.0
2353.3538,83.0
2354.2952,74.0
2355.2368,93.0
2356.179,79.0
2357.1213,72.0
2358.0642,78.0
2359.0073,61.0
2359.951,69.0
2360.895,80.0
2361.8394,82.0
2362.7842,81.0
2363.7292,99.0
2364.6748,91.0
2365.6206,88.0
2366.567,82.0
2367.5134,73.0
2368.4604,52.0
2369.4077,77.0
2370.3555,83.0
2371.3037,65.0
2372.2522,77.0
2373.2012,78.0
2374.1504,77.0
2375.1,73.0
2376.05,56.0
2377.0005,66.0
2377.9512,88.0
2378.9023,80.0
2379.854,83.0
2380.806,84.0
2381.7583,81.0
2382.711,78.0
2383.664,68.0
2384.6174,85.0
2385.5713,73.0
2386.5256,82.0
2387.4802,90.0
2388.4353,75.0
2389.3906,82.0
2390.3464,81.0
2391.3025,84.0
2392.259,78.0
2393.2158,84.0
2394.173,85.0
2395.1309,88.0
2396.0889,76.0
2397.0474,82.0
2398.006,77.0
2398.9653,61.0
2399.9248,83.0
2400.8848,71.0
2401.8452,64.0
2402.806,74.0
2403.767,69.0
2404.7285,73.0
2405.6904,80.0
2406.6526,87.0
2407.6152,76.0
2408.5784,68.0
2409.5417,66.0
2410.5056,77.0
2411.4697,84.0
2412.4343,82.0
2413.3994,75.0
2414.3647,72.0
2415.3306,74.0
2416.2966,68.0
2417.2632,54.0
2418.23,65.0
2419.1973,83.0
2420.165,78.0
2421.133,74.0
2422.1016,72.0
2423.0703,82.0
2424.0396,55.0
2425.0093,75.0
2425.9792,67.0
2426.9497,71.0
2427.9204,84.0
2428.8916,66.0
2429.863,68.0
2430.835,82.0
2431.8074,88.0
2432.78,91.0
2433.7532,79.0
2434.7266,82.0
2435.7004,66.0
2436.6748,57.0
2437.6494,86.0
2438.6245,70.0
2439.5999,66.0
2440.5757,59.0
2441.552,62.0
2442.5286,54.0
2443.5056,57.0
2444.483,76.0
2445.4607,78.0
2446.439,77.0
2447.4175,78.0
2448.3965,74.0
2449.3757,89.0
2450.3555,85.0
2451.3357,67.0
2452.3162,87.0
2453.297,71.0
2454.2783,89.0
2455.26,76.0
2456.2422,78.0
2457.2246,78.0
2458.2075,76.0
2459.191,68.0
2460.1746,67.0
2461.1587,83.0
2462.143,68.0
2463.128,67.0
2464.1133,72.0
2465.0989,79.0
2466.085,96.0
2467.0713,83.0
2468.058,82.0
2469.0454,74.0
2470.033,71.0
2471.021,79.0
2472.0095,62.0
2472.9983,74.0
2473.9875,64.0
2474.977,64.0
2475.967,76.0
2476.9575,66.0
2477.9482,74.0
2478.9395,78.0
2479.931,83.0
2480.9229,77.0
2481.9153,74.0
2482.908,78.0
2483.9011,75.0
2484.8948,66.0
2485.8887,67.0
2486.883,82.0
2487.878,83.0
2488.873,70.0
2489.8687,70.0
2490.8645,68.0
2491.8608,82.0
2492.8577,73.0
2493.8547,94.0
2494.8523,69.0
2495.8503,86.0
2496.8486,82.0
2497.8474,84.0
2498.8464,87.0
2499.846,92.0
2500.846,71.0
2501.8462,65.0
2502.847,73.0
2503.8481,60.0
2504.8496,71.0
2505.8516,69.0
2506.854,72.0
2507.8567,80.0
2508.8599,68.0
2509.8635,62.0
2510.8674,70.0
2511.8718,67.0
2512.8765,67.0
2513.8816,71.0
2514.8872,67.0
2515.893,90.0
2516.8994,84.0
2517.9062,74.0
2518.9133,68.0
2519.921,72.0
2520.929,90.0
2521.9373,78.0
2522.946,68.0
2523.9553,66.0
2524.9648,74.0
2525.9749,81.0
2526.9854,82.0
2527.996,80.0
2529.0073,74.0
2530.019,69.0
2531.031,61.0
2532.0435,70.0
2533.0562,66.0
2534.0693,80.0
2535.083,69.0
2536.097,65.0
2537.1113,71.0
2538.1262,56.0
2539.1414,52.0
2540.157,63.0
2541.173,77.0
2542.1895,67.0
2543.2063,70.0
2544.2236,74.0
2545.2412,71.0
2546.2593,62.0
2547.2778,62.0
2548.2966,74.0
2549.316,80.0
2550.3357,73.0
2551.3557,62.0
2552.3762,71.0
2553.3972,69.0
2554.4185,74.0
2555.4402,54.0
2556.4624,58.0
2557.485,61.0
2558.508,64.0
2559.5315,87.0
2560.5554,75.0
2561.5796,88.0
2562.6042,80.0
2563.6294,89.0
2564.6548,87.0
2565.6807,84.0
2566.707,82.0
2567.7336,67.0
2568.7607,84.0
2569.7883,78.0
2570.8162,81.0
2571.8445,73.0
2572.8733,62.0
2573.9023,75.0
2574.932,62.0
2575.962,79.0
2576.9922,71.0
2578.023,70.0
2579.0542,60.0
2580.086,78.0
2581.118,70.0
2582.1504,74.0
2583.1833,70.0
2584.2166,63.0
2585.2502,68.0
2586.2844,73.0
2587.3188,82.0
2588.3538,69.0
2589.3892,67.0
2590.4248,88.0
2591.461,70.0
2592.4976,90.0
2593.5347,80.0
2594.572,81.0
2595.6099,81.0
2596.6482,65.0
2597.6868,66.0
2598.7258,72.0
2599.7654,59.0
2600.8052,62.0
2601.8455,80.0
2602.8862,63.0
2603.9275,75.0
2604.969,75.0
2606.011,75.0
2607.0535,71.0
2608.0962,86.0
2609.1394,95.0
2610.183,97.0
2611.2273,76.0
2612.2717,77.0
2613.3167,72.0
2614.362,68.0
2615.4077,72.0
2616.4539,88.0
2617.5005,78.0
2618.5476,86.0
2619.595,79.0
2620.6428,84.0
2621.6912,67.0
2622.7397,83.0
2623.7888,77.0
2624.8384,84.0
2625.8884,71.0
2626.9387,80.0
2627.9895,68.0
2629.0408,87.0
2630.0923,83.0
2631.1443,82.0
2632.1968,80.0
2633.2498,90.0
2634.303,89.0
2635.3567,83.0
2636.411,88.0
2637.4653,59.0
2638.5203,65.0
2639.5757,87.0
2640.6316,87.0
2641.6877,82.0
2642.7444,97.0
2643.8015,90.0
2644.8591,67.0
2645.917,71.0
2646.9753,73.0
2648.0342,77.0
2649.0935,90.0
2650.153,99.0
2651.2131,77.0
2652.2737,85.0
2653.3345,84.0
2654.3958,66.0
2655.4575,77.0
2656.5198,60.0
2657.5823,60.0
2658.6453,66.0
2659.7087,66.0
2660.7727,82.0
2661.837,76.0
2662.9016,73.0
2663.9668,80.0
2665.0325,97.0
2666.0984,110.0
2667.1648,105.0
2668.2317,80.0
2669.299,83.0
2670.3667,88.0
2671.4348,75.0
2672.5034,70.0
2673.5725,64.0
2674.6418,85.0
2675.7117,78.0
2676.782,81.0
2677.8528,96.0
2678.9238,90.0
2679.9954,88.0
2681.0674,86.0
2682.14,96.0
2683.2126,101.0
2684.286,78.0
2685.3596,89.0
2686.4338,80.0
2687.5083,87.0
2688.5833,88.0
2689.6587,80.0
2690.7346,79.0
2691.8108,70.0
2692.8875,91.0
2693.9646,74.0
2695.0422,82.0
2696.1204,80.0
2697.1987,94.0
2698.2776,85.0
2699.357,99.0
2700.4368,99.0
2701.5168,84.0
2702.5974,93.0
2703.6785,74.0
2704.76,84.0
2705.8418,80.0
2706.924,88.0
2708.0068,70.0
2709.09,79.0
2710.1738,89.0
2711.2578,79.0
2712.3423,90.0
2713.4272,75.0
2714.5127,85.0
2715.5984,80.0
2716.6846,73.0
2717.7712,82.0
2718.8584,61.0
2719.946,88.0
2721.034,96.0
2722.1223,105.0
2723.2112,104.0
2724.3005,122.0
2725.3901,72.0
2726.4802,82.0
2727.5708,103.0
2728.6619,90.0
2729.7534,84.0
2730.8452,90.0
2731.9375,94.0
2733.0303,80.0
2734.1235,92.0
2735.2173,138.0
2736.3113,152.0
2737.4058,120.0
2738.5007,91.0
2739.5962,74.0
2740.6921,77.0
2741.7883,70.0
2742.885,79.0
2743.9822,77.0
2745.0798,76.0
2746.178,79.0
2747.2764,81.0
2748.3752,85.0
2749.4746,88.0
2750.5745,90.0
2751.6748,92.0
2752.7754,89.0
2753.8765,79.0
2754.978,81.0
2756.08,73.0
2757.1826,71.0
2758.2854,86.0
2759.3887,83.0
2760.4924,71.0
2761.5967,83.0
2762.7014,85.0
2763.8064,81.0
2764.9119,88.0
2766.0178,83.0
2767.1243,73.0
2768.2312,69.0
2769.3384,68.0
2770.446,89.0
2771.5542,68.0
2772.6628,80.0
2773.772,72.0
2774.8816,74.0
2775.9915,84.0
2777.1018,85.0
2778.2126,86.0
2779.324,101.0
2780.4358,84.0
2781.5479,87.0
2782.6604,89.0
2783.7734,68.0
2784.887,81.0
2786.001,81.0
2787.1155,78.0
2788.2302,75.0
2789.3455,74.0
2790.4612,80.0
2791.5774,98.0
2792.694,110.0
2793.8113,124.0
2794.9287,152.0
2796.0466,156.0
2797.165,158.0
2798.284,169.0
2799.4033,135.0
2800.5232,139.0
2801.6433,104.0
2802.764,98.0
2803.885,118.0
2805.0066,124.0
2806.1287,126.0
2807.2512,141.0
2808.374,153.0
2809.4973,134.0
2810.621,110.0
2811.7454,119.0
2812.87,120.0
2813.9954,122.0
2815.1208,107.0
2816.2468,137.0
2817.3733,126.0
2818.5002,122.0
2819.6277,126.0
2820.7556,119.0
2821.884,97.0
2823.0127,101.0
2824.1418,119.0
2825.2715,126.0
2826.4016,99.0
2827.5322,128.0
2828.6633,100.0
2829.7947,128.0
2830.9265,129.0
2832.0588,123.0
2833.1917,124.0
2834.325,108.0
2835.4587,135.0
2836.593,137.0
2837.7275,120.0
2838.8625,131.0
2839.998,104.0
2841.134,114.0
2842.2705,103.0
2843.4075,106.0
2844.545,99.0
2845.6829,131.0
2846.821,116.0
2847.9597,105.0
2849.0989,113.0
2850.2385,134.0
2851.3787,119.0
2852.5193,151.0
2853.6604,134.0
2854.8018,116.0
2855.9436,126.0
2857.086,143.0
2858.2288,147.0
2859.372,125.0
2860.5159,122.0
2861.6602,117.0
2862.805,104.0
2863.95,128.0
2865.0955,121.0
2866.2415,127.0
2867.388,120.0
2868.535,129.0
2869.6824,130.0
2870.8303,113.0
2871.9788,131.0
2873.1274,127.0
2874.2766,118.0
2875.4263,126.0
2876.5764,111.0
2877.727,105.0
2878.8782,121.0
2880.0298,99.0
2881.182,99.0
2882.3345,119.0
2883.4873,143.0
2884.6406,113.0
2885.7944,114.0
2886.9487,108.0
2888.1035,141.0
2889.2588,136.0
2890.4146,154.0
2891.5708,142.0
2892.7275,110.0
2893.8845,116.0
2895.042,115.0
2896.2,118.0
2897.3584,111.0
2898.5173,109.0
2899.6768,128.0
2900.8367,91.0
2901.997,118.0
2903.158,120.0
2904.3193,113.0
2905.481,135.0
2906.643,150.0
2907.8057,156.0
2908.9688,183.0
2910.1323,150.0
2911.2964,163.0
2912.461,141.0
2913.626,124.0
2914.7915,108.0
2915.9575,110.0
2917.124,95.0
2918.2908,115.0
2919.458,109.0
2920.6257,125.0
2921.794,194.0
2922.9626,208.0
2924.1318,184.0
2925.3015,144.0
2926.4717,118.0
2927.6423,143.0
2928.8135,123.0
2929.985,114.0
2931.157,120.0
2932.3293,122.0
2933.5022,140.0
2934.6755,128.0
2935.8494,119.0
2937.0237,107.0
2938.1985,121.0
2939.3738,107.0
2940.5496,118.0
2941.7258,145.0
2942.9026,134.0
2944.0798,125.0
2945.2576,137.0
2946.4358,124.0
2947.6143,126.0
2948.7932,143.0
2949.9727,142.0
2951.1526,144.0
2952.333,119.0
2953.514,134.0
2954.6953,123.0
2955.8772,88.0
2957.0596,111.0
2958.2424,115.0
2959.4258,136.0
2960.6096,124.0
2961.794,119.0
2962.9788,96.0
2964.164,107.0
2965.3496,115.0
2966.5356,127.0
2967.7222,112.0
2968.9092,141.0
2970.0967,111.0
2971.2847,110.0
2972.4731,111.0
2973.662,98.0
2974.8516,129.0
2976.0415,110.0
2977.232,107.0
2978.4229,124.0
2979.6143,109.0
2980.8062,115.0
2981.9985,105.0
2983.1914,114.0
2984.3848,133.0
2985.5786,124.0
2986.773,108.0
2987.9678,98.0
2989.1628,128.0
2990.3584,132.0
2991.5544,109.0
2992.751,124.0
2993.948,114.0
2995.1455,133.0
2996.3435,103.0
2997.542,143.0
2998.741,110.0
2999.9404,123.0
3001.1404,111.0
3002.3408,121.0
3003.5417,119.0
3004.7432,110.0
3005.945,116.0
3007.1475,104.0
3008.3503,119.0
3009.5537,139.0
3010.7576,116.0
3011.962,128.0
3013.1667,137.0
3014.372,120.0
3015.578,113.0
3016.7842,102.0
3017.991,98.0
3019.1982,121.0
3020.406,139.0
3021.6143,143.0
3022.823,132.0
3024.0322,116.0
3025.242,117.0
3026.4521,116.0
3027.6628,110.0
3028.874,125.0
3030.0857,116.0
3031.2976,121.0
3032.51,120.0
3033.723,139.0
3034.9363,115.0
3036.1501,120.0
3037.3645,130.0
3038.5793,114.0
3039.7947,116.0
3041.0105,111.0
3042.2268,118.0
3043.4436,129.0
3044.661,123.0
3045.8787,112.0
3047.097,113.0
3048.3157,103.0
3049.535,108.0
3050.7546,118.0
3051.9749,112.0
3053.1956,122.0
3054.4167,128.0
3055.6384,115.0
3056.8606,114.0
3058.0833,105.0
3059.3064,105.0
3060.53,126.0
3061.7542,130.0
3062.9788,95.0
3064.2039,132.0
3065.4294,143.0
3066.6555,139.0
3067.882,115.0
3069.1091,114.0
3070.3367,105.0
3071.5647,89.0
3072.7932,109.0
3074.0222,110.0
3075.2517,123.0
3076.4817,128.0
3077.7124,130.0
3078.9436,130.0
3080.1753,129.0
3081.4075,129.0
3082.6401,130.0
3083.8733,118.0
3085.107,110.0
3086.341,109.0
3087.5757,136.0
3088.8108,131.0
3090.0464,127.0
3091.2825,102.0
3092.519,110.0
3093.756,143.0
3094.9937,117.0
3096.2317,104.0
3097.4702,148.0
3098.7092,119.0
3099.9487,116.0
3101.1887,149.0
3102.4292,106.0
3103.6702,125.0
3104.9116,86.0
3106.1536,123.0
3107.396,112.0
3108.639,144.0
3109.8823,125.0
3111.1262,118.0
3112.3706,98.0
3113.6155,114.0
3114.8608,126.0
3116.1067,119.0
3117.353,117.0
3118.5999,120.0
3119.8474,111.0
3121.0955,114.0
3122.344,125.0
3123.593,145.0
3124.8425,111.0
3126.0925,122.0
3127.343,111.0
3128.594,135.0
3129.8455,113.0
3131.0974,130.0
3132.3499,130.0
3133.6028,126.0
3134.8562,134.0
3136.11,112.0
3137.3645,134.0
3138.6194,138.0
3139.8748,104.0
3141.1306,140.0
3142.387,135.0
3143.6438,106.0
3144.9014,129.0
3146.1594,131.0
3147.418,146.0
3148.677,139.0
3149.9365,129.0
3151.1965,116.0
3152.457,124.0
3153.718,120.0
3154.9795,129.0
3156.2415,112.0
3157.504,138.0
3158.7668,122.0
3160.0303,106.0
3161.2942,115.0
3162.5586,105.0
3163.8237,99.0
3165.0894,113.0
3166.3555,109.0
3167.622,125.0
3168.8892,113.0
3170.1567,118.0
3171.4248,115.0
3172.6934,121.0
3173.9624,114.0
3175.232,114.0
3176.502,132.0
3177.7725,127.0
3179.0435,124.0
3180.3152,124.0
3181.5874,121.0
3182.86,114.0
3184.1333,132.0
3185.407,130.0
3186.6812,125.0
3187.9558,130.0
3189.231,137.0
3190.5066,113.0
3191.7827,117.0
3193.0593,134.0
3194.3367,153.0
3195.6145,142.0
3196.8928,127.0
3198.1716,128.0
3199.451,127.0
3200.7307,119.0
3202.011,112.0
3203.2917,113.0
3204.573,122.0
3205.8547,126.0
3207.137,114.0
3208.42,129.0
3209.7034,124.0
3210.9873,103.0
3212.2717,102.0
3213.5566,138.0
3214.842,133.0
3216.128,128.0
3217.4143,114.0
3218.7012,125.0
3219.9888,115.0
3221.2769,147.0
3222.5654,143.0
3223.8545,126.0
3225.144,145.0
3226.434,168.0
3227.7246,144.0
3229.0156,124.0
3230.3071,102.0
3231.5994,98.0
3232.892,104.0
3234.1853,104.0
3235.479,119.0
3236.7732,137.0
3238.0679,133.0
3239.363,121.0
3240.6587,124.0
3241.9548,102.0
3243.2517,110.0
3244.549,120.0
3245.847,85.0
3247.1453,112.0
3248.444,113.0
3249.7434,133.0
3251.0432,123.0
3252.3438,117.0
3253.6448,114.0
3254.9463,113.0
3256.2483,125.0
3257.5508,112.0
3258.8538,130.0
3260.1572,105.0
3261.4612,106.0
3262.7659,136.0
3264.071,124.0
3265.3767,126.0
3266.6829,118.0
3267.9895,114.0
3269.2966,121.0
3270.6042,125.0
3271.9126,121.0
3273.2214,120.0
3274.5308,118.0
3275.8406,122.0
3277.151,117.0
3278.4617,124.0
3279.773,134.0
3281.085,110.0
3282.3975,114.0
3283.7104,142.0
3285.024,104.0
3286.338,119.0
3287.6523,129.0
3288.9673,122.0
3290.283,142.0
3291.599,132.0
3292.9158,116.0
3294.233,136.0
3295.5505,139.0
3296.8687,114.0
3298.1875,107.0
3299.5068,130.0
3300.8267,119.0
3302.147,128.0
3303.4678,118.0
3304.789,127.0
3306.111,118.0
3307.4336,111.0
3308.7566,157.0
3310.08,117.0
3311.404,134.0
3312.7285,132.0
3314.0537,117.0
3315.3794,122.0
3316.7056,137.0
3318.0322,122.0
3319.3594,131.0
3320.687,123.0
3322.0154,128.0
3323.3442,130.0
3324.6736,146.0
3326.0034,113.0
3327.3337,126.0
3328.6648,129.0
3329.9963,116.0
3331.3284,111.0
3332.661,128.0
3333.994,123.0
3335.3274,131.0
3336.6616,108.0
3337.9963,127.0
3339.3315,116.0
3340.6672,139.0
3342.0034,130.0
3343.3403,137.0
3344.6777,137.0
3346.0156,120.0
3347.354,124.0
3348.6929,132.0
3350.0322,134.0
3351.3723,137.0
3352.713,157.0
3354.054,129.0
3355.3955,119.0
3356.7375,114.0
3358.0803,132.0
3359.4236,147.0
3360.7673,135.0
3362.1116,134.0
3363.4563,122.0
3364.8018,109.0
3366.1477,128.0
3367.4941,147.0
3368.841,138.0
3370.1887,137.0
3371.5369,160.0
3372.8855,139.0
3374.2346,114.0
3375.5842,134.0
3376.9346,129.0
3378.2854,136.0
3379.6367,131.0
3380.9885,133.0
3382.3408,148.0
3383.6938,151.0
3385.0474,159.0
3386.4014,144.0
3387.7559,153.0
3389.1108,135.0
3390.4666,131.0
3391.8228,140.0
3393.1794,131.0
3394.5366,129.0
3395.8945,124.0
3397.253,129.0
3398.6118,126.0
3399.9712,125.0
3401.3313,127.0
3402.692,154.0
3404.053,152.0
3405.4146,154.0
3406.7766,133.0
3408.1394,127.0
3409.5027,132.0
3410.8665,130.0
3412.2307,145.0
3413.5957,147.0
3414.9612,139.0
3416.3271,123.0
3417.6936,131.0
3419.0608,134.0
3420.4285,171.0
3421.7966,168.0
3423.1653,145.0
3424.5347,145.0
3425.9045,132.0
3427.275,117.0
3428.6458,143.0
3430.017,127.0
3431.3892,158.0
3432.7617,126.0
3434.1348,158.0
3435.5083,155.0
3436.8826,100.0
3438.2573,122.0
3439.6326,145.0
3441.0083,117.0
3442.3848,117.0
3443.7617,123.0
3445.1392,117.0
3446.5173,121.0
3447.896,128.0
3449.2751,113.0
3450.6548,150.0
3452.0352,138.0
3453.416,140.0
3454.7974,172.0
3456.1792,151.0
3457.5618,154.0
3458.9448,143.0
3460.3284,124.0
3461.7124,148.0
3463.0972,127.0
3464.4824,154.0
3465.8682,144.0
3467.2544,123.0
3468.6414,144.0
3470.0288,116.0
3471.4167,143.0
3472.8054,140.0
3474.1946,162.0
3475.5842,156.0
3476.9744,130.0
3478.3652,158.0
3479.7566,136.0
3481.1484,135.0
3482.541,142.0
3483.934,163.0
3485.3276,145.0
3486.7217,141.0
3488.1165,128.0
3489.5117,152.0
3490.9075,130.0
3492.304,154.0
3493.701,132.0
3495.0984,118.0
3496.4963,154.0
3497.895,132.0
3499.2942,151.0
3500.6938,167.0
3502.0942,145.0
3503.495,148.0
3504.8965,152.0
3506.2983,133.0
3507.701,158.0
3509.104,152.0
3510.5076,160.0
3511.9119,144.0
3513.3167,166.0
3514.722,132.0
3516.128,154.0
3517.5344,123.0
3518.9414,140.0
3520.3489,140.0
3521.757,185.0
3523.1658,174.0
3524.575,144.0
3525.9849,134.0
3527.3953,141.0
3528.8062,168.0
3530.2178,243.0
3531.63,226.0
3533.0425,155.0
3534.4558,160.0
3535.8696,134.0
3537.284,157.0
3538.6987,148.0
3540.1143,145.0
3541.5303,152.0
3542.9468,155.0
3544.364,151.0
3545.7817,147.0
3547.2,135.0
3548.619,167.0
3550.0383,144.0
3551.4583,137.0
3552.879,151.0
3554.3,152.0
3555.7217,165.0
3557.144,142.0
3558.567,152.0
3559.9902,162.0
3561.4143,142.0
3562.8389,165.0
3564.264,176.0
3565.6897,190.0
3567.116,156.0
3568.5427,150.0
3569.9702,156.0
3571.3982,170.0
3572.8267,178.0
3574.2559,166.0
3575.6855,159.0
3577.1157,139.0
3578.5466,185.0
3579.978,201.0
3581.41,183.0
3582.8425,164.0
3584.2756,166.0
3585.7092,168.0
3587.1436,190.0
3588.5784,180.0
3590.014,172.0
3591.45,166.0
3592.8865,199.0
3594.3237,180.0
3595.7615,190.0
3597.1997,198.0
3598.6387,182.0
3600.0781,216.0
3601.518,183.0
3602.9587,179.0
3604.4,198.0
3605.8416,159.0
3607.284,250.0
3608.7268,263.0
3610.1704,224.0
3611.6145,184.0
3613.059,145.0
3614.5044,170.0
3615.9502,260.0
3617.3965,342.0
3618.8435,247.0
3620.291,190.0
3621.739,188.0
3623.1877,185.0
3624.637,159.0
3626.087,185.0
3627.5374,189.0
3628.9883,164.0
3630.44,161.0
3631.892,158.0
3633.3447,173.0
3634.798,193.0
3636.252,176.0
3637.7065,157.0
3639.1616,155.0
3640.6172,156.0
3642.0735,168.0
3643.5303,171.0
3644.9878,223.0
3646.4458,216.0
3647.9043,166.0
3649.3635,160.0
3650.8232,181.0
3652.2837,178.0
3653.7446,177.0
3655.206,163.0
3656.6682,195.0
3658.1309,186.0
3659.594,182.0
3661.0579,193.0
3662.5222,172.0
3663.9873,165.0
3665.453,199.0
3666.919,201.0
3668.3857,204.0
3669.853,148.0
3671.321,143.0
3672.7896,133.0
3674.2585,170.0
3675.7283,204.0
3677.1985,219.0
3678.6694,220.0
3680.1409,233.0
3681.613,200.0
3683.0857,165.0
3684.5588,144.0
3686.0327,160.0
3687.507,163.0
3688.9822,189.0
3690.4578,184.0
3691.9338,164.0
3693.4106,172.0
3694.888,185.0
3696.366,166.0
3697.8445,174.0
3699.3237,169.0
3700.8035,166.0
3702.2837,166.0
3703.7646,162.0
3705.246,141.0
3706.7283,196.0
3708.211,206.0
3709.6943,270.0
3711.1782,234.0
3712.6626,209.0
3714.1477,204.0
3715.6333,201.0
3717.1196,188.0
3718.6064,195.0
3720.094,172.0
3721.582,195.0
3723.0706,178.0
3724.5598,204.0
3726.0496,177.0
3727.54,187.0
3729.031,204.0
3730.5227,195.0
3732.015,191.0
3733.5078,278.0
3735.0012,349.0
3736.495,290.0
3737.9897,220.0
3739.4849,207.0
3740.9807,212.0
3742.477,206.0
3743.974,220.0
3745.4717,198.0
3746.97,179.0
3748.4688,215.0
3749.968,423.0
3751.468,1011.0
3752.9685,949.0
3754.4697,572.0
3755.9714,434.0
3757.4739,254.0
3758.9768,203.0
3760.4805,207.0
3761.9846,201.0
3763.4895,182.0
3764.9949,230.0
3766.501,245.0
3768.0076,286.0
3769.515,227.0
3771.0227,237.0
3772.531,234.0
3774.04,291.0
3775.5496,272.0
3777.0598,204.0
3778.5706,227.0
3780.082,208.0
3781.594,242.0
3783.1067,327.0
3784.6199,347.0
3786.1338,302.0
3787.6482,222.0
3789.1633,209.0
3790.679,182.0
3792.1953,199.0
3793.7122,178.0
3795.2297,217.0
3796.7478,206.0
3798.2666,220.0
3799.786,250.0
3801.306,198.0
3802.8264,179.0
3804.3477,209.0
3805.8694,204.0
3807.3918,206.0
3808.9148,207.0
3810.4385,196.0
3811.9626,224.0
3813.4875,229.0
3815.013,301.0
3816.539,238.0
3818.0657,252.0
3819.593,202.0
3821.1208,180.0
3822.6494,198.0
3824.1785,195.0
3825.7083,188.0
3827.2385,212.0
3828.7695,220.0
3830.301,266.0
3831.8333,247.0
3833.366,213.0
3834.8994,201.0
3836.4333,206.0
3837.968,194.0
3839.5032,190.0
3841.039,244.0
3842.5754,212.0
3844.1125,202.0
3845.6501,185.0
3847.1885,231.0
3848.7273,331.0
3850.2668,343.0
3851.807,262.0
3853.3477,221.0
3854.889,209.0
3856.431,199.0
3857.9734,224.0
3859.5166,228.0
3861.0603,192.0
3862.6047,198.0
3864.1497,246.0
3865.6953,222.0
3867.2417,236.0
3868.7886,251.0
3870.3362,228.0
3871.8843,200.0
3873.433,236.0
3874.9824,249.0
3876.5325,217.0
3878.083,213.0
3879.6343,207.0
3881.186,249.0
3882.7385,230.0
3884.2915,231.0
3885.8452,253.0
3887.3997,212.0
3888.9546,188.0
3890.5103,188.0
3892.0664,204.0
3893.6233,225.0
3895.1807,215.0
3896.7388,223.0
3898.2974,253.0
3899.8567,254.0
3901.4167,265.0
3902.9773,284.0
3904.5386,244.0
3906.1003,246.0
3907.6628,246.0
3909.2258,199.0
3910.7896,166.0
3912.3538,184.0
3913.9187,206.0
3915.4844,260.0
3917.0505,235.0
3918.6174,234.0
3920.1848,208.0
3921.753,217.0
3923.3215,202.0
3924.8909,212.0
3926.461,208.0
3928.0315,190.0
3929.6028,194.0
3931.1746,183.0
3932.747,197.0
3934.32,189.0
3935.8938,218.0
3937.4683,188.0
3939.0432,212.0
3940.619,239.0
3942.195,188.0
3943.772,215.0
3945.3494,192.0
3946.9275,191.0
3948.5063,189.0
3950.0857,222.0
3951.6658,212.0
3953.2463,186.0
3954.8276,188.0
3956.4097,165.0
3957.9922,201.0
3959.5754,185.0
3961.1592,202.0
3962.7437,191.0
3964.3289,187.0
3965.9146,169.0
3967.501,183.0
3969.088,153.0
3970.6755,182.0
3972.264,165.0
3973.8528,194.0
3975.4424,187.0
3977.0325,215.0
3978.6233,194.0
3980.2148,186.0
3981.807,167.0
3983.3997,190.0
3984.993,195.0
3986.587,168.0
3988.1816,192.0
3989.7769,188.0
3991.3728,222.0
3992.9692,194.0
3994.5664,177.0
3996.1643,185.0
3997.7627,173.0
3999.3618,181.0
4000.9617,184.0
4002.562,204.0
4004.163,256.0
4005.7646,186.0
4007.367,189.0
4008.97,229.0
4010.5735,209.0
4012.1777,210.0
4013.7827,215.0
4015.3882,183.0
4016.9944,219.0
4018.601,213.0
4020.2085,219.0
4021.8167,228.0
4023.4253,200.0
4025.0347,216.0
4026.6448,231.0
4028.2554,239.0
4029.8667,272.0
4031.4788,209.0
4033.0913,214.0
4034.7046,225.0
4036.3184,260.0
4037.9329,259.0
4039.548,255.0
4041.1638,269.0
4042.7803,266.0
4044.3975,309.0
4046.0151,275.0
4047.6335,244.0
4049.2527,301.0
4050.8723,421.0
4052.4927,363.0
4054.1138,335.0
4055.7354,301.0
4057.3577,332.0
4058.9807,352.0
4060.6042,462.0
4062.2285,437.0
4063.8535,352.0
4065.479,328.0
4067.1052,365.0
4068.7322,372.0
4070.3596,437.0
4071.9878,554.0
4073.6167,529.0
4075.246,430.0
4076.8762,418.0
4078.507,406.0
4080.1384,514.0
4081.7705,672.0
4083.4033,616.0
4085.0366,738.0
4086.6707,793.0
4088.3054,648.0
4089.9407,435.0
4091.5767,376.0
4093.2134,1107.0
4094.8506,1723.0
4096.489,1100.0
4098.1274,514.0
4099.7666,431.0
4101.4067,1198.0
4103.0474,3507.0
4104.6885,2673.0
4106.3306,1051.0
4107.973,537.0
4109.616,370.0
4111.2603,366.0
4112.905,429.0
4114.55,549.0
4116.196,432.0
4117.8423,368.0
4119.4893,257.0
4121.137,262.0
4122.7856,277.0
4124.4346,279.0
4126.0845,293.0
4127.735,242.0
4129.3857,216.0
4131.0376,222.0
4132.69,216.0
4134.343,250.0
4135.9966,251.0
4137.651,238.0
4139.306,221.0
4140.962,198.0
4142.618,194.0
4144.2754,218.0
4145.933,268.0
4147.5913,224.0
4149.2505,231.0
4150.91,189.0
4152.5703,242.0
4154.2314,234.0
4155.893,222.0
4157.5557,214.0
4159.2188,223.0
4160.8823,221.0
4162.547,214.0
4164.212,215.0
4165.8774,277.0
4167.544,283.0
4169.211,228.0
4170.8784,218.0
4172.547,238.0
4174.216,265.0
4175.8857,300.0
4177.556,276.0
4179.227,229.0
4180.899,235.0
4182.5713,253.0
4184.244,241.0
4185.918,241.0
4187.5923,269.0
4189.267,283.0
4190.943,231.0
4192.619,217.0
4194.2964,221.0
4195.974,284.0
4197.6523,306.0
4199.3315,288.0
4201.011,232.0
4202.6914,228.0
4204.3726,224.0
4206.054,229.0
4207.737,201.0
4209.42,235.0
4211.1035,249.0
4212.788,251.0
4214.473,231.0
4216.1587,232.0
4217.845,234.0
4219.532,219.0
4221.22,221.0
4222.9087,239.0
4224.5977,208.0
4226.2876,248.0
4227.978,235.0
4229.6694,237.0
4231.3613,243.0
4233.0537,239.0
4234.747,220.0
4236.441,238.0
4238.1353,245.0
4239.8306,259.0
4241.5264,212.0
4243.223,252.0
4244.9204,246.0
4246.618,254.0
4248.317,262.0
4250.016,237.0
4251.7163,249.0
4253.417,263.0
4255.118,260.0
4256.8203,276.0
4258.523,261.0
4260.2266,297.0
4261.9307,269.0
4263.6353,273.0
4265.341,335.0
4267.047,348.0
4268.754,388.0
4270.4614,294.0
4272.1694,294.0
4273.8784,271.0
4275.588,331.0
4277.2983,493.0
4279.0093,445.0
4280.7207,297.0
4282.433,296.0
4284.146,497.0
4285.86,814.0
4287.574,666.0
4289.289,399.0
4291.005,321.0
4292.721,250.0
4294.4385,249.0
4296.1562,281.0
4297.8745,354.0
4299.5938,347.0
4301.3135,290.0
4303.034,245.0
4304.7554,231.0
4306.477,273.0
4308.1997,221.0
4309.923,254.0
4311.647,234.0
4313.3716,247.0
4315.097,211.0
4316.823,208.0
4318.55,231.0
4320.2773,226.0
4322.0054,199.0
4323.7344,216.0
4325.464,235.0
4327.194,225.0
4328.925,218.0
4330.6562,259.0
4332.3887,264.0
4334.1216,219.0
4335.8555,220.0
4337.59,224.0
4339.3247,245.0
4341.0605,250.0
4342.797,213.0
4344.534,226.0
4346.272,227.0
4348.0103,235.0
4349.7495,229.0
4351.4893,232.0
4353.23,208.0
4354.971,223.0
4356.7134,254.0
4358.456,255.0
4360.199,257.0
4361.9434,227.0
4363.688,216.0
4365.4336,232.0
4367.1797,232.0
4368.927,226.0
4370.6743,232.0
4372.4224,263.0
4374.1714,234.0
4375.921,195.0
4377.6714,223.0
4379.4224,256.0
4381.1743,234.0
4382.927,218.0
4384.6797,234.0
4386.4336,282.0
4388.188,231.0
4389.9434,267.0
4391.699,250.0
4393.456,229.0
4395.2134,244.0
4396.9717,235.0
4398.7305,294.0
4400.4897,302.0
4402.25,260.0
4404.0107,254.0
4405.7725,244.0
4407.5347,346.0
4409.298,416.0
4411.0615,326.0
4412.826,277.0
4414.5913,256.0
4416.357,402.0
4418.1235,463.0
4419.8906,326.0
4421.6587,305.0
4423.4272,265.0
4425.197,266.0
4426.967,260.0
4428.738,314.0
4430.5093,321.0
4432.2812,312.0
4434.054,307.0
4435.8276,260.0
4437.602,340.0
4439.377,403.0
4441.153,346.0
4442.929,306.0
4444.7065,275.0
4446.4844,257.0
4448.263,291.0
4450.0425,314.0
4451.8223,299.0
4453.603,288.0
4455.3843,247.0
4457.1665,279.0
4458.949,350.0
4460.733,352.0
4462.517,290.0
4464.3022,275.0
4466.088,277.0
4467.8745,370.0
4469.6616,375.0
4471.4497,351.0
4473.2383,312.0
4475.0273,301.0
4476.8174,251.0
4478.608,273.0
4480.3994,314.0
4482.1914,342.0
4483.9844,347.0
4485.778,309.0
4487.5723,310.0
4489.367,277.0
4491.163,311.0
4492.9595,320.0
4494.757,304.0
4496.5547,318.0
4498.3535,351.0
4500.153,310.0
4501.953,309.0
4503.754,308.0
4505.555,333.0
4507.3574,309.0
4509.16,280.0
4510.964,294.0
4512.768,306.0
4514.573,352.0
4516.379,300.0
4518.1855,280.0
4519.9927,284.0
4521.801,329.0
4523.6094,309.0
4525.419,262.0
4527.229,261.0
4529.04,310.0
4530.8516,424.0
4532.664,370.0
4534.477,320.0
4536.291,263.0
4538.1055,310.0
4539.921,389.0
4541.737,253.0
4543.5537,277.0
4545.371,249.0
4547.1895,246.0
4549.0083,224.0
4550.828,251.0
4552.6484,248.0
4554.4697,234.0
4556.2915,248.0
4558.1143,224.0
4559.9375,235.0
4561.7617,226.0
4563.5864,228.0
4565.4116,253.0
4567.238,237.0
4569.0645,252.0
4570.892,254.0
4572.72,238.0
4574.5493,228.0
4576.379,256.0
4578.2095,238.0
4580.0405,262.0
4581.8726,238.0
4583.705,263.0
4585.5386,246.0
4587.3726,234.0
4589.2075,240.0
4591.043,289.0
4592.8794,251.0
4594.7163,260.0
4596.554,234.0
4598.3926,234.0
4600.232,290.0
4602.0723,248.0
4603.913,254.0
4605.755,254.0
4607.597,219.0
4609.4404,239.0
4611.284,250.0
4613.129,272.0
4614.974,269.0
4616.8203,234.0
4618.667,272.0
4620.5146,236.0
4622.363,267.0
4624.212,258.0
4626.0615,266.0
4627.912,243.0
4629.763,257.0
4631.615,247.0
4633.468,245.0
4635.3213,240.0
4637.1753,218.0
4639.0303,261.0
4640.8857,210.0
4642.742,247.0
4644.599,254.0
4646.457,248.0
4648.3154,224.0
4650.175,221.0
4652.0347,217.0
4653.8955,238.0
4655.757,224.0
4657.619,215.0
4659.4824,260.0
4661.346,254.0
4663.211,264.0
4665.076,263.0
4666.9424,223.0
4668.809,245.0
4670.677,269.0
4672.545,247.0
4674.414,225.0
4676.2837,227.0
4678.1543,281.0
4680.0254,276.0
4681.8975,231.0
4683.77,229.0
4685.6436,221.0
4687.5176,270.0
4689.3926,230.0
4691.2686,266.0
4693.145,206.0
4695.0225,253.0
4696.9004,234.0
4698.7793,234.0
4700.6587,237.0
4702.539,239.0
4704.42,225.0
4706.302,247.0
4708.184,263.0
4710.0674,264.0
4711.951,307.0
4713.836,241.0
4715.7217,221.0
4717.608,210.0
4719.495,243.0
4721.383,216.0
4723.2715,241.0
4725.1606,208.0
4727.051,243.0
4728.9414,229.0
4730.833,250.0
4732.725,225.0
4734.618,238.0
4736.512,227.0
4738.4067,214.0
4740.3022,223.0
4742.198,242.0
4744.095,203.0
4745.9927,233.0
4747.891,253.0
4749.79,238.0
4751.69,247.0
4753.591,249.0
4755.492,226.0
4757.3945,234.0
4759.2974,216.0
4761.201,246.0
4763.1055,218.0
4765.0107,211.0
4766.9165,237.0
4768.823,223.0
4770.731,228.0
4772.639,212.0
4774.5483,202.0
4776.458,211.0
4778.3687,205.0
4780.28,242.0
4782.192,209.0
4784.105,214.0
4786.0186,191.0
4787.933,222.0
4789.848,254.0
4791.764,236.0
4793.6807,207.0
4795.598,188.0
4797.5166,204.0
4799.4355,199.0
4801.3555,215.0
4803.276,178.0
4805.1973,242.0
4807.119,208.0
4809.042,205.0
4810.966,199.0
4812.89,222.0
4814.8154,200.0
4816.741,193.0
4818.668,175.0
4820.595,189.0
4822.5234,194.0
4824.4526,203.0
4826.3823,190.0
4828.313,200.0
4830.244,205.0
4832.1763,233.0
4834.1094,211.0
4836.043,205.0
4837.9775,214.0
4839.9126,187.0
4841.8486,235.0
4843.785,220.0
4845.7227,232.0
4847.661,205.0
4849.6,203.0
4851.54,214.0
4853.4805,207.0
4855.422,203.0
4857.3643,208.0
4859.307,197.0
4861.251,197.0
4863.1953,206.0
4865.1406,209.0
4867.087,225.0
4869.0337,230.0
4870.9814,205.0
4872.9297,215.0
4874.879,197.0
4876.829,197.0
4878.78,177.0
4880.7314,183.0
4882.6836,188.0
4884.6367,201.0
4886.5903,173.0
4888.545,197.0
4890.5005,211.0
4892.4565,219.0
4894.4136,213.0
4896.3716,204.0
4898.33,188.0
4900.2896,173.0
4902.2495,218.0
4904.2104,208.0
4906.1724,194.0
4908.135,199.0
4910.098,184.0
4912.062,191.0
4914.027,212.0
4915.9927,203.0
4917.959,230.0
4919.9263,254.0
4921.894,242.0
4923.863,216.0
4925.8325,198.0
4927.8027,222.0
4929.774,254.0
4931.7456,205.0
4933.7183,240.0
4935.692,215.0
4937.666,211.0
4939.641,220.0
4941.617,204.0
4943.5938,195.0
4945.5713,215.0
4947.5493,225.0
4949.5283,202.0
4951.5083,227.0
4953.489,220.0
4955.47,243.0
4957.4526,193.0
4959.4355,203.0
4961.4194,215.0
4963.404,219.0
4965.389,211.0
4967.3755,209.0
4969.3623,212.0
4971.35,226.0
4973.339,212.0
4975.328,205.0
4977.3184,224.0
4979.309,233.0
4981.301,227.0
4983.2935,240.0
4985.2866,239.0
4987.281,241.0
4989.276,237.0
4991.2715,250.0
4993.268,239.0
4995.265,243.0
4997.263,253.0
4999.262,222.0
5001.2617,230.0
5003.262,213.0
5005.2637,236.0
5007.2656,267.0
5009.2686,234.0
5011.2725,259.0
5013.277,237.0
5015.282,243.0
5017.2886,246.0
5019.2954,211.0
5021.303,208.0
5023.3115,230.0
5025.321,222.0
5027.331,224.0
5029.342,263.0
5031.3535,271.0
5033.366,275.0
5035.3794,227.0
5037.3936,262.0
5039.4087,235.0
5041.4243,256.0
5043.441,270.0
5045.4585,235.0
5047.4766,248.0
5049.4956,239.0
5051.5156,254.0
5053.536,216.0
5055.5576,219.0
5057.58,252.0
5059.603,260.0
5061.627,168.0
5063.6514,209.0
5065.677,224.0
5067.703,265.0
5069.73,242.0
5071.758,222.0
5073.7866,255.0
5075.816,245.0
5077.846,212.0
5079.8774,236.0
5081.909,218.0
5083.942,217.0
5085.9756,281.0
5088.01,253.0
5090.045,248.0
5092.081,269.0
5094.1177,244.0
5096.1553,223.0
5098.194,217.0
5100.233,235.0
5102.273,247.0
5104.314,236.0
5106.3555,247.0
5108.398,255.0
5110.4414,229.0
5112.4854,277.0
5114.5303,254.0
5116.576,208.0
5118.6226,220.0
5120.67,225.0
5122.7183,248.0
5124.7676,251.0
5126.8174,238.0
5128.868,256.0
5130.92,291.0
5132.972,294.0
5135.0254,245.0
5137.0796,222.0
5139.1343,208.0
5141.19,227.0
5143.2466,249.0
5145.3037,274.0
5147.362,253.0
5149.421,278.0
5151.4805,203.0
5153.541,276.0
5155.6025,228.0
5157.6646,242.0
5159.7275,241.0
5161.7915,248.0
5163.8564,232.0
5165.922,223.0
5167.9883,239.0
5170.0557,248.0
5172.1235,230.0
5174.1924,252.0
5176.262,249.0
5178.3325,221.0
5180.404,224.0
5182.476,241.0
5184.549,250.0
5186.6226,257.0
5188.6973,295.0
5190.773,250.0
5192.849,248.0
5194.9263,259.0
5197.0044,233.0
5199.083,246.0
5201.1626,266.0
5203.243,268.0
5205.324,275.0
5207.4062,235.0
5209.4893,256.0
5211.573,243.0
5213.6577,247.0
5215.743,229.0
5217.8296,251.0
5219.9165,333.0
5222.0044,303.0
5224.0933,263.0
5226.183,273.0
5228.2734,240.0
5230.3647,250.0
5232.457,246.0
5234.55,242.0
5236.6436,236.0
5238.7383,251.0
5240.834,253.0
5242.93,245.0
5245.0273,291.0
5247.1255,285.0
5249.224,259.0
5251.3237,253.0
5253.4243,251.0
5255.526,260.0
5257.628,278.0
5259.731,264.0
5261.835,258.0
5263.9395,266.0
5266.045,261.0
5268.1514,255.0
5270.259,248.0
5272.3667,238.0
5274.4756,228.0
5276.5854,261.0
5278.6963,248.0
5280.8076,251.0
5282.92,306.0
5285.033,272.0
5287.147,252.0
5289.2617,241.0
5291.3774,235.0
5293.494,239.0
5295.6113,223.0
5297.7295,263.0
5299.8486,321.0
5301.9688,279.0
5304.0894,288.0
5306.211,280.0
5308.3335,247.0
5310.457,224.0
5312.581,259.0
5314.706,292.0
5316.832,327.0
5318.959,382.0
5321.0864,345.0
5323.215,270.0
5325.344,260.0
5327.4746,257.0
5329.6055,248.0
5331.7373,251.0
5333.87,254.0
5336.004,265.0
5338.138,273.0
5340.2734,255.0
5342.4097,264.0
5344.547,269.0
5346.6846,274.0
5348.823,271.0
5350.963,245.0
5353.1035,270.0
5355.2446,243.0
5357.3867,289.0
5359.53,248.0
5361.674,261.0
5363.8184,250.0
5365.964,234.0
5368.1104,254.0
5370.258,266.0
5372.406,258.0
5374.5547,287.0
5376.7046,290.0
5378.8555,288.0
5381.007,256.0
5383.159,268.0
5385.3125,260.0
5387.467,245.0
5389.6216,268.0
5391.7773,317.0
5393.934,264.0
5396.092,292.0
5398.25,302.0
5400.409,286.0
5402.5693,238.0
5404.7305,249.0
5406.8926,286.0
5409.055,330.0
5411.2188,331.0
5413.3833,313.0
5415.549,289.0
5417.715,298.0
5419.882,272.0
5422.05,258.0
5424.2188,299.0
5426.3887,300.0
5428.559,283.0
5430.7305,263.0
5432.903,261.0
5435.076,256.0
5437.25,255.0
5439.425,269.0
5441.6006,296.0
5443.7773,302.0
5445.955,306.0
5448.1333,267.0
5450.3125,278.0
5452.4927,268.0
5454.674,273.0
5456.8555,265.0
5459.038,283.0
5461.2217,250.0
5463.4062,262.0
5465.592,272.0
5467.778,267.0
5469.965,285.0
5472.153,301.0
5474.342,298.0
5476.5317,305.0
5478.722,299.0
5480.9136,296.0
5483.106,269.0
5485.2993,294.0
5487.4937,315.0
5489.6885,294.0
5491.8843,309.0
5494.081,289.0
5496.279,283.0
5498.4775,253.0
5500.677,278.0
5502.877,302.0
5505.078,366.0
5507.2803,357.0
5509.4834,318.0
5511.687,291.0
5513.8916,317.0
5516.097,281.0
5518.3037,314.0
5520.511,276.0
5522.719,332.0
5524.928,324.0
5527.138,319.0
5529.349,287.0
5531.561,305.0
5533.7734,280.0
5535.987,274.0
5538.201,312.0
5540.4165,281.0
5542.633,312.0
5544.85,267.0
5547.068,301.0
5549.2866,290.0
5551.5063,289.0
5553.727,278.0
5555.9487,284.0
5558.171,292.0
5560.394,318.0
5562.618,284.0
5564.8433,294.0
5567.0693,309.0
5569.2964,311.0
5571.524,297.0
5573.7524,290.0
5575.982,305.0
5578.2124,307.0
5580.444,321.0
5582.676,307.0
5584.9087,265.0
5587.1426,303.0
5589.3774,238.0
5591.6133,290.0
5593.85,292.0
5596.0874,291.0
5598.3257,272.0
5600.565,316.0
5602.805,269.0
5605.0464,291.0
5607.2886,273.0
5609.5312,285.0
5611.775,263.0
5614.0195,270.0
5616.265,257.0
5618.5117,284.0
5620.7593,278.0
5623.008,258.0
5625.257,259.0
5627.507,270.0
5629.758,298.0
5632.01,275.0
5634.2627,310.0
5636.5166,267.0
5638.771,245.0
5641.0264,262.0
5643.2827,291.0
5645.54,273.0
5647.7983,304.0
5650.0576,268.0
5652.318,246.0
5654.5786,284.0
5656.8403,286.0
5659.103,292.0
5661.3667,289.0
5663.6313,304.0
5665.897,275.0
5668.1636,298.0
5670.4307,240.0
5672.6987,284.0
5674.968,294.0
5677.238,310.0
5679.509,317.0
5681.781,299.0
5684.0537,300.0
5686.327,321.0
5688.6016,293.0
5690.877,288.0
5693.1533,311.0
5695.4307,258.0
5697.709,285.0
5699.9883,287.0
5702.268,324.0
5704.549,319.0
5706.8306,310.0
5709.1133,316.0
5711.397,296.0
5713.6816,323.0
5715.9673,294.0
5718.254,326.0
5720.541,359.0
5722.829,334.0
5725.118,314.0
5727.408,338.0
5729.699,329.0
5731.991,315.0
5734.284,308.0
5736.578,309.0
5738.8726,351.0
5741.168,346.0
5743.4644,370.0
5745.7617,293.0
5748.06,337.0
5750.3594,324.0
5752.6597,343.0
5754.961,369.0
5757.2627,312.0
5759.5654,319.0
5761.869,348.0
5764.174,363.0
5766.4795,364.0
5768.786,341.0
5771.0938,374.0
5773.4023,379.0
5775.712,392.0
5778.022,341.0
5780.333,380.0
5782.645,360.0
5784.958,381.0
5787.272,358.0
5789.587,443.0
5791.903,402.0
5794.2197,367.0
5796.5376,378.0
5798.8564,405.0
5801.176,401.0
5803.496,388.0
5805.8174,447.0
5808.1396,414.0
5810.463,394.0
5812.787,384.0
5815.1123,446.0
5817.4385,420.0
5819.7656,450.0
5822.0938,457.0
5824.4224,448.0
5826.752,378.0
5829.0825,465.0
5831.414,490.0
5833.7466,457.0
5836.08,408.0
5838.4146,537.0
5840.75,579.0
5843.0864,428.0
5845.424,432.0
5847.762,484.0
5850.101,482.0
5852.441,385.0
5854.7817,448.0
5857.1235,419.0
5859.4663,426.0
5861.81,409.0
5864.155,418.0
5866.5005,423.0
5868.847,383.0
5871.195,397.0
5873.5435,391.0
5875.893,412.0
5878.2437,377.0
5880.5947,369.0
5882.947,412.0
5885.3,395.0
5887.654,426.0
5890.009,461.0
5892.3647,445.0
5894.7217,428.0
5897.0796,409.0
5899.4385,405.0
5901.7983,463.0
5904.159,474.0
5906.521,449.0
5908.884,461.0
5911.2476,437.0
5913.612,453.0
5915.977,460.0
5918.3433,470.0
5920.7104,449.0
5923.0786,428.0
5925.4478,469.0
5927.818,480.0
5930.189,489.0
5932.561,523.0
5934.934,468.0
5937.308,440.0
5939.683,462.0
5942.059,498.0
5944.436,529.0
5946.814,477.0
5949.193,457.0
5951.5728,498.0
5953.9536,450.0
5956.335,461.0
5958.7173,494.0
5961.1006,545.0
5963.485,541.0
5965.87,474.0
5968.2563,482.0
5970.6436,462.0
5973.0317,467.0
5975.421,550.0
5977.811,573.0
5980.202,482.0
5982.594,472.0
5984.9873,481.0
5987.3813,484.0
5989.7764,484.0
5992.1724,542.0
5994.5693,564.0
5996.9673,493.0
5999.366,498.0
6001.766,585.0
6004.167,616.0
6006.569,517.0
6008.9717,552.0
6011.3755,553.0
6013.7803,553.0
6016.1855,502.0
6018.592,521.0
6020.999,547.0
6023.407,493.0
6025.8164,416.0
6028.2266,509.0
6030.6377,471.0
6033.05,464.0
6035.463,532.0
6037.877,530.0
6040.292,464.0
6042.708,480.0
6045.125,507.0
6047.543,490.0
6049.962,458.0
6052.382,431.0
6054.8027,392.0
6057.2246,421.0
6059.6475,405.0
6062.0713,562.0
6064.496,595.0
6066.922,519.0
6069.3486,460.0
6071.7764,449.0
6074.205,436.0
6076.635,421.0
6079.0654,435.0
6081.497,433.0
6083.9297,433.0
6086.3633,471.0
6088.798,437.0
6091.2334,441.0
6093.67,403.0
6096.1074,420.0
6098.546,459.0
6100.9854,498.0
6103.426,467.0
6105.867,484.0
6108.3096,471.0
6110.753,442.0
6113.1973,491.0
6115.6426,498.0
6118.089,488.0
6120.536,469.0
6122.9844,460.0
6125.4336,497.0
6127.884,497.0
6130.335,605.0
6132.787,615.0
6135.24,589.0
6137.6943,532.0
6140.1494,499.0
6142.6055,535.0
6145.0625,495.0
6147.5205,629.0
6149.9795,629.0
6152.4395,594.0
6154.9004,627.0
6157.3623,677.0
6159.825,707.0
6162.289,647.0
6164.754,532.0
6167.2197,516.0
6169.6865,502.0
6172.1543,675.0
6174.623,866.0
6177.093,951.0
6179.5635,746.0
6182.035,642.0
6184.508,644.0
6186.9814,582.0
6189.456,663.0
6191.9316,1060.0
6194.408,1193.0
6196.8857,854.0
6199.3643,737.0
6201.844,682.0
6204.325,654.0
6206.807,608.0
6209.29,581.0
6211.774,532.0
6214.259,628.0
6216.7446,769.0
6219.2314,650.0
6221.719,625.0
6224.208,568.0
6226.6978,600.0
6229.1885,730.0
6231.68,790.0
6234.173,837.0
6236.6665,737.0
6239.161,633.0
6241.6567,571.0
6244.1533,599.0
6246.651,737.0
6249.1494,815.0
6251.649,727.0
6254.1494,724.0
6256.651,885.0
6259.1533,810.0
6261.6567,694.0
6264.1616,584.0
6266.6675,569.0
6269.1743,567.0
6271.682,950.0
6274.191,1335.0
6276.7007,1030.0
6279.2114,726.0
6281.723,582.0
6284.236,557.0
6286.7495,591.0
6289.264,1310.0
6291.78,1829.0
6294.2964,1347.0
6296.814,803.0
6299.3325,600.0
6301.852,524.0
6304.3726,473.0
6306.8945,545.0
6309.4175,568.0
6311.9414,566.0
6314.4663,539.0
6316.992,517.0
6319.519,486.0
6322.047,454.0
6324.5757,471.0
6327.1055,501.0
6329.636,472.0
6332.168,478.0
6334.7007,485.0
6337.2344,455.0
6339.769,470.0
6342.305,455.0
6344.8423,450.0
6347.3804,487.0
6349.9194,455.0
6352.4595,442.0
6355.0005,434.0
6357.5425,432.0
6360.0854,486.0
6362.6294,506.0
6365.1743,483.0
6367.72,518.0
6370.267,494.0
6372.8154,567.0
6375.3647,469.0
6377.915,495.0
6380.4663,482.0
6383.0186,478.0
6385.572,536.0
6388.126,562.0
6390.681,527.0
6393.2373,464.0
6395.7944,448.0
6398.3525,435.0
6400.912,534.0
6403.4727,562.0
6406.034,593.0
6408.5967,449.0
6411.16,502.0
6413.7246,472.0
6416.29,496.0
6418.8564,482.0
6421.424,532.0
6423.992,523.0
6426.562,540.0
6429.133,560.0
6431.7046,532.0
6434.2773,516.0
6436.851,518.0
6439.426,487.0
6442.0015,479.0
6444.578,571.0
6447.156,555.0
6449.735,567.0
6452.315,499.0
6454.896,500.0
6457.478,485.0
6460.061,466.0
6462.645,525.0
6465.23,507.0
6467.816,477.0
6470.403,482.0
6472.991,500.0
6475.5806,524.0
6478.171,479.0
6480.762,539.0
6483.3545,500.0
6485.9478,508.0
6488.542,533.0
6491.137,533.0
6493.734,527.0
6496.3315,541.0
6498.93,522.0
6501.53,569.0
6504.1304,530.0
6506.732,566.0
6509.3345,486.0
6511.938,584.0
6514.543,550.0
6517.149,590.0
6519.756,587.0
6522.364,544.0
6524.9727,620.0
6527.5825,565.0
6530.1934,585.0
6532.8057,592.0
6535.419,586.0
6538.033,625.0
6540.6484,685.0
6543.2646,630.0
6545.882,586.0
6548.5,608.0
6551.1196,594.0
6553.74,619.0
6556.362,716.0
6558.9844,770.0
6561.608,652.0
6564.2324,663.0
6566.858,621.0
6569.485,576.0
6572.113,598.0
6574.7417,665.0
6577.3716,681.0
6580.0024,642.0
6582.6343,608.0
6585.267,611.0
6587.9014,606.0
6590.5366,623.0
6593.173,642.0
6595.81,642.0
6598.448,645.0
6601.0874,604.0
6603.728,626.0
6606.3696,608.0
6609.012,625.0
6611.656,635.0
6614.3003,652.0
6616.946,611.0
6619.593,640.0
6622.2407,689.0
6624.8896,613.0
6627.5396,633.0
6630.1904,664.0
6632.8423,608.0
6635.4956,591.0
6638.15,758.0
6640.805,745.0
6643.4614,667.0
6646.1187,655.0
6648.7773,589.0
6651.437,543.0
6654.0977,663.0
6656.7593,795.0
6659.422,726.0
6662.0854,611.0
6664.7505,578.0
6667.4165,580.0
6670.0835,524.0
6672.7515,555.0
6675.4204,558.0
6678.091,554.0
6680.762,586.0
6683.4346,575.0
6686.108,530.0
6688.782,544.0
6691.4575,564.0
6694.1343,594.0
6696.812,683.0
6699.4907,561.0
6702.1704,570.0
6704.851,585.0
6707.533,609.0
6710.2163,611.0
6712.9004,639.0
6715.5854,618.0
6718.2715,651.0
6720.959,641.0
6723.6475,667.0
6726.337,735.0
6729.0273,649.0
6731.7188,609.0
6734.4116,576.0
6737.1055,632.0
6739.8003,744.0
6742.496,833.0
6745.193,742.0
6747.891,669.0
6750.5903,681.0
6753.2905,586.0
6755.9917,700.0
6758.6943,900.0
6761.398,854.0
6764.1025,840.0
6766.808,720.0
6769.5146,688.0
6772.2227,653.0
6774.9316,740.0
6777.6416,792.0
6780.3525,806.0
6783.0645,838.0
6785.778,840.0
6788.492,782.0
6791.2075,793.0
6793.924,778.0
6796.6416,742.0
6799.3604,720.0
6802.08,716.0
6804.801,747.0
6807.5225,928.0
6810.2456,953.0
6812.9697,789.0
6815.695,660.0
6818.421,629.0
6821.1484,694.0
6823.877,1012.0
6826.6064,1004.0
6829.337,844.0
6832.069,669.0
6834.802,609.0
6837.5356,625.0
6840.2705,790.0
6843.007,1017.0
6845.744,907.0
6848.4824,656.0
6851.2217,630.0
6853.9624,634.0
6856.704,767.0
6859.447,789.0
6862.1904,742.0
6864.9355,666.0
6867.6816,614.0
6870.4287,636.0
6873.177,613.0
6875.9263,595.0
6878.677,601.0
6881.428,605.0
6884.1807,593.0
6886.9346,633.0
6889.6895,583.0
6892.4453,566.0
6895.202,597.0
6897.9604,564.0
6900.7197,617.0
6903.48,663.0
6906.241,650.0
6909.004,603.0
6911.7676,723.0
6914.532,690.0
6917.298,653.0
6920.065,740.0
6922.833,630.0
6925.602,676.0
6928.372,714.0
6931.1436,682.0
6933.916,633.0
6936.6895,629.0
6939.4644,598.0
6942.24,653.0
6945.017,680.0
6947.795,746.0
6950.574,678.0
6953.3545,682.0
6956.1357,633.0
6958.918,685.0
6961.7017,663.0
6964.4863,700.0
6967.272,624.0
6970.059,636.0
6972.847,720.0
6975.636,681.0
6978.4263,704.0
6981.218,726.0
6984.0103,735.0
6986.8037,701.0
6989.5986,692.0
6992.3945,726.0
6995.1914,817.0
6997.9893,868.0
7000.7886,884.0
7003.589,851.0
7006.39,838.0
7009.193,786.0
7011.9966,729.0
7014.8013,833.0
7017.6074,1005.0
7020.4146,932.0
7023.2227,979.0
7026.0317,1034.0
7028.8423,976.0
7031.654,791.0
7034.4663,702.0
7037.2803,638.0
7040.095,1012.0
7042.911,1290.0
7045.7285,1156.0
7048.547,822.0
7051.366,710.0
7054.1865,713.0
7057.0083,1042.0
7059.831,1764.0
7062.655,1621.0
7065.48,1050.0
7068.306,833.0
7071.1333,709.0
7073.962,711.0
7076.7915,657.0
7079.622,762.0
7082.454,754.0
7085.287,713.0
7088.121,749.0
7090.9565,717.0
7093.793,772.0
7096.6304,802.0
7099.469,838.0
7102.309,768.0
7105.15,817.0
7107.992,801.0
7110.8354,888.0
7113.6797,916.0
7116.5254,914.0
7119.372,879.0
7122.2197,932.0
7125.069,1097.0
7127.919,971.0
7130.77,976.0
7133.6226,875.0
7136.476,911.0
7139.3306,1169.0
7142.1865,1167.0
7145.0435,1056.0
7147.9014,975.0
7150.7607,898.0
7153.621,1064.0
7156.4824,1473.0
7159.345,1632.0
7162.209,1228.0
7165.0737,1076.0
7167.94,1207.0
7170.807,1265.0
7173.6753,1265.0
7176.545,1154.0
7179.4155,1215.0
7182.287,1148.0
7185.16,1047.0
7188.034,1200.0
7190.909,1321.0
7193.7856,1087.0
7196.663,1403.0
7199.542,1581.0
7202.422,1190.0
7205.3027,898.0
7208.185,869.0
7211.0684,1010.0
7213.9526,1946.0
7216.8384,1915.0
7219.725,1172.0
7222.613,842.0
7225.502,762.0
7228.392,1111.0
7231.283,2768.0
7234.176,2827.0
7237.0693,1669.0
7239.9644,947.0
7242.8604,825.0
7245.7573,776.0
7248.656,782.0
7251.555,823.0
7254.4556,846.0
7257.3574,762.0
7260.2603,732.0
7263.1646,678.0
7266.07,712.0
7268.976,775.0
7271.884,710.0
7274.7925,654.0
7277.7026,691.0
7280.614,706.0
7283.526,737.0
7286.4395,758.0
7289.354,742.0
7292.2695,734.0
7295.1865,795.0
7298.1045,827.0
7301.024,689.0
7303.9443,641.0
7306.8657,654.0
7309.7886,769.0
7312.7124,996.0
7315.6377,899.0
7318.564,761.0
7321.491,608.0
7324.42,598.0
7327.3496,829.0
7330.281,1202.0
7333.213,1003.0
7336.146,771.0
7339.0806,665.0
7342.016,596.0
7344.953,699.0
7347.891,764.0
7350.83,746.0
7353.7705,706.0
7356.712,710.0
7359.655,656.0
7362.5986,623.0
7365.5435,571.0
7368.4897,585.0
7371.437,611.0
7374.3857,652.0
7377.3354,642.0
7380.2866,626.0
7383.239,636.0
7386.192,651.0
7389.1465,631.0
7392.102,571.0
7395.059,562.0
7398.017,650.0
7400.976,702.0
7403.9365,719.0
7406.898,561.0
7409.861,512.0
7412.8247,507.0
7415.79,611.0
7418.7563,710.0
7421.7236,636.0
7424.6924,567.0
7427.662,491.0
7430.6333,527.0
7433.6055,668.0
7436.579,711.0
7439.5537,629.0
7442.5293,591.0
7445.5063,510.0
7448.4844,468.0
7451.464,530.0
7454.4443,487.0
7457.4263,470.0
7460.409,466.0
7463.3936,463.0
7466.379,474.0
7469.365,514.0
7472.353,509.0
7475.342,407.0
7478.332,414.0
7481.323,482.0
7484.316,592.0
7487.3096,624.0
7490.3047,528.0
7493.301,457.0
7496.2983,448.0
7499.297,451.0
7502.2964,536.0
7505.2974,558.0
7508.2993,503.0
7511.3027,500.0
7514.307,464.0
7517.313,411.0
7520.32,450.0
7523.328,432.0
7526.3374,441.0
7529.348,511.0
7532.36,484.0
7535.373,416.0
7538.387,416.0
7541.4023,412.0
7544.419,538.0
7547.4365,568.0
7550.4556,480.0
7553.4756,411.0
7556.497,389.0
7559.5195,457.0
7562.5435,590.0
7565.5684,623.0
7568.5947,532.0
7571.622,465.0
7574.651,412.0
7577.6807,426.0
7580.712,405.0
7583.744,449.0
7586.778,409.0
7589.8125,427.0
7592.8486,389.0
7595.8857,455.0
7598.9243,490.0
7601.964,453.0
7605.005,423.0
7608.047,393.0
7611.0903,398.0
7614.135,453.0
7617.18,512.0
7620.227,495.0
7623.275,410.0
7626.324,412.0
7629.3745,407.0
7632.4263,445.0
7635.479,437.0
7638.533,440.0
7641.5884,427.0
7644.645,435.0
7647.7026,422.0
7650.7617,407.0
7653.8223,379.0
7656.884,417.0
7659.947,440.0
7663.0107,428.0
7666.076,431.0
7669.1426,393.0
7672.2104,423.0
7675.2793,455.0
7678.3496,443.0
7681.421,449.0
7684.4937,475.0
7687.5674,444.0
7690.6426,480.0
7693.7188,487.0
7696.7964,443.0
7699.875,500.0
7702.955,479.0
7706.036,499.0
7709.1187,496.0
7712.202,469.0
7715.287,507.0
7718.373,536.0
7721.4604,503.0
7724.549,551.0
7727.6387,590.0
7730.7295,572.0
7733.822,487.0
7736.9155,506.0
7740.0103,551.0
7743.1064,596.0
7746.2036,617.0
7749.3022,563.0
7752.402,580.0
7755.503,616.0
7758.605,594.0
7761.7085,578.0
7764.813,548.0
7767.919,600.0
7771.026,715.0
7774.1343,706.0
7777.244,603.0
7780.355,587.0
7783.4673,581.0
7786.5806,768.0
7789.6953,864.0
7792.811,803.0
7795.928,666.0
7799.0464,553.0
7802.166,591.0
7805.287,608.0
7808.409,663.0
7811.5327,815.0
7814.657,795.0
7817.783,692.0
7820.91,637.0
7824.0386,620.0
7827.168,913.0
7830.299,938.0
7833.431,774.0
7836.5645,617.0
7839.699,642.0
7842.835,725.0
7845.972,886.0
7849.1104,837.0
7852.25,751.0
7855.391,651.0
7858.533,725.0
7861.677,667.0
7864.8213,671.0
7867.9673,663.0
7871.1143,680.0
7874.2627,712.0
7877.4126,718.0
7880.5635,728.0
7883.716,828.0
7886.869,707.0
7890.024,674.0
7893.18,625.0
7896.3374,753.0
7899.496,957.0
7902.656,915.0
7905.817,775.0
7908.979,655.0
7912.1426,722.0
7915.3076,909.0
7918.4736,1185.0
7921.641,1044.0
7924.8096,873.0
7927.9795,746.0
7931.151,757.0
7934.323,742.0
7937.497,835.0
7940.672,910.0
7943.848,898.0
7947.026,842.0
7950.2046,874.0
7953.385,999.0
7956.566,977.0
7959.7485,915.0
7962.9326,1017.0
7966.1177,1037.0
7969.304,1093.0
7972.4917,1175.0
7975.6807,1076.0
7978.871,1056.0
7982.0625,1035.0
7985.2554,1260.0
7988.4497,1340.0
7991.645,1310.0
7994.842,1214.0
7998.0396,1280.0
8001.239,1347.0
8004.4395,1615.0
8007.641,1594.0
8010.844,1580.0
8014.0483,1464.0
8017.254,1542.0
8020.461,1561.0
8023.669,1594.0
8026.8784,1539.0
8030.0894,1619.0
8033.3013,1890.0
8036.5146,2065.0
8039.7295,2245.0
8042.9453,2105.0
8046.1626,1904.0
8049.381,1950.0
8052.6006,2287.0
8055.822,2581.0
8059.044,2779.0
8062.2676,2633.0
8065.4927,2765.0
8068.7188,2907.0
8071.9463,2970.0
8075.1753,3104.0
8078.4053,3288.0
8081.6367,3813.0
8084.869,4122.0
8088.103,3733.0
8091.3384,3300.0
8094.5747,3264.0
8097.8125,4239.0
8101.052,5888.0
8104.292,5562.0
8107.5337,4698.0
8110.777,4385.0
8114.021,4044.0
8117.2666,6191.0
8120.5137,7500.0
8123.7617,7376.0
8127.011,7080.0
8130.262,5805.0
8133.514,5475.0
8136.7676,6264.0
8140.0225,7536.0
8143.2783,10144.0
8146.5356,9343.0
8149.7944,7185.0
8153.054,8477.0
8156.3154,8006.0
8159.578,9152.0
8162.842,11163.0
8166.107,10543.0
8169.3735,15802.0
8172.641,15449.0
8175.91,9131.0
8179.1807,5050.0
8182.452,6290.0
8185.725,23953.0
8188.9995,30739.0
8192.275,14324.0
8195.553,6043.0
8198.831,5112.0
8202.11,23540.0
8205.392,57151.0
8208.674,34843.0
8211.957,11811.0
8215.242,4980.0
8218.528,3742.0
8221.815,3504.0
8225.1045,4674.0
8228.395,5612.0
8231.686,3963.0
8234.979,2372.0
8238.272,1815.0
8241.567,2004.0
8244.864,2129.0
8248.162,2154.0
8251.461,1976.0
8254.762,1630.0
8258.063,1510.0
8261.367,1464.0
8264.672,1537.0
8267.978,1605.0
8271.285,1640.0
8274.594,1450.0
8277.903,1343.0
8281.215,1197.0
8284.527,1298.0
8287.841,1550.0
8291.156,1574.0
8294.473,1353.0
8297.79,1305.0
8301.109,1352.0
8304.43,1539.0
8307.751,1522.0
8311.074,1566.0
8314.398,1655.0
8317.725,1587.0
8321.052,1521.0
8324.38,1370.0
8327.71,1500.0
8331.041,1977.0
8334.373,1807.0
8337.707,1473.0
8341.042,1294.0
8344.378,1484.0
8347.716,2169.0
8351.055,2283.0
8354.3955,1752.0
8357.737,1662.0
8361.08,1596.0
8364.425,1344.0
8367.7705,1313.0
8371.117,1267.0
8374.466,1796.0
8377.815,1846.0
8381.167,1337.0
8384.52,1046.0
8387.873,1094.0
8391.229,1625.0
8394.585,1874.0
8397.942,1522.0
8401.302,1154.0
8404.662,1027.0
8408.024,1164.0
8411.388,1053.0
8414.752,1072.0
8418.118,995.0
8421.485,944.0
8424.854,852.0
8428.224,889.0
8431.595,985.0
8434.968,1019.0
8438.342,932.0
8441.717,916.0
8445.094,931.0
8448.472,1016.0
8451.851,999.0
8455.231,1006.0
8458.613,989.0
8461.997,1117.0
8465.382,1142.0
8468.768,1280.0
8472.155,1243.0
8475.544,1403.0
8478.935,1204.0
8482.326,1209.0
8485.719,1332.0
8489.113,1587.0
8492.509,1728.0
8495.906,1525.0
8499.305,1475.0
8502.704,1580.0
8506.105,1862.0
8509.508,2114.0
8512.911,1844.0
8516.316,1986.0
8519.723,2292.0
8523.131,2022.0
8526.54,2277.0
8529.95,2246.0
8533.362,2997.0
8536.775,3777.0
8540.19,2550.0
8543.606,1613.0
8547.023,1521.0
8550.442,3964.0
8553.862,5532.0
8557.284,3317.0
8560.707,1929.0
8564.131,1736.0
8567.557,4873.0
8570.983,8756.0
8574.412,5613.0
8577.842,2800.0
8581.272,1819.0
8584.705,1381.0
8588.139,1213.0
8591.574,1670.0
8595.011,2130.0
8598.449,1969.0
8601.889,1238.0
8605.329,922.0
8608.771,867.0
8612.215,907.0
8615.66,930.0
8619.106,890.0
8622.554,903.0
8626.003,776.0
8629.453,720.0
8632.905,827.0
8636.358,819.0
8639.8125,930.0
8643.269,843.0
8646.726,763.0
8650.185,769.0
8653.645,848.0
8657.106,782.0
8660.569,802.0
8664.033,826.0
8667.499,840.0
8670.966,904.0
8674.435,835.0
8677.904,1013.0
8681.375,920.0
8684.848,907.0
8688.321,910.0
8691.797,936.0
8695.273,1045.0
8698.752,1164.0
8702.231,1028.0
8705.712,968.0
8709.194,1063.0
8712.678,1227.0
8716.163,1253.0
8719.649,1197.0
8723.138,1244.0
8726.627,1216.0
8730.117,1255.0
8733.609,1296.0
8737.103,1350.0
8740.598,1379.0
8744.094,1330.0
8747.592,1248.0
8751.091,1364.0
8754.591,1581.0
8758.093,1628.0
8761.596,1498.0
8765.101,1462.0
8768.606,1651.0
8772.114,1965.0
8775.623,1901.0
8779.133,1869.0
8782.645,1996.0
8786.157,1794.0
8789.672,1902.0
8793.1875,1973.0
8796.705,2612.0
8800.224,2776.0
8803.744,2086.0
8807.266,1714.0
8810.788,1965.0
8814.3125,3520.0
8817.838,3869.0
8821.365,2365.0
8824.894,2013.0
8828.424,2089.0
8831.955,4235.0
8835.488,4422.0
8839.022,3196.0
8842.558,2559.0
8846.095,2027.0
8849.633,1884.0
8853.173,1900.0
8856.714,2832.0
8860.257,3274.0
8863.801,2323.0
8867.347,1923.0
8870.894,1957.0
8874.442,3097.0
8877.992,4076.0
8881.543,3188.0
8885.096,2424.0
8888.649,2022.0
8892.205,1970.0
8895.762,2023.0
8899.32,2563.0
8902.88,2663.0
8906.441,2066.0
8910.004,1807.0
8913.568,2042.0
8917.134,2876.0
8920.7,2958.0
8924.269,2094.0
8927.838,1926.0
8931.409,2216.0
8934.981,3315.0
8938.556,2950.0
8942.131,2368.0
8945.708,2173.0
8949.286,1895.0
8952.866,1710.0
8956.447,1831.0
8960.03,2233.0
8963.614,2214.0
8967.199,1767.0
8970.786,1590.0
8974.374,1802.0
8977.964,2018.0
8981.555,1974.0
8985.147,1693.0
8988.741,1566.0
8992.337,1812.0
8995.934,1920.0
8999.532,1723.0
9003.132,1555.0
9006.733,1699.0
9010.336,1821.0
9013.94,1626.0
9017.546,1615.0
9021.153,1549.0
9024.762,1819.0
9028.372,1887.0
9031.983,1480.0
9035.597,1333.0
9039.211,1464.0
9042.826,1996.0
9046.443,1752.0
9050.062,1347.0
9053.682,1195.0
9057.303,1694.0
9060.926,2458.0
9064.55,2007.0
9068.176,1341.0
9071.803,1111.0
9075.432,1465.0
9079.062,1725.0
9082.693,1370.0
9086.326,1144.0
9089.961,1106.0
9093.597,1149.0
9097.234,1328.0
9100.873,1213.0
9104.514,1218.0
9108.155,1061.0
9111.799,891.0
9115.443,920.0
9119.09,1081.0
9122.737,1218.0
9126.387,1047.0
9130.037,921.0
9133.689,878.0
9137.343,1188.0
9140.998,1220.0
9144.654,1094.0
9148.3125,1013.0
9151.972,883.0
9155.633,913.0
9159.295,913.0
9162.959,1107.0
9166.624,1176.0
9170.291,1017.0
9173.959,803.0
9177.629,910.0
9181.3,1381.0
9184.973,1356.0
9188.646,1079.0
9192.322,861.0
9195.999,1118.0
9199.678,1417.0
9203.357,1106.0
9207.039,1032.0
9210.722,886.0
9214.406,682.0
9218.092,645.0
9221.779,890.0
9225.468,1120.0
9229.158,909.0
9232.85,748.0
9236.543,584.0
9240.237,923.0
9243.934,1116.0
9247.631,881.0
9251.33,672.0
9255.03,569.0
9258.732,470.0
9262.436,523.0
9266.141,615.0
9269.847,612.0
9273.555,459.0
9277.264,460.0
9280.975,477.0
9284.687,530.0
9288.4,493.0
9292.116,488.0
9295.833,460.0
9299.552,416.0
9303.271,433.0
9306.993,425.0
9310.716,426.0
9314.44,394.0
9318.166,388.0
9321.894,404.0
9325.622,425.0
9329.353,399.0
9333.084,396.0
9336.817,388.0
9340.552,361.0
9344.288,376.0
9348.025,334.0
9351.765,387.0
9355.505,339.0
9359.247,375.0
9362.991,389.0
9366.736,366.0
9370.483,367.0
9374.231,397.0
9377.981,368.0
9381.732,352.0
9385.485,387.0
9389.239,378.0
9392.995,346.0
9396.752,342.0
9400.511,367.0
9404.2705,358.0
9408.032,334.0
9411.796,350.0
9415.561,304.0
9419.327,316.0
9423.095,324.0
9426.864,357.0
9430.635,355.0
9434.407,305.0
9438.181,273.0
9441.956,361.0
9445.732,393.0
9449.511,338.0
9453.291,324.0
9457.072,309.0
9460.855,391.0
9464.64,387.0
9468.426,336.0
9472.213,333.0
9476.002,282.0
9479.792,261.0
9483.584,317.0
9487.377,369.0
9491.172,338.0
9494.969,286.0
9498.767,291.0
9502.566,342.0
9506.367,395.0
9510.17,301.0
9513.974,285.0
9517.779,272.0
9521.586,285.0
9525.395,286.0
9529.205,317.0
9533.017,313.0
9536.83,269.0
9540.645,232.0
9544.461,290.0
9548.278,337.0
9552.098,346.0
9555.919,286.0
9559.741,253.0
9563.565,254.0
9567.391,256.0
9571.218,260.0
9575.046,239.0
9578.876,248.0
9582.708,214.0
9586.541,245.0
9590.376,234.0
9594.212,219.0
9598.05,224.0
9601.889,208.0
9605.7295,251.0
9609.572,226.0
9613.416,207.0
9617.262,184.0
9621.108,222.0
9624.957,198.0
9628.807,222.0
9632.658,195.0
9636.512,199.0
9640.366,196.0
9644.223,191.0
9648.08,212.0
9651.939,214.0
9655.8,240.0
9659.662,191.0
9663.526,208.0
9667.392,190.0
9671.259,166.0
9675.127,197.0
9678.997,213.0
9682.869,205.0
9686.742,193.0
9690.617,185.0
9694.493,197.0
9698.371,197.0
9702.25,171.0
9706.131,198.0
9710.014,207.0
9713.897,192.0
9717.783,178.0
9721.67,214.0
9725.559,185.0
9729.449,193.0
9733.341,177.0
9737.234,176.0
9741.129,189.0
9745.025,193.0
9748.924,196.0
9752.823,156.0
9756.725,175.0
9760.627,192.0
9764.531,204.0
9768.4375,189.0
9772.345,170.0
9776.254,169.0
9780.164,197.0
9784.076,183.0
9787.99,191.0
9791.905,186.0
9795.822,176.0
9799.74,206.0
9803.66,174.0
9807.582,213.0
9811.505,193.0
9815.43,177.0
9819.355,182.0
9823.283,177.0
9827.213,232.0
9831.144,199.0
9835.076,210.0
9839.01,188.0
9842.945,195.0
9846.883,235.0
9850.821,241.0
9854.762,217.0
9858.704,188.0
9862.647,192.0
9866.593,185.0
9870.539,221.0
9874.487,190.0
9878.4375,208.0
9882.389,196.0
9886.342,202.0
9890.296,189.0
9894.252,201.0
9898.21,206.0
9902.169,175.0
9906.13,189.0
9910.093,207.0
9914.057,203.0
9918.022,192.0
9921.989,183.0
9925.958,169.0
9929.929,191.0
9933.9,200.0
9937.874,181.0
9941.85,203.0
9945.826,206.0
9949.805,185.0
9953.784,198.0
9957.766,191.0
9961.749,174.0
9965.733,200.0
9969.72,161.0
9973.708,176.0
9977.697,174.0
9981.688,165.0
9985.681,194.0
9989.675,178.0
9993.671,197.0
9997.668,195.0
10001.667,170.0
10005.668,185.0
10009.67,176.0
10013.674,172.0
10017.68,209.0
10021.687,196.0
10025.695,171.0
10029.706,168.0
10033.718,171.0
10037.731,196.0
10041.746,182.0
10045.763,173.0
10049.781,193.0
10053.801,198.0
10057.822,193.0
10061.846,182.0
10065.87,174.0
10069.896,187.0
10073.925,188.0
10077.954,184.0
10081.985,171.0
10086.019,224.0
10090.053,201.0
10094.089,209.0
10098.127,198.0
10102.166,187.0
10106.207,181.0
10110.25,187.0
10114.294,211.0
10118.34,190.0
10122.387,181.0
10126.436,189.0
10130.486,193.0
10134.538,205.0
10138.592,183.0
10142.647,199.0
10146.704,193.0
10150.763,200.0
10154.823,188.0
10158.885,186.0
10162.948,210.0
10167.014,210.0
10171.08,189.0
10175.148,191.0
10179.219,186.0
10183.29,200.0
10187.363,223.0
10191.438,207.0
10195.515,226.0
10199.593,208.0
10203.673,227.0
10207.754,209.0
10211.837,186.0
10215.922,216.0
10220.008,209.0
10224.096,219.0
10228.186,170.0
10232.276,175.0
10236.369,203.0
10240.464,183.0
10244.56,230.0
10248.657,202.0
10252.757,209.0
10256.858,180.0
10260.961,209.0
10265.065,204.0
10269.172,215.0
10273.279,225.0
10277.389,234.0
10281.5,205.0
10285.612,192.0
10289.727,233.0
10293.843,210.0
10297.96,199.0
10302.079,203.0
10306.2,185.0
10310.322,199.0
10314.446,185.0
10318.572,223.0
10322.699,211.0
10326.828,218.0
10330.959,175.0
10335.092,186.0
10339.226,209.0
10343.361,210.0
10347.499,217.0
10351.638,249.0
10355.778,222.0
10359.921,221.0
10364.064,194.0
10368.21,237.0
10372.357,214.0
10376.507,224.0
10380.657,223.0
10384.81,192.0
10388.964,217.0
10393.119,218.0
10397.276,200.0
10401.436,210.0
10405.596,179.0
10409.758,174.0
10413.922,194.0
10418.088,198.0
10422.255,195.0
10426.424,205.0
10430.595,212.0
10434.767,208.0
10438.94,227.0
10443.116,220.0
10447.294,209.0
10451.473,239.0
10455.653,189.0
10459.836,219.0
10464.02,205.0
10468.205,215.0
10472.393,202.0
10476.581,204.0
10480.771,188.0
10484.964,204.0
10489.158,226.0
10493.354,217.0
10497.551,202.0
10501.75,178.0
10505.951,265.0
10510.153,217.0
10514.357,216.0
10518.563,207.0
10522.7705,193.0
10526.9795,208.0
10531.19,188.0
10535.403,204.0
10539.617,194.0
10543.833,195.0
10548.051,210.0
10552.27,215.0
10556.49,211.0
10560.713,209.0
10564.9375,222.0
10569.163,201.0
10573.391,227.0
10577.62,193.0
10581.852,185.0
10586.084,206.0
10590.318,200.0
10594.555,190.0
10598.793,189.0
10603.032,215.0
10607.273,218.0
10611.517,229.0
10615.761,214.0
10620.007,184.0
10624.255,212.0
10628.505,208.0
10632.756,218.0
10637.009,206.0
10641.264,216.0
10645.5205,220.0
10649.778,218.0
10654.038,213.0
10658.3,224.0
10662.563,225.0
10666.828,215.0
10671.095,218.0
10675.363,201.0
10679.634,213.0
10683.905,206.0
10688.179,226.0
10692.454,205.0
10696.731,216.0
10701.01,195.0
10705.29,207.0
10709.572,208.0
10713.856,204.0
10718.142,219.0
10722.429,223.0
10726.718,223.0
10731.009,195.0
10735.301,215.0
10739.595,234.0
10743.891,208.0
10748.188,232.0
10752.487,237.0
10756.788,251.0
10761.091,229.0
10765.3955,236.0
10769.702,229.0
10774.01,223.0
10778.319,209.0
10782.631,223.0
10786.944,221.0
10791.259,208.0
10795.575,227.0
10799.894,223.0
10804.214,215.0
10808.535,202.0
10812.858,223.0
10817.184,212.0
10821.511,218.0
10825.839,239.0
10830.169,221.0
10834.501,212.0
10838.835,236.0
10843.171,232.0
10847.508,238.0
10851.847,198.0
10856.1875,239.0
10860.53,233.0
10864.874,222.0
10869.22,246.0
10873.567,215.0
10877.917,216.0
10882.269,220.0
10886.621,234.0
10890.976,225.0
10895.332,225.0
10899.69,243.0
10904.051,224.0
10908.412,249.0
10912.775,244.0
10917.141,214.0
10921.508,200.0
10925.876,242.0
10930.246,228.0
10934.618,266.0
10938.992,249.0
10943.368,234.0
10947.745,248.0
10952.124,251.0
10956.505,238.0
10960.888,222.0
10965.272,236.0
10969.658,209.0
10974.046,225.0
10978.436,246.0
10982.827,250.0
10987.221,241.0
10991.615,271.0
10996.012,271.0
11000.41,257.0
11004.811,245.0
11009.213,247.0
11013.616,261.0
11018.021,289.0
11022.429,265.0
11026.838,283.0
11031.249,258.0
11035.661,267.0
11040.075,271.0
11044.491,291.0
11048.909,267.0
11053.329,272.0
11057.75,288.0
11062.173,271.0
11066.598,327.0
11071.024,278.0
11075.453,261.0
11079.884,270.0
11084.315,266.0
11088.749,279.0
11093.185,233.0
11097.622,291.0
11102.062,291.0
11106.502,287.0
11110.944,273.0
11115.389,267.0
11119.835,285.0
11124.283,289.0
11128.733,314.0
11133.185,300.0
11137.638,283.0
11142.093,314.0
11146.55,294.0
11151.009,290.0
11155.469,309.0
11159.931,282.0
11164.395,307.0
11168.86,304.0
11173.328,299.0
11177.798,291.0
11182.269,314.0
11186.741,296.0
11191.216,331.0
11195.692,309.0
11200.171,303.0
11204.651,333.0
11209.133,367.0
11213.616,358.0
11218.102,328.0
11222.589,332.0
11227.078,357.0
11231.569,350.0
11236.062,313.0
11240.556,332.0
11245.052,366.0
11249.55,371.0
11254.05,364.0
11258.552,347.0
11263.056,411.0
11267.561,414.0
11272.067,369.0
11276.576,381.0
11281.087,405.0
11285.6,430.0
11290.114,402.0
11294.63,400.0
11299.147,403.0
11303.667,426.0
11308.188,399.0
11312.712,407.0
11317.237,435.0
11321.765,452.0
11326.293,417.0
11330.823,463.0
11335.355,488.0
11339.89,467.0
11344.426,509.0
11348.964,531.0
11353.504,507.0
11358.045,513.0
11362.588,538.0
11367.133,564.0
11371.68,552.0
11376.229,595.0
11380.779,586.0
11385.332,606.0
11389.886,590.0
11394.441,635.0
11398.999,661.0
11403.559,714.0
11408.12,700.0
11412.684,736.0
11417.249,738.0
11421.816,756.0
11426.385,751.0
11430.955,761.0
11435.527,756.0
11440.102,793.0
11444.678,834.0
11449.256,848.0
11453.836,890.0
11458.417,912.0
11463.0,942.0
11467.585,921.0
11472.172,938.0
11476.761,989.0
11481.352,1034.0
11485.944,986.0
11490.539,1022.0
11495.136,1057.0
11499.733,1073.0
11504.333,1108.0
11508.935,1118.0
11513.538,1254.0
11518.144,1158.0
11522.751,1163.0
11527.36,1241.0
11531.972,1245.0
11536.584,1224.0
11541.198,1252.0
11545.814,1400.0
11550.433,1353.0
11555.053,1299.0
11559.675,1350.0
11564.299,1445.0
11568.925,1279.0
11573.553,1307.0
11578.183,1476.0
11582.813,1469.0
11587.446,1261.0
11592.081,1421.0
11596.718,1523.0
11601.356,1274.0
11605.997,1356.0
11610.64,1628.0
11615.284,1509.0
11619.931,1363.0
11624.579,1518.0
11629.229,1542.0
11633.88,1393.0
11638.533,1376.0
11643.188,1757.0
11647.846,1468.0
11652.505,1123.0
11657.166,1530.0
11661.829,1735.0
11666.494,1227.0
11671.161,1182.0
11675.83,1923.0
11680.5,1887.0
11685.172,1201.0
11689.846,1083.0
11694.521,1255.0
11699.199,1062.0
11703.879,889.0
11708.561,888.0
11713.244,823.0
11717.93,725.0
11722.617,734.0
11727.307,710.0
11731.998,657.0
11736.69,615.0
11741.385,628.0
11746.081,557.0
11750.779,553.0
11755.4795,531.0
11760.182,499.0
11764.886,509.0
11769.592,513.0
11774.3,533.0
11779.01,524.0
11783.722,535.0
11788.436,559.0
11793.151,481.0
11797.868,459.0
11802.587,525.0
11807.308,444.0
11812.03,434.0
11816.755,450.0
11821.481,507.0
11826.21,472.0
11830.94,457.0
11835.673,420.0
11840.407,387.0
11845.144,445.0
11849.882,439.0
11854.622,383.0
11859.364,335.0
11864.108,375.0
11868.8545,392.0
11873.602,342.0
11878.351,317.0
11883.102,322.0
11887.8545,337.0
11892.609,321.0
11897.366,317.0
11902.125,313.0
11906.886,267.0
11911.648,267.0
11916.413,323.0
11921.18,288.0
11925.948,294.0
11930.719,233.0
11935.491,262.0
11940.266,253.0
11945.042,255.0
11949.82,275.0
11954.601,279.0
11959.383,253.0
11964.167,261.0
11968.953,241.0
11973.74,252.0
11978.529,256.0
11983.32,235.0
11988.113,247.0
11992.908,247.0
