M/Z,Intensity
800.0,133.0
800.32,199.0
800.64014,57.0
800.9604,288.0
801.28076,623.0
801.60126,152.0
801.9219,158.0
802.2426,309.0
802.56354,173.0
802.8846,389.0
803.20575,302.0
803.52704,109.0
803.84845,175.0
804.17,239.0
804.49164,88.0
804.8134,92.0
805.1353,210.0
805.4574,123.0
805.7796,72.0
806.1019,164.0
806.4244,155.0
806.74695,67.0
807.06964,161.0
807.39246,148.0
807.7154,49.0
808.03845,132.0
808.3617,178.0
808.68506,72.0
809.00854,140.0
809.33215,201.0
809.6559,69.0
809.97974,106.0
810.3037,180.0
810.6278,64.0
810.9521,117.0
811.2765,166.0
811.601,93.0
811.92566,94.0
812.2504,180.0
812.5753,89.0
812.9003,113.0
813.22546,198.0
813.5508,77.0
813.8762,103.0
814.2018,174.0
814.52747,85.0
814.8533,110.0
815.1792,207.0
815.50525,132.0
815.8314,55.0
816.1578,161.0
816.48425,125.0
816.81085,209.0
817.1376,369.0
817.4644,176.0
817.7914,128.0
818.11847,247.0
818.44574,138.0
818.77313,109.0
819.10065,186.0
819.4283,141.0
819.75604,91.0
820.0839,151.0
820.412,139.0
820.7402,103.0
821.0685,185.0
821.3969,150.0
821.72546,80.0
822.05414,134.0
822.38293,163.0
822.7119,79.0
823.041,278.0
823.37024,170.0
823.6996,101.0
824.02905,253.0
824.35864,142.0
824.6884,346.0
825.0183,4304.0
825.3483,268.0
825.67847,190.0
826.0087,1922.0
826.3391,204.0
826.6696,117.0
827.0003,599.0
827.3311,186.0
827.66205,84.0
827.9931,218.0
828.3243,179.0
828.65564,93.0
828.9871,142.0
829.3187,206.0
829.65045,83.0
829.9823,132.0
830.3143,176.0
830.6464,90.0
830.9787,125.0
831.3111,192.0
831.6436,78.0
831.97626,139.0
832.309,163.0
832.64197,94.0
832.97504,185.0
833.3082,249.0
833.64154,99.0
833.975,110.0
834.3086,204.0
834.64233,78.0
834.9762,135.0
835.3102,184.0
835.6443,76.0
835.9785,153.0
836.3129,208.0
836.64746,81.0
836.9821,211.0
837.3169,187.0
837.6518,87.0
837.9869,177.0
838.3221,163.0
838.6574,127.0
838.99286,703.0
839.3284,187.0
839.6642,102.0
840.00006,388.0
840.33606,200.0
840.6722,148.0
841.0084,908.0
841.34485,205.0
841.6814,122.0
842.01807,463.0
842.35486,196.0
842.6918,97.0
843.0289,329.0
843.3661,172.0
843.7034,107.0
844.0409,210.0
844.37854,178.0
844.7163,186.0
845.0542,682.0
845.3922,579.0
845.73035,151.0
846.06866,425.0
846.4071,349.0
846.74567,152.0
847.08435,305.0
847.42316,195.0
847.76215,98.0
848.10126,223.0
848.4405,153.0
848.77985,102.0
849.1194,168.0
849.45905,142.0
849.7988,106.0
850.13873,157.0
850.47876,164.0
850.819,87.0
851.1593,166.0
851.49976,115.0
851.84033,96.0
852.1811,159.0
852.522,138.0
852.863,104.0
853.2041,193.0
853.5454,100.0
853.88684,114.0
854.2284,181.0
854.57007,115.0
854.9119,446.0
855.2539,198.0
855.596,104.0
855.93823,235.0
856.2806,200.0
856.6231,102.0
856.96576,257.0
857.30853,194.0
857.6514,110.0
857.9945,198.0
858.3377,178.0
858.681,95.0
859.0245,225.0
859.3681,192.0
859.71185,98.0
860.0557,187.0
860.3997,134.0
860.7439,690.0
861.0882,1346.0
861.4326,225.0
861.77716,544.0
862.1219,500.0
862.46674,190.0
862.8117,305.0
863.15686,279.0
863.50214,143.0
863.84753,156.0
864.19305,181.0
864.53876,96.0
864.8846,178.0
865.2305,216.0
865.5766,115.0
865.92285,137.0
866.2692,183.0
866.6157,111.0
866.96234,325.0
867.30914,166.0
867.65607,88.0
868.0031,201.0
868.35034,165.0
868.6977,84.0
869.04517,164.0
869.39276,124.0
869.74054,79.0
870.08844,141.0
870.43646,136.0
870.7846,102.0
871.13293,127.0
871.4814,140.0
871.82996,77.0
872.1787,158.0
872.5276,97.0
872.8766,109.0
873.2257,193.0
873.575,102.0
873.92444,111.0
874.274,166.0
874.6237,103.0
874.9736,97.0
875.32355,175.0
875.6737,67.0
876.024,115.0
876.3744,174.0
876.7249,216.0
877.0756,359.0
877.42645,249.0
877.7774,181.0
878.12854,211.0
878.4798,183.0
878.8312,170.0
879.18274,192.0
879.5344,102.0
879.8862,121.0
880.23816,172.0
880.5903,85.0
880.9425,141.0
881.29486,152.0
881.6474,64.0
882.00006,103.0
882.35284,139.0
882.7058,93.0
883.0589,187.0
883.4121,122.0
883.7655,89.0
884.119,166.0
884.47266,123.0
884.8264,100.0
885.18036,134.0
885.5344,120.0
885.8886,90.0
886.243,126.0
886.5975,65.0
886.9521,112.0
887.3069,162.0
887.6618,68.0
888.01685,96.0
888.3721,137.0
888.7274,69.0
889.0829,145.0
889.43854,375.0
889.7943,98.0
890.1502,154.0
890.5063,276.0
890.8625,95.0
891.2188,173.0
891.5753,128.0
891.93195,90.0
892.2887,164.0
892.6456,82.0
893.0027,118.0
893.35986,157.0
893.7172,81.0
894.0747,119.0
894.4323,136.0
894.7901,79.0
895.148,144.0
895.50604,107.0
895.86426,88.0
896.2226,126.0
896.58105,72.0
896.9397,101.0
897.29846,125.0
897.6574,62.0
898.0165,111.0
898.3757,167.0
898.73505,84.0
899.09454,140.0
899.45416,131.0
899.81396,79.0
900.1739,163.0
900.53394,102.0
900.89417,77.0
901.2545,148.0
901.615,74.0
901.97565,92.0
902.3364,127.0
902.6974,47.0
903.0585,96.0
903.4197,125.0
903.78107,70.0
904.1426,147.0
904.5042,142.0
904.866,85.0
905.22797,191.0
905.5901,98.0
905.95233,99.0
906.3147,172.0
906.67725,65.0
907.0399,115.0
907.4027,135.0
907.7657,55.0
908.1288,115.0
908.49207,105.0
908.85547,83.0
909.219,121.0
909.5827,80.0
909.94653,77.0
910.3105,153.0
910.6746,63.0
911.0389,92.0
911.4033,114.0
911.7679,63.0
912.13257,121.0
912.49744,89.0
912.8624,72.0
913.2276,115.0
913.5929,81.0
913.9583,64.0
914.3239,143.0
914.68964,62.0
915.05554,116.0
915.4216,129.0
915.7877,74.0
916.15405,126.0
916.5205,95.0
916.88715,61.0
917.2539,152.0
917.6208,74.0
917.98785,99.0
918.35504,172.0
918.7224,57.0
919.0899,114.0
919.4575,118.0
919.8253,76.0
920.19324,239.0
920.56134,97.0
920.92957,97.0
921.2979,257.0
921.66644,80.0
922.0351,122.0
922.40393,173.0
922.7729,58.0
923.14197,128.0
923.5112,116.0
923.8806,73.0
924.2502,109.0
924.6199,65.0
924.98975,90.0
925.35974,125.0
925.72986,46.0
926.10016,138.0
926.4706,104.0
926.8412,62.0
927.2119,126.0
927.5828,68.0
927.95386,86.0
928.325,124.0
928.69635,44.0
929.0678,93.0
929.43945,117.0
929.8112,64.0
930.18317,150.0
930.55524,83.0
930.9274,73.0
931.2998,102.0
931.6723,59.0
932.045,78.0
932.4178,117.0
932.7908,71.0
933.1639,134.0
933.5372,275.0
933.9106,93.0
934.2841,205.0
934.65784,77.0
935.0317,81.0
935.4057,137.0
935.77985,55.0
936.1542,118.0
936.5286,88.0
936.90326,81.0
937.278,153.0
937.65295,64.0
938.028,105.0
938.4032,124.0
938.77856,50.0
939.15405,93.0
939.5297,85.0
939.9055,75.0
940.2815,138.0
940.6576,65.0
941.0339,90.0
941.4103,105.0
941.78687,55.0
942.1636,120.0
942.54047,78.0
942.9175,84.0
943.2947,121.0
943.672,54.0
944.04944,121.0
944.42706,102.0
944.8048,45.0
945.18274,139.0
945.5608,84.0
945.939,93.0
946.3174,135.0
946.6959,52.0
947.0746,107.0
947.4534,129.0
947.8324,68.0
948.21155,169.0
948.5908,66.0
948.9703,88.0
949.34985,154.0
949.7296,56.0
950.1095,118.0
950.48956,107.0
950.86975,64.0
951.2501,111.0
951.6306,65.0
952.0113,68.0
952.3921,122.0
952.7731,72.0
953.1542,109.0
953.53546,76.0
953.9169,68.0
954.29846,113.0
954.6802,52.0
955.0621,91.0
955.4441,124.0
955.8263,54.0
956.2086,135.0
956.5911,74.0
956.97375,76.0
957.35657,105.0
957.7395,57.0
958.1226,101.0
958.50586,100.0
958.8893,94.0
959.2728,105.0
959.65656,46.0
960.0404,93.0
960.42444,108.0
960.8086,71.0
961.19293,136.0
961.5774,96.0
961.96204,73.0
962.3468,122.0
962.73175,58.0
963.1168,95.0
963.5021,90.0
963.88745,105.0
964.273,118.0
964.6587,63.0
965.04456,102.0
965.4306,194.0
965.8168,61.0
966.2031,109.0
966.5896,94.0
966.97626,87.0
967.36304,104.0
967.75,66.0
968.1371,115.0
968.52435,103.0
968.91174,96.0
969.2993,126.0
969.687,71.0
970.0749,202.0
970.4629,125.0
970.8511,100.0
971.23944,127.0
971.6279,90.0
972.0166,100.0
972.4054,118.0
972.7944,54.0
973.1835,120.0
973.57275,85.0
973.96216,69.0
974.35175,144.0
974.7415,54.0
975.1314,86.0
975.5215,81.0
975.9117,76.0
976.30206,98.0
976.69257,59.0
977.08325,95.0
977.47406,249.0
977.86505,88.0
978.2562,150.0
978.6475,110.0
979.039,81.0
979.4306,143.0
979.8224,76.0
980.2143,130.0
980.6064,76.0
980.99866,84.0
981.39105,104.0
981.7836,64.0
982.17633,133.0
982.5692,82.0
982.9622,89.0
983.3554,134.0
983.7488,65.0
984.1423,142.0
984.53595,75.0
984.92975,99.0
985.3237,124.0
985.71783,70.0
986.1121,159.0
986.5066,89.0
986.9012,101.0
987.29596,127.0
987.69086,59.0
988.08594,109.0
988.4812,106.0
988.8766,83.0
989.27216,107.0
989.66785,59.0
990.0637,95.0
990.4597,84.0
990.8559,66.0
991.25226,135.0
991.64874,84.0
992.0454,181.0
992.4422,111.0
992.8392,93.0
993.2363,129.0
993.6336,85.0
994.03107,135.0
994.42865,107.0
994.8264,65.0
995.22437,130.0
995.62244,75.0
996.0207,97.0
996.4191,97.0
996.8177,60.0
997.21643,118.0
997.6153,61.0
998.01434,87.0
998.4136,102.0
998.8129,61.0
999.21246,92.0
999.6121,87.0
1000.01196,83.0
1000.412,126.0
1000.81213,57.0
1001.21246,99.0
1001.613,69.0
1002.0136,98.0
1002.4144,87.0
1002.81537,65.0
1003.2165,119.0
1003.6178,65.0
1004.0192,88.0
1004.42084,105.0
1004.82263,78.0
1005.22455,123.0
1005.62665,69.0
1006.0289,163.0
1006.4313,124.0
1006.83386,109.0
1007.2366,128.0
1007.63947,92.0
1008.04254,171.0
1008.44574,105.0
1008.8491,100.0
1009.2527,164.0
1009.6564,110.0
1010.06024,112.0
1010.4643,117.0
1010.86847,86.0
1011.2728,121.0
1011.6773,73.0
1012.082,124.0
1012.4868,96.0
1012.8918,87.0
1013.29694,113.0
1013.7023,121.0
1014.1077,330.0
1014.51337,86.0
1014.9192,206.0
1015.32513,111.0
1015.73126,89.0
1016.1376,165.0
1016.544,89.0
1016.9506,104.0
1017.3574,111.0
1017.76434,52.0
1018.17145,107.0
1018.57874,102.0
1018.98615,75.0
1019.39374,107.0
1019.8015,60.0
1020.2094,125.0
1020.6175,70.0
1021.02576,82.0
1021.43414,219.0
1021.8427,84.0
1022.25146,145.0
1022.66034,98.0
1023.0694,100.0
1023.47864,137.0
1023.888,86.0
1024.2976,113.0
1024.7073,76.0
1025.1172,111.0
1025.5272,100.0
1025.9374,83.0
1026.3478,126.0
1026.7583,66.0
1027.169,100.0
1027.5798,88.0
1027.9908,176.0
1028.4021,114.0
1028.8135,110.0
1029.225,130.0
1029.6367,105.0
1030.0486,287.0
1030.4606,96.0
1030.8728,184.0
1031.2852,109.0
1031.6976,91.0
1032.1104,137.0
1032.5232,93.0
1032.9362,96.0
1033.3494,113.0
1033.7627,115.0
1034.1761,173.0
1034.5898,62.0
1035.0037,138.0
1035.4177,141.0
1035.8319,156.0
1036.2462,138.0
1036.6608,79.0
1037.0754,123.0
1037.4902,95.0
1037.9053,119.0
1038.3204,129.0
1038.7357,59.0
1039.1512,104.0
1039.5669,98.0
1039.9827,66.0
1040.3987,122.0
1040.8148,73.0
1041.2312,107.0
1041.6477,77.0
1042.0643,88.0
1042.4812,108.0
1042.8982,65.0
1043.3153,120.0
1043.7327,95.0
1044.1501,118.0
1044.5677,89.0
1044.9856,108.0
1045.4036,108.0
1045.8218,89.0
1046.2401,127.0
1046.6586,78.0
1047.0773,91.0
1047.4961,98.0
1047.915,96.0
1048.3342,105.0
1048.7535,60.0
1049.1731,104.0
1049.5928,113.0
1050.0126,386.0
1050.4326,126.0
1050.8528,238.0
1051.2731,151.0
1051.6936,131.0
1052.1143,202.0
1052.5352,98.0
1052.9562,108.0
1053.3773,189.0
1053.7987,99.0
1054.2202,132.0
1054.6418,85.0
1055.0637,93.0
1055.4857,118.0
1055.908,114.0
1056.3303,127.0
1056.7528,70.0
1057.1755,136.0
1057.5984,104.0
1058.0215,103.0
1058.4447,112.0
1058.868,81.0
1059.2916,94.0
1059.7153,86.0
1060.1392,144.0
1060.5632,194.0
1060.9874,110.0
1061.4119,184.0
1061.8364,75.0
1062.2611,148.0
1062.686,102.0
1063.1111,91.0
1063.5364,106.0
1063.9618,82.0
1064.3873,106.0
1064.8131,80.0
1065.239,118.0
1065.6652,199.0
1066.0914,291.0
1066.5178,125.0
1066.9445,203.0
1067.3712,141.0
1067.7982,139.0
1068.2253,118.0
1068.6526,79.0
1069.0801,124.0
1069.5077,137.0
1069.9355,110.0
1070.3635,93.0
1070.7916,77.0
1071.22,101.0
1071.6484,98.0
1072.0771,216.0
1072.506,111.0
1072.9349,178.0
1073.3641,109.0
1073.7935,103.0
1074.223,117.0
1074.6527,76.0
1075.0825,87.0
1075.5126,128.0
1075.9427,84.0
1076.3732,117.0
1076.8037,69.0
1077.2344,95.0
1077.6653,105.0
1078.0963,200.0
1078.5276,79.0
1078.959,143.0
1079.3906,121.0
1079.8224,90.0
1080.2543,112.0
1080.6864,71.0
1081.1187,76.0
1081.5511,108.0
1081.9838,125.0
1082.4165,113.0
1082.8495,101.0
1083.2826,101.0
1083.716,86.0
1084.1494,86.0
1084.5831,97.0
1085.017,76.0
1085.4509,87.0
1085.8851,50.0
1086.3195,104.0
1086.754,61.0
1087.1887,124.0
1087.6235,104.0
1088.0586,143.0
1088.4938,100.0
1088.9292,111.0
1089.3647,117.0
1089.8005,81.0
1090.2365,142.0
1090.6725,89.0
1091.1088,110.0
1091.5452,116.0
1091.9818,92.0
1092.4186,143.0
1092.8556,99.0
1093.2927,114.0
1093.7301,119.0
1094.1676,101.0
1094.6052,84.0
1095.0431,99.0
1095.4811,129.0
1095.9193,89.0
1096.3577,119.0
1096.7963,70.0
1097.235,110.0
1097.6738,111.0
1098.1129,106.0
1098.5521,152.0
1098.9916,73.0
1099.4312,118.0
1099.871,93.0
1100.3109,95.0
1100.751,66.0
1101.1913,102.0
1101.6317,88.0
1102.0724,99.0
1102.5132,95.0
1102.9542,86.0
1103.3954,102.0
1103.8368,93.0
1104.2783,121.0
1104.72,81.0
1105.1619,102.0
1105.6039,89.0
1106.0461,92.0
1106.4885,90.0
1106.9312,68.0
1107.3739,108.0
1107.8169,69.0
1108.26,103.0
1108.7034,57.0
1109.1469,100.0
1109.5905,119.0
1110.0343,105.0
1110.4783,126.0
1110.9225,93.0
1111.3668,104.0
1111.8114,92.0
1112.2561,87.0
1112.701,71.0
1113.1461,84.0
1113.5914,92.0
1114.0369,71.0
1114.4824,110.0
1114.9282,70.0
1115.3741,116.0
1115.8203,84.0
1116.2666,109.0
1116.7131,89.0
1117.1598,97.0
1117.6067,95.0
1118.0537,93.0
1118.501,112.0
1118.9484,86.0
1119.396,114.0
1119.8438,72.0
1120.2917,116.0
1120.7399,97.0
1121.1881,96.0
1121.6366,74.0
1122.0852,87.0
1122.534,91.0
1122.983,81.0
1123.4323,98.0
1123.8816,74.0
1124.3312,97.0
1124.7809,54.0
1125.2308,101.0
1125.6809,79.0
1126.1312,94.0
1126.5817,75.0
1127.0323,78.0
1127.4832,143.0
1127.9342,67.0
1128.3854,99.0
1128.8367,68.0
1129.2882,109.0
1129.7399,81.0
1130.1918,84.0
1130.6438,89.0
1131.0961,87.0
1131.5485,102.0
1132.0011,74.0
1132.4539,95.0
1132.9069,82.0
1133.36,96.0
1133.8134,62.0
1134.2668,105.0
1134.7206,85.0
1135.1744,96.0
1135.6285,81.0
1136.0828,85.0
1136.5372,90.0
1136.9918,75.0
1137.4467,106.0
1137.9016,91.0
1138.3568,107.0
1138.8121,61.0
1139.2677,90.0
1139.7234,62.0
1140.1793,67.0
1140.6354,72.0
1141.0917,61.0
1141.5481,169.0
1142.0048,75.0
1142.4615,118.0
1142.9186,69.0
1143.3757,85.0
1143.8331,56.0
1144.2906,95.0
1144.7484,69.0
1145.2063,82.0
1145.6644,66.0
1146.1227,88.0
1146.5812,83.0
1147.0398,75.0
1147.4987,99.0
1147.9576,78.0
1148.4169,110.0
1148.8762,82.0
1149.3358,131.0
1149.7955,74.0
1150.2555,109.0
1150.7156,76.0
1151.1759,90.0
1151.6364,87.0
1152.097,84.0
1152.5579,108.0
1153.0189,73.0
1153.4801,144.0
1153.9415,70.0
1154.4031,126.0
1154.8649,75.0
1155.3268,117.0
1155.789,67.0
1156.2512,105.0
1156.7137,100.0
1157.1764,100.0
1157.6393,91.0
1158.1023,84.0
1158.5656,99.0
1159.0289,95.0
1159.4926,96.0
1159.9563,74.0
1160.4203,100.0
1160.8844,82.0
1161.3488,109.0
1161.8134,56.0
1162.2781,83.0
1162.743,57.0
1163.2081,84.0
1163.6735,80.0
1164.1389,94.0
1164.6046,86.0
1165.0704,93.0
1165.5365,113.0
1166.0027,73.0
1166.4691,126.0
1166.9357,58.0
1167.4025,85.0
1167.8694,74.0
1168.3365,91.0
1168.8038,87.0
1169.2714,90.0
1169.739,90.0
1170.2069,96.0
1170.675,89.0
1171.1433,91.0
1171.6118,99.0
1172.0804,92.0
1172.5493,94.0
1173.0183,71.0
1173.4875,98.0
1173.9569,89.0
1174.4265,112.0
1174.8962,70.0
1175.3662,99.0
1175.8363,82.0
1176.3066,97.0
1176.7772,70.0
1177.2479,98.0
1177.7189,73.0
1178.19,105.0
1178.6613,81.0
1179.1327,96.0
1179.6044,93.0
1180.0762,68.0
1180.5482,93.0
1181.0204,91.0
1181.4928,106.0
1181.9655,93.0
1182.4382,98.0
1182.9113,77.0
1183.3844,95.0
1183.8578,74.0
1184.3313,93.0
1184.805,70.0
1185.2789,150.0
1185.753,108.0
1186.2273,88.0
1186.7018,117.0
1187.1765,91.0
1187.6514,82.0
1188.1265,74.0
1188.6017,81.0
1189.0771,72.0
1189.5527,99.0
1190.0286,73.0
1190.5045,89.0
1190.9807,60.0
1191.4572,102.0
1191.9337,79.0
1192.4105,109.0
1192.8875,75.0
1193.3646,106.0
1193.8419,72.0
1194.3195,109.0
1194.7972,73.0
1195.2751,94.0
1195.7533,71.0
1196.2316,100.0
1196.7101,85.0
1197.1887,102.0
1197.6676,124.0
1198.1467,87.0
1198.626,123.0
1199.1055,102.0
1199.5851,117.0
1200.065,74.0
1200.5449,102.0
1201.0251,81.0
1201.5056,111.0
1201.9862,68.0
1202.467,83.0
1202.948,79.0
1203.4292,115.0
1203.9105,74.0
1204.3921,101.0
1204.8739,71.0
1205.3558,112.0
1205.838,88.0
1206.3203,99.0
1206.8029,65.0
1207.2855,119.0
1207.7684,75.0
1208.2516,97.0
1208.7349,65.0
1209.2184,89.0
1209.702,85.0
1210.1859,79.0
1210.67,84.0
1211.1543,96.0
1211.6388,94.0
1212.1234,70.0
1212.6083,89.0
1213.0933,71.0
1213.5785,103.0
1214.064,79.0
1214.5496,103.0
1215.0354,79.0
1215.5214,109.0
1216.0076,74.0
1216.494,100.0
1216.9806,69.0
1217.4674,96.0
1217.9543,78.0
1218.4415,89.0
1218.929,92.0
1219.4165,99.0
1219.9043,103.0
1220.3922,94.0
1220.8804,83.0
1221.3688,102.0
1221.8573,68.0
1222.3461,105.0
1222.835,81.0
1223.3241,94.0
1223.8135,67.0
1224.303,82.0
1224.7927,81.0
1225.2826,107.0
1225.7727,88.0
1226.2631,96.0
1226.7535,78.0
1227.2443,96.0
1227.7351,77.0
1228.2262,83.0
1228.7175,68.0
1229.209,109.0
1229.7007,104.0
1230.1925,81.0
1230.6846,109.0
1231.1769,85.0
1231.6693,81.0
1232.162,67.0
1232.6549,92.0
1233.148,87.0
1233.6412,106.0
1234.1346,96.0
1234.6283,94.0
1235.1222,96.0
1235.6162,103.0
1236.1105,88.0
1236.6049,106.0
1237.0995,84.0
1237.5944,92.0
1238.0894,77.0
1238.5846,85.0
1239.0801,103.0
1239.5757,87.0
1240.0715,87.0
1240.5675,118.0
1241.0637,113.0
1241.5602,113.0
1242.0568,108.0
1242.5536,112.0
1243.0507,89.0
1243.5479,126.0
1244.0453,71.0
1244.5428,117.0
1245.0406,91.0
1245.5387,109.0
1246.0369,82.0
1246.5353,103.0
1247.0339,81.0
1247.5327,93.0
1248.0317,88.0
1248.531,96.0
1249.0304,83.0
1249.53,108.0
1250.0298,99.0
1250.5298,91.0
1251.03,68.0
1251.5304,99.0
1252.031,71.0
1252.5319,78.0
1253.0328,68.0
1253.534,101.0
1254.0355,69.0
1254.5371,96.0
1255.039,100.0
1255.541,84.0
1256.0432,92.0
1256.5457,76.0
1257.0482,91.0
1257.551,89.0
1258.0541,78.0
1258.5573,92.0
1259.0607,83.0
1259.5643,105.0
1260.0681,91.0
1260.5721,88.0
1261.0764,123.0
1261.5808,98.0
1262.0854,90.0
1262.5903,112.0
1263.0953,128.0
1263.6006,114.0
1264.1061,117.0
1264.6117,120.0
1265.1176,81.0
1265.6237,90.0
1266.1299,98.0
1266.6364,99.0
1267.1431,100.0
1267.6499,95.0
1268.157,77.0
1268.6642,91.0
1269.1716,86.0
1269.6793,92.0
1270.1871,79.0
1270.6952,102.0
1271.2035,80.0
1271.7119,97.0
1272.2206,78.0
1272.7295,99.0
1273.2385,105.0
1273.7478,131.0
1274.2573,93.0
1274.767,108.0
1275.2769,107.0
1275.787,80.0
1276.2972,89.0
1276.8077,136.0
1277.3185,116.0
1277.8295,136.0
1278.3406,95.0
1278.8519,108.0
1279.3635,111.0
1279.8752,100.0
1280.3872,108.0
1280.8994,73.0
1281.4117,98.0
1281.9243,75.0
1282.4371,123.0
1282.9501,137.0
1283.4633,97.0
1283.9767,91.0
1284.4902,94.0
1285.004,96.0
1285.5181,111.0
1286.0322,76.0
1286.5466,114.0
1287.0613,97.0
1287.576,123.0
1288.0911,85.0
1288.6063,128.0
1289.1218,107.0
1289.6375,112.0
1290.1533,120.0
1290.6694,97.0
1291.1857,116.0
1291.7021,108.0
1292.2189,106.0
1292.7357,90.0
1293.2528,81.0
1293.7701,90.0
1294.2876,85.0
1294.8053,88.0
1295.3232,84.0
1295.8414,62.0
1296.3597,83.0
1296.8783,66.0
1297.3971,93.0
1297.916,67.0
1298.4352,113.0
1298.9546,80.0
1299.4741,94.0
1299.9939,90.0
1300.5139,100.0
1301.0342,75.0
1301.5546,103.0
1302.0752,70.0
1302.5961,95.0
1303.1171,80.0
1303.6383,85.0
1304.1598,77.0
1304.6814,88.0
1305.2032,83.0
1305.7253,98.0
1306.2477,93.0
1306.7701,95.0
1307.2928,80.0
1307.8158,76.0
1308.3389,94.0
1308.8622,78.0
1309.3857,89.0
1309.9095,81.0
1310.4335,86.0
1310.9576,76.0
1311.482,84.0
1312.0066,88.0
1312.5314,99.0
1313.0564,79.0
1313.5817,80.0
1314.107,68.0
1314.6327,79.0
1315.1586,78.0
1315.6847,88.0
1316.2109,95.0
1316.7374,89.0
1317.2642,95.0
1317.791,103.0
1318.3181,99.0
1318.8455,67.0
1319.373,117.0
1319.9008,61.0
1320.4287,98.0
1320.9569,72.0
1321.4854,94.0
1322.0139,69.0
1322.5427,104.0
1323.0718,75.0
1323.601,96.0
1324.1304,80.0
1324.66,100.0
1325.19,71.0
1325.72,104.0
1326.2502,86.0
1326.7808,88.0
1327.3115,101.0
1327.8424,76.0
1328.3735,86.0
1328.9049,66.0
1329.4365,124.0
1329.9683,59.0
1330.5002,110.0
1331.0325,65.0
1331.565,140.0
1332.0975,76.0
1332.6304,120.0
1333.1635,78.0
1333.6968,88.0
1334.2302,99.0
1334.7639,89.0
1335.2979,87.0
1335.832,73.0
1336.3663,68.0
1336.9009,65.0
1337.4357,76.0
1337.9707,59.0
1338.5059,79.0
1339.0413,68.0
1339.5769,96.0
1340.1128,72.0
1340.6488,82.0
1341.185,92.0
1341.7216,90.0
1342.2583,86.0
1342.7952,82.0
1343.3323,95.0
1343.8696,84.0
1344.4072,78.0
1344.945,89.0
1345.4829,90.0
1346.0211,66.0
1346.5596,95.0
1347.0981,81.0
1347.637,126.0
1348.176,75.0
1348.7153,100.0
1349.2548,105.0
1349.7944,104.0
1350.3344,97.0
1350.8745,75.0
1351.4149,87.0
1351.9554,60.0
1352.4962,93.0
1353.0372,74.0
1353.5785,100.0
1354.1199,78.0
1354.6615,86.0
1355.2034,87.0
1355.7455,65.0
1356.2878,74.0
1356.8303,78.0
1357.373,101.0
1357.916,67.0
1358.4592,107.0
1359.0026,63.0
1359.5461,96.0
1360.09,68.0
1360.634,93.0
1361.1783,77.0
1361.7228,113.0
1362.2675,91.0
1362.8124,101.0
1363.3575,75.0
1363.9028,90.0
1364.4484,124.0
1364.9941,67.0
1365.5402,113.0
1366.0864,87.0
1366.6328,91.0
1367.1794,74.0
1367.7263,92.0
1368.2734,81.0
1368.8208,68.0
1369.3683,94.0
1369.916,96.0
1370.464,77.0
1371.0122,83.0
1371.5607,88.0
1372.1093,76.0
1372.6581,89.0
1373.2072,96.0
1373.7565,90.0
1374.306,108.0
1374.8557,94.0
1375.4056,153.0
1375.9558,66.0
1376.5062,120.0
1377.0569,82.0
1377.6077,108.0
1378.1587,85.0
1378.71,96.0
1379.2615,94.0
1379.8132,81.0
1380.3651,87.0
1380.9172,72.0
1381.4696,93.0
1382.0222,66.0
1382.5751,86.0
1383.128,82.0
1383.6813,115.0
1384.2347,93.0
1384.7885,110.0
1385.3424,90.0
1385.8965,80.0
1386.4508,96.0
1387.0054,75.0
1387.5602,85.0
1388.1152,69.0
1388.6705,107.0
1389.226,97.0
1389.7816,96.0
1390.3375,106.0
1390.8937,80.0
1391.4501,110.0
1392.0067,80.0
1392.5635,101.0
1393.1205,77.0
1393.6777,93.0
1394.2352,88.0
1394.793,89.0
1395.3508,81.0
1395.9089,93.0
1396.4673,90.0
1397.0259,78.0
1397.5847,104.0
1398.1438,94.0
1398.703,93.0
1399.2625,97.0
1399.8221,83.0
1400.3821,90.0
1400.9423,75.0
1401.5027,96.0
1402.0632,63.0
1402.624,84.0
1403.185,91.0
1403.7463,84.0
1404.3079,92.0
1404.8696,78.0
1405.4315,115.0
1405.9937,101.0
1406.556,129.0
1407.1187,89.0
1407.6815,111.0
1408.2446,96.0
1408.808,101.0
1409.3715,114.0
1409.9352,71.0
1410.4991,115.0
1411.0634,77.0
1411.6278,93.0
1412.1925,95.0
1412.7573,90.0
1413.3224,87.0
1413.8877,74.0
1414.4532,129.0
1415.019,86.0
1415.5851,97.0
1416.1514,98.0
1416.7178,114.0
1417.2844,111.0
1417.8513,91.0
1418.4185,97.0
1418.9858,78.0
1419.5535,134.0
1420.1213,81.0
1420.6893,140.0
1421.2576,79.0
1421.826,94.0
1422.3948,87.0
1422.9637,85.0
1423.533,95.0
1424.1024,84.0
1424.672,104.0
1425.2418,111.0
1425.8119,98.0
1426.3822,103.0
1426.9528,86.0
1427.5236,102.0
1428.0946,84.0
1428.6659,118.0
1429.2373,81.0
1429.809,101.0
1430.3809,98.0
1430.953,90.0
1431.5254,126.0
1432.098,94.0
1432.6709,89.0
1433.244,87.0
1433.8173,105.0
1434.3907,107.0
1434.9645,85.0
1435.5385,99.0
1436.1127,110.0
1436.6871,120.0
1437.2618,109.0
1437.8368,105.0
1438.412,85.0
1438.9873,77.0
1439.5629,98.0
1440.1387,77.0
1440.7147,87.0
1441.291,95.0
1441.8676,89.0
1442.4443,107.0
1443.0214,81.0
1443.5985,95.0
1444.1759,98.0
1444.7535,93.0
1445.3314,112.0
1445.9095,96.0
1446.4879,123.0
1447.0665,92.0
1447.6454,95.0
1448.2245,91.0
1448.8038,97.0
1449.3833,96.0
1449.963,97.0
1450.543,128.0
1451.1232,92.0
1451.7036,126.0
1452.2843,122.0
1452.8652,105.0
1453.4464,110.0
1454.0278,96.0
1454.6095,100.0
1455.1913,105.0
1455.7733,118.0
1456.3556,128.0
1456.9381,108.0
1457.5209,109.0
1458.1039,85.0
1458.6871,126.0
1459.2706,105.0
1459.8544,101.0
1460.4384,105.0
1461.0226,94.0
1461.6069,142.0
1462.1915,106.0
1462.7764,133.0
1463.3615,126.0
1463.9468,116.0
1464.5323,143.0
1465.1182,88.0
1465.7042,95.0
1466.2905,108.0
1466.8771,86.0
1467.4639,107.0
1468.0509,71.0
1468.6382,92.0
1469.2256,84.0
1469.8132,114.0
1470.4011,104.0
1470.9893,79.0
1471.5776,107.0
1472.1663,98.0
1472.7551,109.0
1473.3442,100.0
1473.9336,106.0
1474.5232,111.0
1475.113,98.0
1475.7031,106.0
1476.2935,98.0
1476.884,99.0
1477.4747,111.0
1478.0657,87.0
1478.6569,103.0
1479.2483,94.0
1479.84,96.0
1480.4319,124.0
1481.024,95.0
1481.6165,113.0
1482.2091,84.0
1482.802,104.0
1483.3951,97.0
1483.9885,79.0
1484.5822,99.0
1485.176,87.0
1485.7701,117.0
1486.3645,95.0
1486.9591,77.0
1487.5538,106.0
1488.1488,90.0
1488.744,121.0
1489.3395,88.0
1489.9352,81.0
1490.5311,90.0
1491.1273,61.0
1491.7238,87.0
1492.3204,99.0
1492.9174,78.0
1493.5145,127.0
1494.1119,78.0
1494.7096,122.0
1495.3075,83.0
1495.9056,87.0
1496.504,89.0
1497.1027,90.0
1497.7015,104.0
1498.3007,86.0
1498.9,72.0
1499.4996,104.0
1500.0995,115.0
1500.6996,98.0
1501.2998,89.0
1501.9003,99.0
1502.501,113.0
1503.1019,69.0
1503.7031,103.0
1504.3046,81.0
1504.9062,75.0
1505.5082,107.0
1506.1104,82.0
1506.7128,108.0
1507.3154,107.0
1507.9183,105.0
1508.5215,112.0
1509.1249,88.0
1509.7285,120.0
1510.3324,85.0
1510.9365,98.0
1511.5409,95.0
1512.1455,112.0
1512.7504,102.0
1513.3555,108.0
1513.9608,97.0
1514.5664,101.0
1515.1722,82.0
1515.7783,127.0
1516.3846,84.0
1516.9912,92.0
1517.598,93.0
1518.2051,76.0
1518.8124,90.0
1519.4199,102.0
1520.0277,78.0
1520.6357,80.0
1521.244,81.0
1521.8525,73.0
1522.4613,72.0
1523.0703,75.0
1523.6796,98.0
1524.2891,84.0
1524.8988,82.0
1525.5088,100.0
1526.119,75.0
1526.7295,98.0
1527.3402,84.0
1527.9512,74.0
1528.5624,105.0
1529.1738,86.0
1529.7855,90.0
1530.3975,83.0
1531.0096,90.0
1531.6221,82.0
1532.2347,81.0
1532.8477,80.0
1533.4608,96.0
1534.0742,79.0
1534.6879,100.0
1535.3018,81.0
1535.9159,101.0
1536.5303,84.0
1537.1449,82.0
1537.7598,105.0
1538.3749,81.0
1538.9902,82.0
1539.6058,99.0
1540.2217,75.0
1540.8378,64.0
1541.4541,77.0
1542.0707,78.0
1542.6875,68.0
1543.3046,96.0
1543.9219,92.0
1544.5394,117.0
1545.1572,83.0
1545.7753,90.0
1546.3936,97.0
1547.0121,100.0
1547.6309,90.0
1548.2499,77.0
1548.8691,98.0
1549.4886,91.0
1550.1084,68.0
1550.7284,70.0
1551.3486,122.0
1551.9691,117.0
1552.5898,123.0
1553.2109,80.0
1553.8323,105.0
1554.4539,115.0
1555.0757,79.0
1555.6978,66.0
1556.3201,101.0
1556.9426,80.0
1557.5654,100.0
1558.1885,70.0
1558.8118,106.0
1559.4353,88.0
1560.0591,70.0
1560.6831,100.0
1561.3074,73.0
1561.9319,65.0
1562.5566,100.0
1563.1816,60.0
1563.8069,80.0
1564.4324,92.0
1565.0581,68.0
1565.6841,113.0
1566.3103,79.0
1566.9368,76.0
1567.5636,95.0
1568.1907,62.0
1568.818,73.0
1569.4456,79.0
1570.0734,83.0
1570.7014,67.0
1571.3297,77.0
1571.9583,79.0
1572.587,92.0
1573.2161,79.0
1573.8453,66.0
1574.4749,89.0
1575.1046,74.0
1575.7346,105.0
1576.3649,88.0
1576.9954,63.0
1577.6261,86.0
1578.2572,78.0
1578.8885,74.0
1579.5201,106.0
1580.152,79.0
1580.784,95.0
1581.4164,90.0
1582.049,73.0
1582.6818,105.0
1583.3148,67.0
1583.9481,76.0
1584.5817,84.0
1585.2155,62.0
1585.8495,95.0
1586.4839,97.0
1587.1185,76.0
1587.7534,94.0
1588.3885,80.0
1589.0239,72.0
1589.6595,67.0
1590.2954,72.0
1590.9315,83.0
1591.5679,88.0
1592.2045,67.0
1592.8413,82.0
1593.4784,77.0
1594.1158,71.0
1594.7535,85.0
1595.3915,113.0
1596.0297,77.0
1596.6681,122.0
1597.3068,89.0
1597.9457,83.0
1598.5848,82.0
1599.2242,70.0
1599.8639,94.0
1600.5038,105.0
1601.144,62.0
1601.7845,95.0
1602.4253,107.0
1603.0663,83.0
1603.7075,103.0
1604.349,80.0
1604.9907,82.0
1605.6327,78.0
1606.2749,81.0
1606.9174,88.0
1607.5602,86.0
1608.2032,76.0
1608.8466,61.0
1609.4901,88.0
1610.1339,72.0
1610.778,81.0
1611.4222,78.0
1612.0668,90.0
1612.7115,93.0
1613.3567,90.0
1614.0021,74.0
1614.6477,87.0
1615.2936,93.0
1615.9397,90.0
1616.586,86.0
1617.2327,61.0
1617.8795,84.0
1618.5266,100.0
1619.1741,67.0
1619.8218,91.0
1620.4697,91.0
1621.1179,70.0
1621.7664,93.0
1622.415,85.0
1623.064,90.0
1623.7131,81.0
1624.3627,64.0
1625.0125,84.0
1625.6625,109.0
1626.3127,81.0
1626.9633,76.0
1627.614,75.0
1628.265,67.0
1628.9163,74.0
1629.5679,98.0
1630.2197,86.0
1630.8718,87.0
1631.5242,107.0
1632.1768,70.0
1632.8296,98.0
1633.4827,91.0
1634.1361,78.0
1634.7898,75.0
1635.4437,79.0
1636.0979,73.0
1636.7523,64.0
1637.407,93.0
1638.0619,61.0
1638.7172,80.0
1639.3727,94.0
1640.0284,86.0
1640.6844,116.0
1641.3407,91.0
1641.9972,85.0
1642.6539,78.0
1643.311,93.0
1643.9684,76.0
1644.626,106.0
1645.2838,106.0
1645.9419,109.0
1646.6002,123.0
1647.2589,94.0
1647.9178,84.0
1648.577,96.0
1649.2365,73.0
1649.8961,90.0
1650.556,90.0
1651.2163,67.0
1651.8768,68.0
1652.5376,75.0
1653.1986,65.0
1653.8599,73.0
1654.5214,73.0
1655.1832,58.0
1655.8453,88.0
1656.5077,98.0
1657.1703,61.0
1657.8331,95.0
1658.4962,110.0
1659.1597,81.0
1659.8234,85.0
1660.4873,104.0
1661.1515,78.0
1661.8159,79.0
1662.4806,128.0
1663.1456,86.0
1663.8109,100.0
1664.4764,95.0
1665.1422,64.0
1665.8082,71.0
1666.4746,81.0
1667.1412,82.0
1667.8081,96.0
1668.4752,91.0
1669.1426,81.0
1669.8102,84.0
1670.4781,78.0
1671.1464,77.0
1671.8148,80.0
1672.4835,81.0
1673.1525,84.0
1673.8218,68.0
1674.4913,97.0
1675.1611,79.0
1675.8312,91.0
1676.5015,84.0
1677.1721,74.0
1677.843,83.0
1678.5142,92.0
1679.1855,77.0
1679.8572,87.0
1680.5292,95.0
1681.2014,65.0
1681.8739,85.0
1682.5466,82.0
1683.2196,81.0
1683.893,105.0
1684.5665,111.0
1685.2404,83.0
1685.9144,98.0
1686.5887,101.0
1687.2634,63.0
1687.9384,74.0
1688.6135,83.0
1689.289,82.0
1689.9646,71.0
1690.6406,79.0
1691.3169,74.0
1691.9934,64.0
1692.6702,87.0
1693.3473,98.0
1694.0247,79.0
1694.7023,86.0
1695.3801,95.0
1696.0582,66.0
1696.7367,95.0
1697.4154,76.0
1698.0944,65.0
1698.7736,74.0
1699.4531,94.0
1700.1329,82.0
1700.813,105.0
1701.4933,91.0
1702.1738,69.0
1702.8547,85.0
1703.5359,84.0
1704.2173,72.0
1704.8989,93.0
1705.5809,72.0
1706.2632,62.0
1706.9457,97.0
1707.6284,104.0
1708.3115,77.0
1708.9949,75.0
1709.6785,85.0
1710.3623,81.0
1711.0465,96.0
1711.731,73.0
1712.4156,75.0
1713.1006,70.0
1713.7858,83.0
1714.4713,80.0
1715.1571,71.0
1715.8431,86.0
1716.5294,84.0
1717.2161,80.0
1717.903,85.0
1718.5901,88.0
1719.2775,78.0
1719.9652,73.0
1720.6532,83.0
1721.3414,77.0
1722.0299,71.0
1722.7188,88.0
1723.4078,88.0
1724.0972,72.0
1724.7869,79.0
1725.4768,88.0
1726.167,60.0
1726.8574,101.0
1727.5482,102.0
1728.2393,72.0
1728.9305,93.0
1729.6221,92.0
1730.314,86.0
1731.0061,74.0
1731.6985,79.0
1732.3911,78.0
1733.0841,83.0
1733.7773,87.0
1734.4708,80.0
1735.1647,75.0
1735.8588,72.0
1736.5531,90.0
1737.2477,76.0
1737.9426,87.0
1738.6378,95.0
1739.3333,67.0
1740.0289,64.0
1740.725,97.0
1741.4213,73.0
1742.1178,70.0
1742.8147,77.0
1743.5118,90.0
1744.2092,71.0
1744.9069,68.0
1745.6049,101.0
1746.3031,71.0
1747.0016,58.0
1747.7004,67.0
1748.3995,74.0
1749.0989,72.0
1749.7985,88.0
1750.4984,102.0
1751.1986,62.0
1751.899,61.0
1752.5999,74.0
1753.3009,68.0
1754.0022,66.0
1754.7039,87.0
1755.4058,73.0
1756.1079,79.0
1756.8103,94.0
1757.5131,82.0
1758.2161,72.0
1758.9193,93.0
1759.6229,78.0
1760.3268,88.0
1761.0309,66.0
1761.7354,85.0
1762.4401,81.0
1763.145,79.0
1763.8502,75.0
1764.5558,96.0
1765.2616,77.0
1765.9677,68.0
1766.6741,88.0
1767.3807,69.0
1768.0876,69.0
1768.7949,75.0
1769.5024,83.0
1770.2102,76.0
1770.9183,69.0
1771.6267,83.0
1772.3353,79.0
1773.0443,74.0
1773.7535,78.0
1774.463,72.0
1775.1729,66.0
1775.8829,82.0
1776.5933,83.0
1777.304,69.0
1778.0149,62.0
1778.7261,81.0
1779.4376,79.0
1780.1494,74.0
1780.8615,86.0
1781.5739,83.0
1782.2865,59.0
1782.9994,70.0
1783.7126,84.0
1784.4261,79.0
1785.1399,66.0
1785.854,66.0
1786.5684,79.0
1787.283,72.0
1787.9979,76.0
1788.7131,94.0
1789.4286,91.0
1790.1444,67.0
1790.8605,61.0
1791.5768,88.0
1792.2935,75.0
1793.0104,82.0
1793.7275,77.0
1794.4451,82.0
1795.1628,66.0
1795.8809,87.0
1796.5992,92.0
1797.3179,102.0
1798.0367,61.0
1798.756,68.0
1799.4755,86.0
1800.1953,82.0
1800.9154,86.0
1801.6357,85.0
1802.3564,66.0
1803.0774,79.0
1803.7986,86.0
1804.5201,78.0
1805.242,82.0
1805.964,101.0
1806.6864,82.0
1807.409,90.0
1808.1321,69.0
1808.8553,93.0
1809.5789,91.0
1810.3027,85.0
1811.0269,88.0
1811.7512,74.0
1812.476,67.0
1813.2009,69.0
1813.9261,69.0
1814.6517,93.0
1815.3776,70.0
1816.1038,73.0
1816.8302,80.0
1817.5569,70.0
1818.2839,80.0
1819.0112,53.0
1819.7389,75.0
1820.4668,59.0
1821.195,60.0
1821.9235,57.0
1822.6522,79.0
1823.3812,70.0
1824.1106,66.0
1824.8402,61.0
1825.5702,61.0
1826.3004,76.0
1827.0309,77.0
1827.7617,111.0
1828.4928,82.0
1829.2242,66.0
1829.9559,70.0
1830.6879,73.0
1831.4202,71.0
1832.1527,60.0
1832.8856,77.0
1833.6188,83.0
1834.3522,78.0
1835.0859,77.0
1835.82,80.0
1836.5543,72.0
1837.289,81.0
1838.0238,79.0
1838.759,87.0
1839.4945,87.0
1840.2303,61.0
1840.9664,86.0
1841.7028,92.0
1842.4395,86.0
1843.1764,73.0
1843.9137,76.0
1844.6512,78.0
1845.3892,55.0
1846.1273,66.0
1846.8657,68.0
1847.6045,84.0
1848.3435,70.0
1849.0829,72.0
1849.8225,78.0
1850.5624,86.0
1851.3026,57.0
1852.0431,74.0
1852.7839,94.0
1853.525,74.0
1854.2665,71.0
1855.0082,84.0
1855.7501,84.0
1856.4924,86.0
1857.235,93.0
1857.9779,81.0
1858.7211,99.0
1859.4646,82.0
1860.2084,64.0
1860.9525,73.0
1861.6969,81.0
1862.4415,88.0
1863.1865,73.0
1863.9318,71.0
1864.6774,74.0
1865.4232,69.0
1866.1694,64.0
1866.9159,69.0
1867.6627,64.0
1868.4098,61.0
1869.1571,68.0
1869.9048,88.0
1870.6527,70.0
1871.401,69.0
1872.1495,87.0
1872.8984,81.0
1873.6476,93.0
1874.3971,80.0
1875.1469,60.0
1875.8969,97.0
1876.6472,105.0
1877.3978,81.0
1878.1488,88.0
1878.9,83.0
1879.6516,81.0
1880.4034,69.0
1881.1556,76.0
1881.9081,72.0
1882.6609,77.0
1883.414,77.0
1884.1674,82.0
1884.921,107.0
1885.675,127.0
1886.4293,106.0
1887.1838,86.0
1887.9387,99.0
1888.6938,79.0
1889.4493,77.0
1890.2051,71.0
1890.9612,71.0
1891.7175,91.0
1892.4742,71.0
1893.2312,61.0
1893.9885,72.0
1894.7461,79.0
1895.504,83.0
1896.2622,52.0
1897.0208,108.0
1897.7795,107.0
1898.5387,107.0
1899.2981,69.0
1900.0579,90.0
1900.8179,84.0
1901.5782,82.0
1902.3389,64.0
1903.0999,57.0
1903.8611,83.0
1904.6227,82.0
1905.3845,80.0
1906.1467,73.0
1906.9092,80.0
1907.672,77.0
1908.435,83.0
1909.1985,80.0
1909.9622,65.0
1910.7262,76.0
1911.4905,105.0
1912.2551,69.0
1913.02,89.0
1913.7853,320.0
1914.5508,235.0
1915.3167,196.0
1916.0828,211.0
1916.8492,152.0
1917.616,80.0
1918.383,65.0
1919.1504,85.0
1919.9181,82.0
1920.686,84.0
1921.4543,75.0
1922.2229,62.0
1922.9918,92.0
1923.761,86.0
1924.5305,82.0
1925.3003,68.0
1926.0704,78.0
1926.8408,77.0
1927.6116,89.0
1928.3826,79.0
1929.1539,55.0
1929.9255,94.0
1930.6975,92.0
1931.4698,72.0
1932.2424,48.0
1933.0154,77.0
1933.7886,67.0
1934.5621,94.0
1935.3359,71.0
1936.1101,92.0
1936.8845,97.0
1937.6593,123.0
1938.4343,67.0
1939.2097,64.0
1939.9854,83.0
1940.7614,96.0
1941.5376,82.0
1942.3142,76.0
1943.0912,82.0
1943.8684,73.0
1944.646,78.0
1945.4238,65.0
1946.202,89.0
1946.9805,65.0
1947.7593,91.0
1948.5383,102.0
1949.3177,79.0
1950.0975,72.0
1950.8776,98.0
1951.658,76.0
1952.4386,77.0
1953.2196,91.0
1954.0009,76.0
1954.7825,100.0
1955.5643,90.0
1956.3466,64.0
1957.1292,71.0
1957.912,69.0
1958.6952,68.0
1959.4786,84.0
1960.2625,69.0
1961.0465,68.0
1961.8309,81.0
1962.6157,80.0
1963.4008,79.0
1964.1862,76.0
1964.9718,81.0
1965.7578,79.0
1966.5441,74.0
1967.3307,80.0
1968.1177,76.0
1968.9049,74.0
1969.6925,87.0
1970.4803,97.0
1971.2686,95.0
1972.057,71.0
1972.8458,94.0
1973.635,85.0
1974.4244,71.0
1975.2142,66.0
1976.0043,74.0
1976.7947,80.0
1977.5854,88.0
1978.3765,70.0
1979.1678,68.0
1979.9595,82.0
1980.7515,70.0
1981.5438,75.0
1982.3364,62.0
1983.1294,80.0
1983.9226,85.0
1984.7162,78.0
1985.5101,85.0
1986.3043,94.0
1987.0989,70.0
1987.8937,71.0
1988.6888,74.0
1989.4844,86.0
1990.2802,70.0
1991.0763,72.0
1991.8727,91.0
1992.6694,89.0
1993.4666,82.0
1994.2639,90.0
1995.0616,92.0
1995.8596,95.0
1996.658,80.0
1997.4567,73.0
1998.2556,76.0
1999.0549,72.0
1999.8546,70.0
2000.6545,72.0
2001.4548,72.0
2002.2554,53.0
2003.0563,60.0
2003.8575,75.0
2004.659,85.0
2005.4609,74.0
2006.2631,86.0
2007.0656,77.0
2007.8684,80.0
2008.6715,94.0
2009.475,101.0
2010.2788,86.0
2011.0829,107.0
2011.8873,136.0
2012.6921,142.0
2013.4972,86.0
2014.3026,96.0
2015.1083,100.0
2015.9143,86.0
2016.7207,92.0
2017.5273,75.0
2018.3344,77.0
2019.1417,66.0
2019.9493,85.0
2020.7573,89.0
2021.5657,78.0
2022.3743,67.0
2023.1832,84.0
2023.9926,69.0
2024.8021,63.0
2025.612,124.0
2026.4224,124.0
2027.2329,103.0
2028.0438,93.0
2028.855,107.0
2029.6665,106.0
2030.4784,67.0
2031.2905,90.0
2032.103,89.0
2032.9159,78.0
2033.729,101.0
2034.5425,96.0
2035.3563,87.0
2036.1704,92.0
2036.9849,90.0
2037.7997,103.0
2038.6147,78.0
2039.4302,88.0
2040.246,78.0
2041.062,71.0
2041.8784,97.0
2042.6952,80.0
2043.5123,86.0
2044.3297,76.0
2045.1475,80.0
2045.9656,91.0
2046.7839,91.0
2047.6027,86.0
2048.4216,90.0
2049.241,79.0
2050.0605,85.0
2050.8806,82.0
2051.701,94.0
2052.5217,91.0
2053.3428,86.0
2054.164,80.0
2054.9858,83.0
2055.8079,75.0
2056.6301,83.0
2057.453,82.0
2058.276,66.0
2059.099,73.0
2059.9229,97.0
2060.7468,79.0
2061.571,63.0
2062.3958,92.0
2063.2207,93.0
2064.046,95.0
2064.8716,86.0
2065.6975,75.0
2066.5237,85.0
2067.3503,79.0
2068.1772,74.0
2069.0046,73.0
2069.8323,85.0
2070.6602,69.0
2071.4885,80.0
2072.3171,85.0
2073.146,73.0
2073.9753,89.0
2074.805,95.0
2075.6348,77.0
2076.465,74.0
2077.2957,66.0
2078.1265,66.0
2078.9578,87.0
2079.7893,80.0
2080.6213,89.0
2081.4536,75.0
2082.2861,85.0
2083.1191,101.0
2083.9524,116.0
2084.786,102.0
2085.6199,107.0
2086.454,86.0
2087.2886,71.0
2088.1235,78.0
2088.9587,71.0
2089.7944,89.0
2090.6304,78.0
2091.4666,80.0
2092.3032,73.0
2093.1401,82.0
2093.9773,87.0
2094.815,84.0
2095.6528,97.0
2096.4912,85.0
2097.3298,64.0
2098.1687,82.0
2099.008,95.0
2099.8477,79.0
2100.6875,64.0
2101.5278,73.0
2102.3684,82.0
2103.2095,72.0
2104.0508,95.0
2104.8923,95.0
2105.7344,83.0
2106.5767,69.0
2107.4192,80.0
2108.2622,75.0
2109.1055,69.0
2109.9492,70.0
2110.7932,65.0
2111.6375,82.0
2112.4822,100.0
2113.3271,68.0
2114.1724,78.0
2115.018,89.0
2115.864,72.0
2116.7104,86.0
2117.5571,90.0
2118.404,68.0
2119.2515,72.0
2120.099,72.0
2120.9473,64.0
2121.7957,109.0
2122.6443,76.0
2123.4934,80.0
2124.3428,80.0
2125.1926,60.0
2126.0427,88.0
2126.893,87.0
2127.744,73.0
2128.595,83.0
2129.4463,77.0
2130.298,68.0
2131.1501,77.0
2132.0027,70.0
2132.8555,84.0
2133.7085,94.0
2134.562,96.0
2135.4158,69.0
2136.27,68.0
2137.1245,74.0
2137.9792,105.0
2138.8345,84.0
2139.69,81.0
2140.546,72.0
2141.402,102.0
2142.2585,113.0
2143.1155,122.0
2143.9727,88.0
2144.8303,90.0
2145.6882,93.0
2146.5464,68.0
2147.405,74.0
2148.264,72.0
2149.1233,69.0
2149.983,75.0
2150.843,82.0
2151.7034,73.0
2152.564,94.0
2153.425,79.0
2154.2864,81.0
2155.1482,79.0
2156.0103,89.0
2156.8726,100.0
2157.7354,67.0
2158.5984,70.0
2159.462,68.0
2160.3257,86.0
2161.1897,72.0
2162.0542,88.0
2162.919,79.0
2163.7842,89.0
2164.6497,90.0
2165.5156,65.0
2166.3818,79.0
2167.2483,75.0
2168.1152,98.0
2168.9824,117.0
2169.85,103.0
2170.718,98.0
2171.5864,111.0
2172.455,89.0
2173.324,88.0
2174.1934,65.0
2175.063,80.0
2175.933,76.0
2176.8035,89.0
2177.674,79.0
2178.5452,100.0
2179.4165,85.0
2180.2883,85.0
2181.1604,69.0
2182.033,69.0
2182.9058,74.0
2183.7788,83.0
2184.6523,80.0
2185.5261,84.0
2186.4004,74.0
2187.275,66.0
2188.15,69.0
2189.0251,85.0
2189.9006,80.0
2190.7766,85.0
2191.6528,89.0
2192.5295,89.0
2193.4065,85.0
2194.284,107.0
2195.1616,99.0
2196.0398,104.0
2196.9182,103.0
2197.7969,102.0
2198.676,91.0
2199.5554,87.0
2200.4353,77.0
2201.3154,75.0
2202.196,87.0
2203.077,59.0
2203.9583,74.0
2204.8398,85.0
2205.7217,86.0
2206.604,80.0
2207.4866,95.0
2208.3696,81.0
2209.253,75.0
2210.1367,73.0
2211.0208,99.0
2211.9053,94.0
2212.79,93.0
2213.675,72.0
2214.5605,81.0
2215.4463,86.0
2216.3325,84.0
2217.219,69.0
2218.106,99.0
2218.9932,81.0
2219.8809,85.0
2220.7688,94.0
2221.6572,88.0
2222.546,79.0
2223.4348,93.0
2224.3242,76.0
2225.2139,75.0
2226.104,88.0
2226.9944,89.0
2227.8853,101.0
2228.7764,75.0
2229.668,88.0
2230.5598,83.0
2231.4521,79.0
2232.3447,74.0
2233.2375,90.0
2234.1309,93.0
2235.0244,89.0
2235.9185,86.0
2236.8127,66.0
2237.7075,92.0
2238.6025,97.0
2239.498,80.0
2240.3938,68.0
2241.29,68.0
2242.1865,78.0
2243.0835,85.0
2243.9807,96.0
2244.8784,109.0
2245.7764,98.0
2246.6746,84.0
2247.5732,77.0
2248.4722,78.0
2249.3716,69.0
2250.2712,94.0
2251.1714,74.0
2252.0718,88.0
2252.9727,68.0
2253.8738,77.0
2254.7754,74.0
2255.6772,80.0
2256.5796,92.0
2257.4822,108.0
2258.3853,87.0
2259.2886,90.0
2260.1924,84.0
2261.0964,93.0
2262.001,110.0
2262.9058,90.0
2263.811,79.0
2264.7166,78.0
2265.6226,82.0
2266.5288,94.0
2267.4353,79.0
2268.3423,87.0
2269.2495,84.0
2270.1572,74.0
2271.0652,75.0
2271.9736,85.0
2272.8823,78.0
2273.7915,89.0
2274.701,86.0
2275.6108,89.0
2276.521,90.0
2277.4316,87.0
2278.3425,84.0
2279.254,85.0
2280.1655,92.0
2281.0776,89.0
2281.99,91.0
2282.9028,83.0
2283.816,75.0
2284.7295,84.0
2285.6433,76.0
2286.5576,80.0
2287.4722,88.0
2288.3872,78.0
2289.3025,82.0
2290.2183,76.0
2291.1343,98.0
2292.0508,80.0
2292.9675,73.0
2293.8848,101.0
2294.8022,91.0
2295.7202,87.0
2296.6384,101.0
2297.5571,92.0
2298.476,83.0
2299.3955,84.0
2300.3152,88.0
2301.2354,68.0
2302.1558,93.0
2303.0767,76.0
2303.9978,92.0
2304.9194,88.0
2305.8413,92.0
2306.7637,93.0
2307.6863,97.0
2308.6094,83.0
2309.5327,88.0
2310.4565,94.0
2311.3806,62.0
2312.3052,90.0
2313.23,84.0
2314.1553,93.0
2315.081,67.0
2316.007,90.0
2316.9336,95.0
2317.8604,86.0
2318.7876,90.0
2319.715,94.0
2320.643,99.0
2321.5713,93.0
2322.5,68.0
2323.429,80.0
2324.3584,89.0
2325.288,81.0
2326.2183,72.0
2327.1487,101.0
2328.0796,101.0
2329.0107,106.0
2329.9424,84.0
2330.8743,100.0
2331.8066,88.0
2332.7393,75.0
2333.6724,95.0
2334.6057,91.0
2335.5396,94.0
2336.4739,75.0
2337.4084,66.0
2338.3435,83.0
2339.2788,85.0
2340.2146,80.0
2341.1506,76.0
2342.0872,107.0
2343.024,88.0
2343.9612,72.0
2344.8987,99.0
2345.8367,100.0
2346.775,105.0
2347.7136,85.0
2348.6526,98.0
2349.592,86.0
2350.532,79.0
2351.4722,80.0
2352.4128,84.0
2353.3538,98.0
2354.2952,69.0
2355.2368,96.0
2356.179,84.0
2357.1213,92.0
2358.0642,85.0
2359.0073,79.0
2359.951,94.0
2360.895,104.0
2361.8394,83.0
2362.7842,91.0
2363.7292,99.0
2364.6748,81.0
2365.6206,91.0
2366.567,88.0
2367.5134,87.0
2368.4604,92.0
2369.4077,74.0
2370.3555,82.0
2371.3037,101.0
2372.2522,96.0
2373.2012,94.0
2374.1504,102.0
2375.1,81.0
2376.05,73.0
2377.0005,75.0
2377.9512,94.0
2378.9023,76.0
2379.854,89.0
2380.806,84.0
2381.7583,91.0
2382.711,86.0
2383.664,83.0
2384.6174,72.0
2385.5713,81.0
2386.5256,94.0
2387.4802,105.0
2388.4353,99.0
2389.3906,131.0
2390.3464,99.0
2391.3025,104.0
2392.259,85.0
2393.2158,74.0
2394.173,88.0
2395.1309,77.0
2396.0889,102.0
2397.0474,83.0
2398.006,90.0
2398.9653,71.0
2399.9248,89.0
2400.8848,84.0
2401.8452,79.0
2402.806,69.0
2403.767,91.0
2404.7285,114.0
2405.6904,87.0
2406.6526,94.0
2407.6152,80.0
2408.5784,74.0
2409.5417,82.0
2410.5056,80.0
2411.4697,99.0
2412.4343,69.0
2413.3994,81.0
2414.3647,88.0
2415.3306,94.0
2416.2966,86.0
2417.2632,98.0
2418.23,74.0
2419.1973,80.0
2420.165,80.0
2421.133,74.0
2422.1016,76.0
2423.0703,70.0
2424.0396,83.0
2425.0093,91.0
2425.9792,75.0
2426.9497,83.0
2427.9204,80.0
2428.8916,82.0
2429.863,70.0
2430.835,82.0
2431.8074,94.0
2432.78,102.0
2433.7532,84.0
2434.7266,88.0
2435.7004,98.0
2436.6748,73.0
2437.6494,77.0
2438.6245,78.0
2439.5999,76.0
2440.5757,74.0
2441.552,74.0
2442.5286,76.0
2443.5056,64.0
2444.483,77.0
2445.4607,96.0
2446.439,84.0
2447.4175,86.0
2448.3965,99.0
2449.3757,91.0
2450.3555,71.0
2451.3357,93.0
2452.3162,80.0
2453.297,101.0
2454.2783,76.0
2455.26,95.0
2456.2422,71.0
2457.2246,79.0
2458.2075,82.0
2459.191,76.0
2460.1746,88.0
2461.1587,60.0
2462.143,108.0
2463.128,87.0
2464.1133,102.0
2465.0989,99.0
2466.085,85.0
2467.0713,80.0
2468.058,73.0
2469.0454,109.0
2470.033,87.0
2471.021,91.0
2472.0095,65.0
2472.9983,78.0
2473.9875,74.0
2474.977,83.0
2475.967,84.0
2476.9575,74.0
2477.9482,92.0
2478.9395,80.0
2479.931,77.0
2480.9229,99.0
2481.9153,78.0
2482.908,83.0
2483.9011,85.0
2484.8948,79.0
2485.8887,102.0
2486.883,94.0
2487.878,93.0
2488.873,105.0
2489.8687,87.0
2490.8645,93.0
2491.8608,74.0
2492.8577,85.0
2493.8547,83.0
2494.8523,71.0
2495.8503,81.0
2496.8486,85.0
2497.8474,79.0
2498.8464,77.0
2499.846,83.0
2500.846,87.0
2501.8462,80.0
2502.847,83.0
2503.8481,70.0
2504.8496,70.0
2505.8516,72.0
2506.854,92.0
2507.8567,80.0
2508.8599,79.0
2509.8635,97.0
2510.8674,70.0
2511.8718,89.0
2512.8765,89.0
2513.8816,114.0
2514.8872,77.0
2515.893,83.0
2516.8994,69.0
2517.9062,94.0
2518.9133,82.0
2519.921,87.0
2520.929,85.0
2521.9373,98.0
2522.946,83.0
2523.9553,99.0
2524.9648,86.0
2525.9749,96.0
2526.9854,75.0
2527.996,82.0
2529.0073,80.0
2530.019,99.0
2531.031,76.0
2532.0435,72.0
2533.0562,87.0
2534.0693,91.0
2535.083,77.0
2536.097,91.0
2537.1113,78.0
2538.1262,98.0
2539.1414,76.0
2540.157,88.0
2541.173,76.0
2542.1895,82.0
2543.2063,82.0
2544.2236,79.0
2545.2412,106.0
2546.2593,93.0
2547.2778,83.0
2548.2966,72.0
2549.316,107.0
2550.3357,92.0
2551.3557,87.0
2552.3762,78.0
2553.3972,92.0
2554.4185,96.0
2555.4402,75.0
2556.4624,90.0
2557.485,82.0
2558.508,88.0
2559.5315,69.0
2560.5554,86.0
2561.5796,84.0
2562.6042,84.0
2563.6294,86.0
2564.6548,85.0
2565.6807,104.0
2566.707,106.0
2567.7336,95.0
2568.7607,91.0
2569.7883,88.0
2570.8162,84.0
2571.8445,99.0
2572.8733,91.0
2573.9023,77.0
2574.932,75.0
2575.962,94.0
2576.9922,79.0
2578.023,75.0
2579.0542,80.0
2580.086,94.0
2581.118,74.0
2582.1504,89.0
2583.1833,95.0
2584.2166,76.0
2585.2502,86.0
2586.2844,78.0
2587.3188,88.0
2588.3538,89.0
2589.3892,72.0
2590.4248,89.0
2591.461,85.0
2592.4976,86.0
2593.5347,99.0
2594.572,84.0
2595.6099,87.0
2596.6482,88.0
2597.6868,83.0
2598.7258,95.0
2599.7654,88.0
2600.8052,85.0
2601.8455,86.0
2602.8862,101.0
2603.9275,88.0
2604.969,69.0
2606.011,87.0
2607.0535,101.0
2608.0962,92.0
2609.1394,102.0
2610.183,105.0
2611.2273,95.0
2612.2717,79.0
2613.3167,72.0
2614.362,98.0
2615.4077,94.0
2616.4539,81.0
2617.5005,85.0
2618.5476,73.0
2619.595,101.0
2620.6428,96.0
2621.6912,97.0
2622.7397,84.0
2623.7888,82.0
2624.8384,92.0
2625.8884,86.0
2626.9387,76.0
2627.9895,91.0
2629.0408,77.0
2630.0923,87.0
2631.1443,94.0
2632.1968,80.0
2633.2498,80.0
2634.303,96.0
2635.3567,71.0
2636.411,94.0
2637.4653,81.0
2638.5203,87.0
2639.5757,84.0
2640.6316,86.0
2641.6877,88.0
2642.7444,87.0
2643.8015,86.0
2644.8591,84.0
2645.917,86.0
2646.9753,95.0
2648.0342,95.0
2649.0935,96.0
2650.153,94.0
2651.2131,93.0
2652.2737,95.0
2653.3345,89.0
2654.3958,89.0
2655.4575,98.0
2656.5198,92.0
2657.5823,101.0
2658.6453,95.0
2659.7087,83.0
2660.7727,82.0
2661.837,86.0
2662.9016,88.0
2663.9668,94.0
2665.0325,119.0
2666.0984,137.0
2667.1648,88.0
2668.2317,91.0
2669.299,98.0
2670.3667,95.0
2671.4348,92.0
2672.5034,92.0
2673.5725,90.0
2674.6418,87.0
2675.7117,97.0
2676.782,85.0
2677.8528,84.0
2678.9238,104.0
2679.9954,94.0
2681.0674,93.0
2682.14,93.0
2683.2126,95.0
2684.286,89.0
2685.3596,96.0
2686.4338,97.0
2687.5083,96.0
2688.5833,90.0
2689.6587,82.0
2690.7346,84.0
2691.8108,89.0
2692.8875,92.0
2693.9646,90.0
2695.0422,78.0
2696.1204,86.0
2697.1987,121.0
2698.2776,109.0
2699.357,93.0
2700.4368,105.0
2701.5168,98.0
2702.5974,101.0
2703.6785,110.0
2704.76,101.0
2705.8418,91.0
2706.924,81.0
2708.0068,95.0
2709.09,79.0
2710.1738,112.0
2711.2578,89.0
2712.3423,99.0
2713.4272,85.0
2714.5127,93.0
2715.5984,96.0
2716.6846,92.0
2717.7712,95.0
2718.8584,72.0
2719.946,84.0
2721.034,87.0
2722.1223,102.0
2723.2112,107.0
2724.3005,94.0
2725.3901,105.0
2726.4802,91.0
2727.5708,94.0
2728.6619,106.0
2729.7534,105.0
2730.8452,102.0
2731.9375,100.0
2733.0303,86.0
2734.1235,121.0
2735.2173,146.0
2736.3113,164.0
2737.4058,126.0
2738.5007,94.0
2739.5962,75.0
2740.6921,85.0
2741.7883,72.0
2742.885,90.0
2743.9822,102.0
2745.0798,106.0
2746.178,106.0
2747.2764,83.0
2748.3752,90.0
2749.4746,107.0
2750.5745,67.0
2751.6748,96.0
2752.7754,110.0
2753.8765,90.0
2754.978,96.0
2756.08,95.0
2757.1826,83.0
2758.2854,81.0
2759.3887,91.0
2760.4924,97.0
2761.5967,81.0
2762.7014,102.0
2763.8064,87.0
2764.9119,104.0
2766.0178,92.0
2767.1243,90.0
2768.2312,114.0
2769.3384,90.0
2770.446,96.0
2771.5542,78.0
2772.6628,81.0
2773.772,94.0
2774.8816,91.0
2775.9915,103.0
2777.1018,98.0
2778.2126,86.0
2779.324,89.0
2780.4358,90.0
2781.5479,89.0
2782.6604,86.0
2783.7734,103.0
2784.887,93.0
2786.001,102.0
2787.1155,106.0
2788.2302,88.0
2789.3455,97.0
2790.4612,84.0
2791.5774,113.0
2792.694,133.0
2793.8113,148.0
2794.9287,167.0
2796.0466,176.0
2797.165,145.0
2798.284,140.0
2799.4033,126.0
2800.5232,156.0
2801.6433,125.0
2802.764,115.0
2803.885,108.0
2805.0066,128.0
2806.1287,125.0
2807.2512,132.0
2808.374,147.0
2809.4973,142.0
2810.621,134.0
2811.7454,141.0
2812.87,131.0
2813.9954,135.0
2815.1208,127.0
2816.2468,132.0
2817.3733,139.0
2818.5002,155.0
2819.6277,112.0
2820.7556,131.0
2821.884,96.0
2823.0127,116.0
2824.1418,117.0
2825.2715,148.0
2826.4016,109.0
2827.5322,108.0
2828.6633,130.0
2829.7947,123.0
2830.9265,131.0
2832.0588,120.0
2833.1917,121.0
2834.325,139.0
2835.4587,112.0
2836.593,140.0
2837.7275,116.0
2838.8625,114.0
2839.998,127.0
2841.134,117.0
2842.2705,116.0
2843.4075,129.0
2844.545,110.0
2845.6829,136.0
2846.821,125.0
2847.9597,122.0
2849.0989,108.0
2850.2385,130.0
2851.3787,142.0
2852.5193,146.0
2853.6604,164.0
2854.8018,121.0
2855.9436,115.0
2857.086,129.0
2858.2288,159.0
2859.372,139.0
2860.5159,113.0
2861.6602,138.0
2862.805,131.0
2863.95,141.0
2865.0955,150.0
2866.2415,137.0
2867.388,139.0
2868.535,137.0
2869.6824,142.0
2870.8303,112.0
2871.9788,132.0
2873.1274,132.0
2874.2766,142.0
2875.4263,149.0
2876.5764,139.0
2877.727,121.0
2878.8782,128.0
2880.0298,149.0
2881.182,136.0
2882.3345,145.0
2883.4873,123.0
2884.6406,122.0
2885.7944,108.0
2886.9487,119.0
2888.1035,141.0
2889.2588,154.0
2890.4146,139.0
2891.5708,164.0
2892.7275,147.0
2893.8845,132.0
2895.042,139.0
2896.2,102.0
2897.3584,116.0
2898.5173,121.0
2899.6768,137.0
2900.8367,121.0
2901.997,124.0
2903.158,136.0
2904.3193,147.0
2905.481,180.0
2906.643,197.0
2907.8057,191.0
2908.9688,213.0
2910.1323,177.0
2911.2964,149.0
2912.461,146.0
2913.626,141.0
2914.7915,113.0
2915.9575,112.0
2917.124,143.0
2918.2908,134.0
2919.458,117.0
2920.6257,138.0
2921.794,216.0
2922.9626,252.0
2924.1318,278.0
2925.3015,212.0
2926.4717,174.0
2927.6423,145.0
2928.8135,144.0
2929.985,129.0
2931.157,152.0
2932.3293,120.0
2933.5022,145.0
2934.6755,128.0
2935.8494,141.0
2937.0237,109.0
2938.1985,132.0
2939.3738,152.0
2940.5496,166.0
2941.7258,131.0
2942.9026,141.0
2944.0798,155.0
2945.2576,157.0
2946.4358,171.0
2947.6143,165.0
2948.7932,170.0
2949.9727,146.0
2951.1526,174.0
2952.333,133.0
2953.514,131.0
2954.6953,132.0
2955.8772,124.0
2957.0596,134.0
2958.2424,116.0
2959.4258,126.0
2960.6096,147.0
2961.794,113.0
2962.9788,138.0
2964.164,122.0
2965.3496,125.0
2966.5356,112.0
2967.7222,138.0
2968.9092,143.0
2970.0967,139.0
2971.2847,119.0
2972.4731,111.0
2973.662,141.0
2974.8516,120.0
2976.0415,130.0
2977.232,128.0
2978.4229,125.0
2979.6143,139.0
2980.8062,141.0
2981.9985,107.0
2983.1914,130.0
2984.3848,121.0
2985.5786,133.0
2986.773,122.0
2987.9678,137.0
2989.1628,127.0
2990.3584,118.0
2991.5544,133.0
2992.751,131.0
2993.948,118.0
2995.1455,130.0
2996.3435,135.0
2997.542,106.0
2998.741,117.0
2999.9404,115.0
3001.1404,108.0
3002.3408,142.0
3003.5417,137.0
3004.7432,118.0
3005.945,131.0
3007.1475,147.0
3008.3503,108.0
3009.5537,145.0
3010.7576,134.0
3011.962,113.0
3013.1667,130.0
3014.372,135.0
3015.578,120.0
3016.7842,123.0
3017.991,131.0
3019.1982,128.0
3020.406,165.0
3021.6143,156.0
3022.823,126.0
3024.0322,123.0
3025.242,120.0
3026.4521,133.0
3027.6628,129.0
3028.874,134.0
3030.0857,123.0
3031.2976,134.0
3032.51,119.0
3033.723,120.0
3034.9363,127.0
3036.1501,130.0
3037.3645,120.0
3038.5793,135.0
3039.7947,124.0
3041.0105,124.0
3042.2268,138.0
3043.4436,160.0
3044.661,117.0
3045.8787,123.0
3047.097,142.0
3048.3157,124.0
3049.535,124.0
3050.7546,123.0
3051.9749,123.0
3053.1956,122.0
3054.4167,144.0
3055.6384,127.0
3056.8606,135.0
3058.0833,121.0
3059.3064,139.0
3060.53,120.0
3061.7542,130.0
3062.9788,125.0
3064.2039,124.0
3065.4294,131.0
3066.6555,132.0
3067.882,149.0
3069.1091,156.0
3070.3367,144.0
3071.5647,141.0
3072.7932,135.0
3074.0222,125.0
3075.2517,143.0
3076.4817,129.0
3077.7124,146.0
3078.9436,144.0
3080.1753,136.0
3081.4075,144.0
3082.6401,137.0
3083.8733,134.0
3085.107,115.0
3086.341,111.0
3087.5757,191.0
3088.8108,130.0
3090.0464,133.0
3091.2825,136.0
3092.519,118.0
3093.756,127.0
3094.9937,137.0
3096.2317,145.0
3097.4702,158.0
3098.7092,134.0
3099.9487,121.0
3101.1887,144.0
3102.4292,127.0
3103.6702,129.0
3104.9116,127.0
3106.1536,115.0
3107.396,127.0
3108.639,130.0
3109.8823,135.0
3111.1262,152.0
3112.3706,143.0
3113.6155,177.0
3114.8608,138.0
3116.1067,119.0
3117.353,120.0
3118.5999,141.0
3119.8474,121.0
3121.0955,139.0
3122.344,131.0
3123.593,134.0
3124.8425,118.0
3126.0925,127.0
3127.343,144.0
3128.594,115.0
3129.8455,134.0
3131.0974,119.0
3132.3499,159.0
3133.6028,130.0
3134.8562,126.0
3136.11,130.0
3137.3645,132.0
3138.6194,126.0
3139.8748,135.0
3141.1306,123.0
3142.387,128.0
3143.6438,138.0
3144.9014,132.0
3146.1594,144.0
3147.418,143.0
3148.677,162.0
3149.9365,120.0
3151.1965,134.0
3152.457,112.0
3153.718,147.0
3154.9795,155.0
3156.2415,134.0
3157.504,129.0
3158.7668,140.0
3160.0303,107.0
3161.2942,143.0
3162.5586,119.0
3163.8237,134.0
3165.0894,120.0
3166.3555,140.0
3167.622,141.0
3168.8892,127.0
3170.1567,134.0
3171.4248,161.0
3172.6934,137.0
3173.9624,141.0
3175.232,133.0
3176.502,139.0
3177.7725,144.0
3179.0435,120.0
3180.3152,118.0
3181.5874,133.0
3182.86,118.0
3184.1333,122.0
3185.407,141.0
3186.6812,129.0
3187.9558,141.0
3189.231,133.0
3190.5066,157.0
3191.7827,149.0
3193.0593,142.0
3194.3367,128.0
3195.6145,125.0
3196.8928,131.0
3198.1716,139.0
3199.451,146.0
3200.7307,131.0
3202.011,138.0
3203.2917,128.0
3204.573,122.0
3205.8547,112.0
3207.137,110.0
3208.42,142.0
3209.7034,128.0
3210.9873,140.0
3212.2717,142.0
3213.5566,125.0
3214.842,130.0
3216.128,125.0
3217.4143,137.0
3218.7012,131.0
3219.9888,128.0
3221.2769,121.0
3222.5654,148.0
3223.8545,137.0
3225.144,141.0
3226.434,144.0
3227.7246,158.0
3229.0156,120.0
3230.3071,128.0
3231.5994,143.0
3232.892,129.0
3234.1853,121.0
3235.479,136.0
3236.7732,132.0
3238.0679,128.0
3239.363,138.0
3240.6587,141.0
3241.9548,119.0
3243.2517,131.0
3244.549,145.0
3245.847,139.0
3247.1453,118.0
3248.444,141.0
3249.7434,135.0
3251.0432,132.0
3252.3438,145.0
3253.6448,130.0
3254.9463,149.0
3256.2483,160.0
3257.5508,119.0
3258.8538,138.0
3260.1572,126.0
3261.4612,130.0
3262.7659,148.0
3264.071,124.0
3265.3767,138.0
3266.6829,142.0
3267.9895,145.0
3269.2966,159.0
3270.6042,183.0
3271.9126,173.0
3273.2214,150.0
3274.5308,141.0
3275.8406,144.0
3277.151,132.0
3278.4617,141.0
3279.773,125.0
3281.085,137.0
3282.3975,132.0
3283.7104,126.0
3285.024,141.0
3286.338,150.0
3287.6523,126.0
3288.9673,138.0
3290.283,156.0
3291.599,139.0
3292.9158,142.0
3294.233,150.0
3295.5505,136.0
3296.8687,113.0
3298.1875,141.0
3299.5068,159.0
3300.8267,146.0
3302.147,129.0
3303.4678,117.0
3304.789,133.0
3306.111,137.0
3307.4336,138.0
3308.7566,124.0
3310.08,124.0
3311.404,146.0
3312.7285,160.0
3314.0537,136.0
3315.3794,131.0
3316.7056,132.0
3318.0322,140.0
3319.3594,130.0
3320.687,168.0
3322.0154,154.0
3323.3442,136.0
3324.6736,148.0
3326.0034,138.0
3327.3337,126.0
3328.6648,146.0
3329.9963,126.0
3331.3284,127.0
3332.661,154.0
3333.994,144.0
3335.3274,149.0
3336.6616,137.0
3337.9963,128.0
3339.3315,155.0
3340.6672,156.0
3342.0034,140.0
3343.3403,145.0
3344.6777,146.0
3346.0156,129.0
3347.354,151.0
3348.6929,149.0
3350.0322,158.0
3351.3723,139.0
3352.713,148.0
3354.054,142.0
3355.3955,128.0
3356.7375,130.0
3358.0803,137.0
3359.4236,140.0
3360.7673,145.0
3362.1116,132.0
3363.4563,157.0
3364.8018,138.0
3366.1477,147.0
3367.4941,152.0
3368.841,176.0
3370.1887,150.0
3371.5369,142.0
3372.8855,167.0
3374.2346,129.0
3375.5842,140.0
3376.9346,139.0
3378.2854,147.0
3379.6367,183.0
3380.9885,160.0
3382.3408,152.0
3383.6938,169.0
3385.0474,127.0
3386.4014,159.0
3387.7559,169.0
3389.1108,141.0
3390.4666,159.0
3391.8228,155.0
3393.1794,142.0
3394.5366,157.0
3395.8945,148.0
3397.253,141.0
3398.6118,139.0
3399.9712,152.0
3401.3313,151.0
3402.692,169.0
3404.053,157.0
3405.4146,180.0
3406.7766,166.0
3408.1394,133.0
3409.5027,144.0
3410.8665,172.0
3412.2307,170.0
3413.5957,166.0
3414.9612,158.0
3416.3271,139.0
3417.6936,163.0
3419.0608,179.0
3420.4285,185.0
3421.7966,159.0
3423.1653,157.0
3424.5347,166.0
3425.9045,155.0
3427.275,142.0
3428.6458,158.0
3430.017,136.0
3431.3892,159.0
3432.7617,157.0
3434.1348,163.0
3435.5083,164.0
3436.8826,144.0
3438.2573,155.0
3439.6326,178.0
3441.0083,144.0
3442.3848,177.0
3443.7617,145.0
3445.1392,135.0
3446.5173,148.0
3447.896,168.0
3449.2751,150.0
3450.6548,154.0
3452.0352,166.0
3453.416,160.0
3454.7974,175.0
3456.1792,183.0
3457.5618,182.0
3458.9448,151.0
3460.3284,160.0
3461.7124,177.0
3463.0972,139.0
3464.4824,159.0
3465.8682,148.0
3467.2544,146.0
3468.6414,164.0
3470.0288,136.0
3471.4167,159.0
3472.8054,159.0
3474.1946,188.0
3475.5842,186.0
3476.9744,173.0
3478.3652,157.0
3479.7566,154.0
3481.1484,149.0
3482.541,156.0
3483.934,152.0
3485.3276,144.0
3486.7217,165.0
3488.1165,179.0
3489.5117,163.0
3490.9075,168.0
3492.304,157.0
3493.701,162.0
3495.0984,169.0
3496.4963,171.0
3497.895,137.0
3499.2942,173.0
3500.6938,145.0
3502.0942,148.0
3503.495,154.0
3504.8965,164.0
3506.2983,185.0
3507.701,197.0
3509.104,170.0
3510.5076,164.0
3511.9119,173.0
3513.3167,157.0
3514.722,168.0
3516.128,147.0
3517.5344,146.0
3518.9414,168.0
3520.3489,165.0
3521.757,222.0
3523.1658,190.0
3524.575,206.0
3525.9849,166.0
3527.3953,157.0
3528.8062,158.0
3530.2178,235.0
3531.63,226.0
3533.0425,212.0
3534.4558,158.0
3535.8696,147.0
3537.284,175.0
3538.6987,182.0
3540.1143,155.0
3541.5303,162.0
3542.9468,178.0
3544.364,179.0
3545.7817,163.0
3547.2,164.0
3548.619,188.0
3550.0383,155.0
3551.4583,167.0
3552.879,174.0
3554.3,153.0
3555.7217,178.0
3557.144,147.0
3558.567,168.0
3559.9902,175.0
3561.4143,168.0
3562.8389,176.0
3564.264,170.0
3565.6897,191.0
3567.116,188.0
3568.5427,158.0
3569.9702,181.0
3571.3982,191.0
3572.8267,208.0
3574.2559,195.0
3575.6855,171.0
3577.1157,186.0
3578.5466,230.0
3579.978,228.0
3581.41,176.0
3582.8425,193.0
3584.2756,189.0
3585.7092,190.0
3587.1436,198.0
3588.5784,203.0
3590.014,163.0
3591.45,155.0
3592.8865,215.0
3594.3237,199.0
3595.7615,237.0
3597.1997,236.0
3598.6387,201.0
3600.0781,232.0
3601.518,215.0
3602.9587,197.0
3604.4,173.0
3605.8416,224.0
3607.284,258.0
3608.7268,276.0
3610.1704,237.0
3611.6145,198.0
3613.059,219.0
3614.5044,205.0
3615.9502,297.0
3617.3965,348.0
3618.8435,270.0
3620.291,207.0
3621.739,177.0
3623.1877,179.0
3624.637,178.0
3626.087,205.0
3627.5374,221.0
3628.9883,187.0
3630.44,213.0
3631.892,186.0
3633.3447,197.0
3634.798,157.0
3636.252,202.0
3637.7065,190.0
3639.1616,182.0
3640.6172,194.0
3642.0735,162.0
3643.5303,227.0
3644.9878,208.0
3646.4458,196.0
3647.9043,205.0
3649.3635,210.0
3650.8232,207.0
3652.2837,176.0
3653.7446,188.0
3655.206,205.0
3656.6682,186.0
3658.1309,200.0
3659.594,192.0
3661.0579,178.0
3662.5222,195.0
3663.9873,180.0
3665.453,191.0
3666.919,206.0
3668.3857,183.0
3669.853,204.0
3671.321,179.0
3672.7896,189.0
3674.2585,191.0
3675.7283,215.0
3677.1985,227.0
3678.6694,224.0
3680.1409,211.0
3681.613,191.0
3683.0857,192.0
3684.5588,161.0
3686.0327,212.0
3687.507,178.0
3688.9822,182.0
3690.4578,177.0
3691.9338,197.0
3693.4106,168.0
3694.888,190.0
3696.366,192.0
3697.8445,187.0
3699.3237,188.0
3700.8035,207.0
3702.2837,196.0
3703.7646,206.0
3705.246,170.0
3706.7283,170.0
3708.211,223.0
3709.6943,242.0
3711.1782,233.0
3712.6626,237.0
3714.1477,204.0
3715.6333,214.0
3717.1196,200.0
3718.6064,221.0
3720.094,184.0
3721.582,204.0
3723.0706,181.0
3724.5598,201.0
3726.0496,204.0
3727.54,207.0
3729.031,226.0
3730.5227,197.0
3732.015,198.0
3733.5078,231.0
3735.0012,247.0
3736.495,231.0
3737.9897,232.0
3739.4849,197.0
3740.9807,203.0
3742.477,190.0
3743.974,265.0
3745.4717,243.0
3746.97,209.0
3748.4688,214.0
3749.968,343.0
3751.468,503.0
3752.9685,540.0
3754.4697,372.0
3755.9714,303.0
3757.4739,306.0
3758.9768,218.0
3760.4805,241.0
3761.9846,254.0
3763.4895,198.0
3764.9949,226.0
3766.501,239.0
3768.0076,246.0
3769.515,216.0
3771.0227,246.0
3772.531,233.0
3774.04,294.0
3775.5496,225.0
3777.0598,221.0
3778.5706,246.0
3780.082,256.0
3781.594,270.0
3783.1067,262.0
3784.6199,282.0
3786.1338,247.0
3787.6482,239.0
3789.1633,237.0
3790.679,232.0
3792.1953,196.0
3793.7122,233.0
3795.2297,239.0
3796.7478,255.0
3798.2666,251.0
3799.786,270.0
3801.306,237.0
3802.8264,253.0
3804.3477,204.0
3805.8694,209.0
3807.3918,256.0
3808.9148,241.0
3810.4385,243.0
3811.9626,255.0
3813.4875,243.0
3815.013,317.0
3816.539,304.0
3818.0657,269.0
3819.593,257.0
3821.1208,220.0
3822.6494,239.0
3824.1785,263.0
3825.7083,242.0
3827.2385,236.0
3828.7695,261.0
3830.301,277.0
3831.8333,275.0
3833.366,265.0
3834.8994,226.0
3836.4333,240.0
3837.968,246.0
3839.5032,280.0
3841.039,252.0
3842.5754,245.0
3844.1125,252.0
3845.6501,254.0
3847.1885,326.0
3848.7273,340.0
3850.2668,336.0
3851.807,303.0
3853.3477,307.0
3854.889,236.0
3856.431,241.0
3857.9734,237.0
3859.5166,274.0
3861.0603,275.0
3862.6047,287.0
3864.1497,278.0
3865.6953,253.0
3867.2417,294.0
3868.7886,267.0
3870.3362,301.0
3871.8843,256.0
3873.433,264.0
3874.9824,295.0
3876.5325,323.0
3878.083,261.0
3879.6343,294.0
3881.186,272.0
3882.7385,294.0
3884.2915,309.0
3885.8452,337.0
3887.3997,317.0
3888.9546,294.0
3890.5103,245.0
3892.0664,305.0
3893.6233,274.0
3895.1807,255.0
3896.7388,293.0
3898.2974,284.0
3899.8567,332.0
3901.4167,318.0
3902.9773,307.0
3904.5386,292.0
3906.1003,275.0
3907.6628,283.0
3909.2258,263.0
3910.7896,270.0
3912.3538,249.0
3913.9187,253.0
3915.4844,281.0
3917.0505,276.0
3918.6174,291.0
3920.1848,259.0
3921.753,252.0
3923.3215,271.0
3924.8909,282.0
3926.461,216.0
3928.0315,232.0
3929.6028,235.0
3931.1746,223.0
3932.747,264.0
3934.32,256.0
3935.8938,269.0
3937.4683,258.0
3939.0432,246.0
3940.619,260.0
3942.195,261.0
3943.772,218.0
3945.3494,232.0
3946.9275,215.0
3948.5063,232.0
3950.0857,261.0
3951.6658,224.0
3953.2463,215.0
3954.8276,211.0
3956.4097,208.0
3957.9922,235.0
3959.5754,247.0
3961.1592,233.0
3962.7437,235.0
3964.3289,228.0
3965.9146,215.0
3967.501,204.0
3969.088,228.0
3970.6755,224.0
3972.264,195.0
3973.8528,199.0
3975.4424,190.0
3977.0325,218.0
3978.6233,222.0
3980.2148,214.0
3981.807,192.0
3983.3997,202.0
3984.993,217.0
3986.587,194.0
3988.1816,211.0
3989.7769,169.0
3991.3728,220.0
3992.9692,209.0
3994.5664,208.0
3996.1643,197.0
3997.7627,221.0
3999.3618,186.0
4000.9617,189.0
4002.562,209.0
4004.163,224.0
4005.7646,252.0
4007.367,223.0
4008.97,183.0
4010.5735,189.0
4012.1777,227.0
4013.7827,216.0
4015.3882,206.0
4016.9944,207.0
4018.601,210.0
4020.2085,240.0
4021.8167,233.0
4023.4253,229.0
4025.0347,209.0
4026.6448,200.0
4028.2554,268.0
4029.8667,284.0
4031.4788,251.0
4033.0913,244.0
4034.7046,255.0
4036.3184,265.0
4037.9329,251.0
4039.548,259.0
4041.1638,298.0
4042.7803,262.0
4044.3975,314.0
4046.0151,270.0
4047.6335,273.0
4049.2527,277.0
4050.8723,369.0
4052.4927,387.0
4054.1138,336.0
4055.7354,299.0
4057.3577,295.0
4058.9807,367.0
4060.6042,399.0
4062.2285,361.0
4063.8535,392.0
4065.479,397.0
4067.1052,349.0
4068.7322,346.0
4070.3596,456.0
4071.9878,595.0
4073.6167,506.0
4075.246,418.0
4076.8762,430.0
4078.507,421.0
4080.1384,500.0
4081.7705,608.0
4083.4033,632.0
4085.0366,726.0
4086.6707,796.0
4088.3054,753.0
4089.9407,487.0
4091.5767,461.0
4093.2134,1100.0
4094.8506,1601.0
4096.489,1011.0
4098.1274,535.0
4099.7666,433.0
4101.4067,999.0
4103.0474,3280.0
4104.6885,2361.0
4106.3306,1040.0
4107.973,501.0
4109.616,408.0
4111.2603,443.0
4112.905,471.0
4114.55,727.0
4116.196,548.0
4117.8423,384.0
4119.4893,307.0
4121.137,268.0
4122.7856,362.0
4124.4346,286.0
4126.0845,297.0
4127.735,264.0
4129.3857,237.0
4131.0376,211.0
4132.69,256.0
4134.343,225.0
4135.9966,268.0
4137.651,226.0
4139.306,186.0
4140.962,192.0
4142.618,212.0
4144.2754,232.0
4145.933,219.0
4147.5913,218.0
4149.2505,174.0
4150.91,200.0
4152.5703,220.0
4154.2314,222.0
4155.893,222.0
4157.5557,209.0
4159.2188,235.0
4160.8823,232.0
4162.547,219.0
4164.212,215.0
4165.8774,260.0
4167.544,246.0
4169.211,240.0
4170.8784,217.0
4172.547,230.0
4174.216,266.0
4175.8857,299.0
4177.556,278.0
4179.227,231.0
4180.899,271.0
4182.5713,218.0
4184.244,207.0
4185.918,250.0
4187.5923,289.0
4189.267,268.0
4190.943,242.0
4192.619,212.0
4194.2964,188.0
4195.974,243.0
4197.6523,300.0
4199.3315,292.0
4201.011,229.0
4202.6914,229.0
4204.3726,266.0
4206.054,266.0
4207.737,229.0
4209.42,257.0
4211.1035,239.0
4212.788,211.0
4214.473,208.0
4216.1587,243.0
4217.845,235.0
4219.532,208.0
4221.22,209.0
4222.9087,223.0
4224.5977,214.0
4226.2876,255.0
4227.978,202.0
4229.6694,240.0
4231.3613,232.0
4233.0537,243.0
4234.747,216.0
4236.441,219.0
4238.1353,214.0
4239.8306,218.0
4241.5264,244.0
4243.223,252.0
4244.9204,211.0
4246.618,265.0
4248.317,241.0
4250.016,249.0
4251.7163,259.0
4253.417,224.0
4255.118,255.0
4256.8203,262.0
4258.523,263.0
4260.2266,253.0
4261.9307,265.0
4263.6353,265.0
4265.341,281.0
4267.047,312.0
4268.754,346.0
4270.4614,332.0
4272.1694,278.0
4273.8784,283.0
4275.588,320.0
4277.2983,491.0
4279.0093,364.0
4280.7207,302.0
4282.433,301.0
4284.146,427.0
4285.86,686.0
4287.574,570.0
4289.289,407.0
4291.005,285.0
4292.721,284.0
4294.4385,285.0
4296.1562,285.0
4297.8745,380.0
4299.5938,346.0
4301.3135,294.0
4303.034,280.0
4304.7554,225.0
4306.477,245.0
4308.1997,260.0
4309.923,242.0
4311.647,240.0
4313.3716,218.0
4315.097,213.0
4316.823,227.0
4318.55,196.0
4320.2773,223.0
4322.0054,196.0
4323.7344,216.0
4325.464,213.0
4327.194,225.0
4328.925,232.0
4330.6562,244.0
4332.3887,216.0
4334.1216,204.0
4335.8555,221.0
4337.59,227.0
4339.3247,207.0
4341.0605,217.0
4342.797,207.0
4344.534,203.0
4346.272,198.0
4348.0103,233.0
4349.7495,227.0
4351.4893,196.0
4353.23,227.0
4354.971,200.0
4356.7134,237.0
4358.456,271.0
4360.199,237.0
4361.9434,238.0
4363.688,250.0
4365.4336,219.0
4367.1797,244.0
4368.927,243.0
4370.6743,233.0
4372.4224,241.0
4374.1714,248.0
4375.921,224.0
4377.6714,276.0
4379.4224,234.0
4381.1743,244.0
4382.927,234.0
4384.6797,213.0
4386.4336,242.0
4388.188,253.0
4389.9434,242.0
4391.699,216.0
4393.456,267.0
4395.2134,227.0
4396.9717,200.0
4398.7305,238.0
4400.4897,265.0
4402.25,253.0
4404.0107,220.0
4405.7725,236.0
4407.5347,283.0
4409.298,367.0
4411.0615,253.0
4412.826,242.0
4414.5913,262.0
4416.357,330.0
4418.1235,390.0
4419.8906,306.0
4421.6587,286.0
4423.4272,275.0
4425.197,241.0
4426.967,255.0
4428.738,287.0
4430.5093,319.0
4432.2812,250.0
4434.054,285.0
4435.8276,214.0
4437.602,289.0
4439.377,327.0
4441.153,324.0
4442.929,258.0
4444.7065,247.0
4446.4844,239.0
4448.263,235.0
4450.0425,275.0
4451.8223,268.0
4453.603,255.0
4455.3843,241.0
4457.1665,228.0
4458.949,257.0
4460.733,296.0
4462.517,237.0
4464.3022,244.0
4466.088,257.0
4467.8745,355.0
4469.6616,351.0
4471.4497,253.0
4473.2383,263.0
4475.0273,256.0
4476.8174,248.0
4478.608,247.0
4480.3994,288.0
4482.1914,269.0
4483.9844,250.0
4485.778,258.0
4487.5723,232.0
4489.367,268.0
4491.163,229.0
4492.9595,224.0
4494.757,235.0
4496.5547,254.0
4498.3535,284.0
4500.153,267.0
4501.953,241.0
4503.754,236.0
4505.555,257.0
4507.3574,251.0
4509.16,249.0
4510.964,234.0
4512.768,255.0
4514.573,285.0
4516.379,214.0
4518.1855,248.0
4519.9927,236.0
4521.801,255.0
4523.6094,262.0
4525.419,237.0
4527.229,237.0
4529.04,256.0
4530.8516,306.0
4532.664,295.0
4534.477,243.0
4536.291,249.0
4538.1055,265.0
4539.921,286.0
4541.737,230.0
4543.5537,236.0
4545.371,250.0
4547.1895,244.0
4549.0083,252.0
4550.828,232.0
4552.6484,214.0
4554.4697,207.0
4556.2915,203.0
4558.1143,223.0
4559.9375,220.0
4561.7617,236.0
4563.5864,218.0
4565.4116,191.0
4567.238,215.0
4569.0645,208.0
4570.892,212.0
4572.72,244.0
4574.5493,217.0
4576.379,220.0
4578.2095,216.0
4580.0405,238.0
4581.8726,226.0
4583.705,217.0
4585.5386,216.0
4587.3726,196.0
4589.2075,205.0
4591.043,215.0
4592.8794,254.0
4594.7163,241.0
4596.554,223.0
4598.3926,210.0
4600.232,256.0
4602.0723,261.0
4603.913,249.0
4605.755,210.0
4607.597,200.0
4609.4404,224.0
4611.284,239.0
4613.129,254.0
4614.974,225.0
4616.8203,219.0
4618.667,195.0
4620.5146,218.0
4622.363,268.0
4624.212,231.0
4626.0615,206.0
4627.912,232.0
4629.763,231.0
4631.615,237.0
4633.468,235.0
4635.3213,229.0
4637.1753,208.0
4639.0303,180.0
4640.8857,202.0
4642.742,234.0
4644.599,222.0
4646.457,227.0
4648.3154,206.0
4650.175,203.0
4652.0347,227.0
4653.8955,191.0
4655.757,204.0
4657.619,192.0
4659.4824,228.0
4661.346,197.0
4663.211,221.0
4665.076,242.0
4666.9424,209.0
4668.809,220.0
4670.677,210.0
4672.545,222.0
4674.414,218.0
4676.2837,229.0
4678.1543,217.0
4680.0254,212.0
4681.8975,200.0
4683.77,214.0
4685.6436,219.0
4687.5176,203.0
4689.3926,197.0
4691.2686,232.0
4693.145,199.0
4695.0225,252.0
4696.9004,236.0
4698.7793,192.0
4700.6587,208.0
4702.539,186.0
4704.42,226.0
4706.302,195.0
4708.184,205.0
4710.0674,217.0
4711.951,221.0
4713.836,222.0
4715.7217,219.0
4717.608,214.0
4719.495,203.0
4721.383,196.0
4723.2715,213.0
4725.1606,208.0
4727.051,233.0
4728.9414,227.0
4730.833,219.0
4732.725,243.0
4734.618,191.0
4736.512,204.0
4738.4067,209.0
4740.3022,219.0
4742.198,178.0
4744.095,213.0
4745.9927,215.0
4747.891,233.0
4749.79,213.0
4751.69,182.0
4753.591,208.0
4755.492,191.0
4757.3945,187.0
4759.2974,200.0
4761.201,232.0
4763.1055,219.0
4765.0107,216.0
4766.9165,173.0
4768.823,182.0
4770.731,213.0
4772.639,195.0
4774.5483,206.0
4776.458,182.0
4778.3687,187.0
4780.28,190.0
4782.192,195.0
4784.105,205.0
4786.0186,164.0
4787.933,193.0
4789.848,200.0
4791.764,210.0
4793.6807,170.0
4795.598,178.0
4797.5166,195.0
4799.4355,210.0
4801.3555,197.0
4803.276,188.0
4805.1973,191.0
4807.119,200.0
4809.042,201.0
4810.966,215.0
4812.89,200.0
4814.8154,220.0
4816.741,201.0
4818.668,194.0
4820.595,199.0
4822.5234,188.0
4824.4526,209.0
4826.3823,191.0
4828.313,210.0
4830.244,197.0
4832.1763,185.0
4834.1094,176.0
4836.043,212.0
4837.9775,182.0
4839.9126,203.0
4841.8486,198.0
4843.785,189.0
4845.7227,199.0
4847.661,207.0
4849.6,200.0
4851.54,170.0
4853.4805,174.0
4855.422,200.0
4857.3643,219.0
4859.307,185.0
4861.251,186.0
4863.1953,204.0
4865.1406,209.0
4867.087,221.0
4869.0337,194.0
4870.9814,181.0
4872.9297,209.0
4874.879,205.0
4876.829,207.0
4878.78,208.0
4880.7314,183.0
4882.6836,206.0
4884.6367,197.0
4886.5903,186.0
4888.545,198.0
4890.5005,188.0
4892.4565,201.0
4894.4136,204.0
4896.3716,216.0
4898.33,167.0
4900.2896,181.0
4902.2495,190.0
4904.2104,212.0
4906.1724,205.0
4908.135,192.0
4910.098,206.0
4912.062,165.0
4914.027,197.0
4915.9927,195.0
4917.959,170.0
4919.9263,239.0
4921.894,216.0
4923.863,223.0
4925.8325,216.0
4927.8027,206.0
4929.774,205.0
4931.7456,196.0
4933.7183,234.0
4935.692,212.0
4937.666,210.0
4939.641,196.0
4941.617,190.0
4943.5938,219.0
4945.5713,227.0
4947.5493,225.0
4949.5283,203.0
4951.5083,195.0
4953.489,258.0
4955.47,248.0
4957.4526,235.0
4959.4355,210.0
4961.4194,214.0
4963.404,206.0
4965.389,207.0
4967.3755,226.0
4969.3623,225.0
4971.35,205.0
4973.339,189.0
4975.328,218.0
4977.3184,223.0
4979.309,234.0
4981.301,233.0
4983.2935,229.0
4985.2866,229.0
4987.281,252.0
4989.276,245.0
4991.2715,239.0
4993.268,227.0
4995.265,253.0
4997.263,249.0
4999.262,226.0
5001.2617,233.0
5003.262,228.0
5005.2637,234.0
5007.2656,251.0
5009.2686,234.0
5011.2725,256.0
5013.277,234.0
5015.282,249.0
5017.2886,235.0
5019.2954,246.0
5021.303,232.0
5023.3115,259.0
5025.321,218.0
5027.331,227.0
5029.342,231.0
5031.3535,257.0
5033.366,253.0
5035.3794,234.0
5037.3936,212.0
5039.4087,233.0
5041.4243,237.0
5043.441,215.0
5045.4585,224.0
5047.4766,238.0
5049.4956,232.0
5051.5156,231.0
5053.536,235.0
5055.5576,231.0
5057.58,215.0
5059.603,256.0
5061.627,232.0
5063.6514,227.0
5065.677,250.0
5067.703,252.0
5069.73,230.0
5071.758,254.0
5073.7866,272.0
5075.816,247.0
5077.846,194.0
5079.8774,216.0
5081.909,243.0
5083.942,231.0
5085.9756,228.0
5088.01,224.0
5090.045,218.0
5092.081,232.0
5094.1177,242.0
5096.1553,194.0
5098.194,193.0
5100.233,243.0
5102.273,276.0
5104.314,234.0
5106.3555,244.0
5108.398,228.0
5110.4414,267.0
5112.4854,260.0
5114.5303,234.0
5116.576,221.0
5118.6226,247.0
5120.67,229.0
5122.7183,194.0
5124.7676,231.0
5126.8174,234.0
5128.868,237.0
5130.92,270.0
5132.972,235.0
5135.0254,270.0
5137.0796,222.0
5139.1343,241.0
5141.19,218.0
5143.2466,258.0
5145.3037,282.0
5147.362,267.0
5149.421,255.0
5151.4805,257.0
5153.541,198.0
5155.6025,245.0
5157.6646,234.0
5159.7275,260.0
5161.7915,266.0
5163.8564,242.0
5165.922,239.0
5167.9883,257.0
5170.0557,224.0
5172.1235,207.0
5174.1924,254.0
5176.262,269.0
5178.3325,276.0
5180.404,235.0
5182.476,271.0
5184.549,249.0
5186.6226,233.0
5188.6973,248.0
5190.773,267.0
5192.849,251.0
5194.9263,211.0
5197.0044,239.0
5199.083,224.0
5201.1626,245.0
5203.243,268.0
5205.324,282.0
5207.4062,248.0
5209.4893,214.0
5211.573,231.0
5213.6577,233.0
5215.743,245.0
5217.8296,242.0
5219.9165,251.0
5222.0044,255.0
5224.0933,271.0
5226.183,255.0
5228.2734,244.0
5230.3647,244.0
5232.457,280.0
5234.55,231.0
5236.6436,243.0
5238.7383,256.0
5240.834,266.0
5242.93,202.0
5245.0273,267.0
5247.1255,259.0
5249.224,262.0
5251.3237,227.0
5253.4243,265.0
5255.526,237.0
5257.628,240.0
5259.731,246.0
5261.835,254.0
5263.9395,259.0
5266.045,250.0
5268.1514,230.0
5270.259,239.0
5272.3667,245.0
5274.4756,221.0
5276.5854,255.0
5278.6963,277.0
5280.8076,259.0
5282.92,299.0
5285.033,267.0
5287.147,267.0
5289.2617,275.0
5291.3774,251.0
5293.494,237.0
5295.6113,233.0
5297.7295,284.0
5299.8486,302.0
5301.9688,282.0
5304.0894,263.0
5306.211,230.0
5308.3335,223.0
5310.457,225.0
5312.581,228.0
5314.706,238.0
5316.832,320.0
5318.959,360.0
5321.0864,290.0
5323.215,224.0
5325.344,262.0
5327.4746,262.0
5329.6055,263.0
5331.7373,253.0
5333.87,235.0
5336.004,257.0
5338.138,230.0
5340.2734,235.0
5342.4097,265.0
5344.547,278.0
5346.6846,230.0
5348.823,235.0
5350.963,255.0
5353.1035,229.0
5355.2446,245.0
5357.3867,269.0
5359.53,268.0
5361.674,248.0
5363.8184,246.0
5365.964,238.0
5368.1104,270.0
5370.258,262.0
5372.406,260.0
5374.5547,240.0
5376.7046,274.0
5378.8555,274.0
5381.007,282.0
5383.159,264.0
5385.3125,214.0
5387.467,241.0
5389.6216,250.0
5391.7773,299.0
5393.934,281.0
5396.092,310.0
5398.25,291.0
5400.409,272.0
5402.5693,281.0
5404.7305,238.0
5406.8926,282.0
5409.055,293.0
5411.2188,282.0
5413.3833,255.0
5415.549,266.0
5417.715,280.0
5419.882,265.0
5422.05,279.0
5424.2188,262.0
5426.3887,281.0
5428.559,237.0
5430.7305,257.0
5432.903,268.0
5435.076,270.0
5437.25,242.0
5439.425,257.0
5441.6006,269.0
5443.7773,284.0
5445.955,252.0
5448.1333,258.0
5450.3125,245.0
5452.4927,265.0
5454.674,248.0
5456.8555,266.0
5459.038,288.0
5461.2217,245.0
5463.4062,242.0
5465.592,228.0
5467.778,260.0
5469.965,288.0
5472.153,281.0
5474.342,274.0
5476.5317,279.0
5478.722,296.0
5480.9136,264.0
5483.106,263.0
5485.2993,278.0
5487.4937,281.0
5489.6885,293.0
5491.8843,297.0
5494.081,266.0
5496.279,269.0
5498.4775,255.0
5500.677,272.0
5502.877,305.0
5505.078,286.0
5507.2803,316.0
5509.4834,274.0
5511.687,297.0
5513.8916,256.0
5516.097,271.0
5518.3037,294.0
5520.511,294.0
5522.719,305.0
5524.928,304.0
5527.138,270.0
5529.349,259.0
5531.561,277.0
5533.7734,261.0
5535.987,275.0
5538.201,288.0
5540.4165,303.0
5542.633,287.0
5544.85,228.0
5547.068,300.0
5549.2866,270.0
5551.5063,256.0
5553.727,258.0
5555.9487,337.0
5558.171,290.0
5560.394,294.0
5562.618,294.0
5564.8433,274.0
5567.0693,278.0
5569.2964,287.0
5571.524,247.0
5573.7524,280.0
5575.982,271.0
5578.2124,251.0
5580.444,276.0
5582.676,281.0
5584.9087,276.0
5587.1426,252.0
5589.3774,280.0
5591.6133,268.0
5593.85,278.0
5596.0874,250.0
5598.3257,242.0
5600.565,268.0
5602.805,288.0
5605.0464,271.0
5607.2886,229.0
5609.5312,220.0
5611.775,251.0
5614.0195,298.0
5616.265,290.0
5618.5117,248.0
5620.7593,245.0
5623.008,265.0
5625.257,258.0
5627.507,253.0
5629.758,227.0
5632.01,277.0
5634.2627,292.0
5636.5166,267.0
5638.771,263.0
5641.0264,242.0
5643.2827,263.0
5645.54,260.0
5647.7983,257.0
5650.0576,264.0
5652.318,260.0
5654.5786,232.0
5656.8403,260.0
5659.103,253.0
5661.3667,259.0
5663.6313,251.0
5665.897,266.0
5668.1636,267.0
5670.4307,260.0
5672.6987,247.0
5674.968,280.0
5677.238,240.0
5679.509,278.0
5681.781,261.0
5684.0537,259.0
5686.327,290.0
5688.6016,255.0
5690.877,291.0
5693.1533,258.0
5695.4307,278.0
5697.709,284.0
5699.9883,300.0
5702.268,260.0
5704.549,290.0
5706.8306,275.0
5709.1133,275.0
5711.397,308.0
5713.6816,265.0
5715.9673,274.0
5718.254,287.0
5720.541,311.0
5722.829,290.0
5725.118,331.0
5727.408,325.0
5729.699,294.0
5731.991,305.0
5734.284,298.0
5736.578,329.0
5738.8726,278.0
5741.168,297.0
5743.4644,293.0
5745.7617,301.0
5748.06,300.0
5750.3594,321.0
5752.6597,338.0
5754.961,352.0
5757.2627,338.0
5759.5654,323.0
5761.869,334.0
5764.174,320.0
5766.4795,312.0
5768.786,334.0
5771.0938,357.0
5773.4023,369.0
5775.712,367.0
5778.022,384.0
5780.333,362.0
5782.645,368.0
5784.958,376.0
5787.272,347.0
5789.587,392.0
5791.903,390.0
5794.2197,331.0
5796.5376,353.0
5798.8564,363.0
5801.176,381.0
5803.496,374.0
5805.8174,404.0
5808.1396,372.0
5810.463,362.0
5812.787,391.0
5815.1123,413.0
5817.4385,411.0
5819.7656,435.0
5822.0938,445.0
5824.4224,385.0
5826.752,363.0
5829.0825,386.0
5831.414,457.0
5833.7466,405.0
5836.08,406.0
5838.4146,511.0
5840.75,479.0
5843.0864,447.0
5845.424,390.0
5847.762,406.0
5850.101,402.0
5852.441,398.0
5854.7817,410.0
5857.1235,391.0
5859.4663,388.0
5861.81,400.0
5864.155,384.0
5866.5005,393.0
5868.847,382.0
5871.195,415.0
5873.5435,406.0
5875.893,385.0
5878.2437,362.0
5880.5947,405.0
5882.947,344.0
5885.3,390.0
5887.654,413.0
5890.009,422.0
5892.3647,380.0
5894.7217,347.0
5897.0796,381.0
5899.4385,405.0
5901.7983,419.0
5904.159,377.0
5906.521,372.0
5908.884,395.0
5911.2476,426.0
5913.612,394.0
5915.977,384.0
5918.3433,406.0
5920.7104,391.0
5923.0786,353.0
5925.4478,403.0
5927.818,393.0
5930.189,424.0
5932.561,422.0
5934.934,441.0
5937.308,417.0
5939.683,407.0
5942.059,468.0
5944.436,429.0
5946.814,413.0
5949.193,416.0
5951.5728,380.0
5953.9536,383.0
5956.335,402.0
5958.7173,441.0
5961.1006,487.0
5963.485,419.0
5965.87,419.0
5968.2563,405.0
5970.6436,441.0
5973.0317,424.0
5975.421,452.0
5977.811,461.0
5980.202,458.0
5982.594,408.0
5984.9873,437.0
5987.3813,415.0
5989.7764,383.0
5992.1724,448.0
5994.5693,455.0
5996.9673,444.0
5999.366,440.0
6001.766,493.0
6004.167,490.0
6006.569,424.0
6008.9717,442.0
6011.3755,510.0
6013.7803,440.0
6016.1855,444.0
6018.592,509.0
6020.999,464.0
6023.407,389.0
6025.8164,399.0
6028.2266,414.0
6030.6377,418.0
6033.05,438.0
6035.463,438.0
6037.877,482.0
6040.292,379.0
6042.708,404.0
6045.125,458.0
6047.543,477.0
6049.962,399.0
6052.382,344.0
6054.8027,380.0
6057.2246,349.0
6059.6475,378.0
6062.0713,510.0
6064.496,498.0
6066.922,429.0
6069.3486,383.0
6071.7764,368.0
6074.205,399.0
6076.635,357.0
6079.0654,398.0
6081.497,390.0
6083.9297,450.0
6086.3633,389.0
6088.798,392.0
6091.2334,397.0
6093.67,383.0
6096.1074,404.0
6098.546,386.0
6100.9854,398.0
6103.426,372.0
6105.867,395.0
6108.3096,398.0
6110.753,428.0
6113.1973,421.0
6115.6426,418.0
6118.089,417.0
6120.536,428.0
6122.9844,394.0
6125.4336,399.0
6127.884,418.0
6130.335,467.0
6132.787,527.0
6135.24,445.0
6137.6943,446.0
6140.1494,425.0
6142.6055,424.0
6145.0625,501.0
6147.5205,501.0
6149.9795,611.0
6152.4395,522.0
6154.9004,529.0
6157.3623,543.0
6159.825,587.0
6162.289,547.0
6164.754,508.0
6167.2197,481.0
6169.6865,479.0
6172.1543,533.0
6174.623,768.0
6177.093,839.0
6179.5635,604.0
6182.035,521.0
6184.508,515.0
6186.9814,508.0
6189.456,555.0
6191.9316,825.0
6194.408,940.0
6196.8857,729.0
6199.3643,649.0
6201.844,583.0
6204.325,548.0
6206.807,504.0
6209.29,489.0
6211.774,506.0
6214.259,598.0
6216.7446,643.0
6219.2314,599.0
6221.719,525.0
6224.208,452.0
6226.6978,478.0
6229.1885,588.0
6231.68,635.0
6234.173,585.0
6236.6665,558.0
6239.161,559.0
6241.6567,465.0
6244.1533,541.0
6246.651,620.0
6249.1494,709.0
6251.649,585.0
6254.1494,615.0
6256.651,663.0
6259.1533,679.0
6261.6567,596.0
6264.1616,528.0
6266.6675,489.0
6269.1743,474.0
6271.682,815.0
6274.191,1120.0
6276.7007,848.0
6279.2114,569.0
6281.723,478.0
6284.236,434.0
6286.7495,507.0
6289.264,1085.0
6291.78,1628.0
6294.2964,1144.0
6296.814,710.0
6299.3325,526.0
6301.852,465.0
6304.3726,474.0
6306.8945,451.0
6309.4175,460.0
6311.9414,513.0
6314.4663,514.0
6316.992,499.0
6319.519,398.0
6322.047,459.0
6324.5757,380.0
6327.1055,413.0
6329.636,482.0
6332.168,458.0
6334.7007,418.0
6337.2344,382.0
6339.769,412.0
6342.305,403.0
6344.8423,386.0
6347.3804,404.0
6349.9194,416.0
6352.4595,415.0
6355.0005,391.0
6357.5425,372.0
6360.0854,436.0
6362.6294,406.0
6365.1743,408.0
6367.72,418.0
6370.267,425.0
6372.8154,397.0
6375.3647,421.0
6377.915,388.0
6380.4663,411.0
6383.0186,444.0
6385.572,403.0
6388.126,445.0
6390.681,471.0
6393.2373,406.0
6395.7944,444.0
6398.3525,445.0
6400.912,443.0
6403.4727,439.0
6406.034,433.0
6408.5967,433.0
6411.16,425.0
6413.7246,446.0
6416.29,445.0
6418.8564,405.0
6421.424,392.0
6423.992,399.0
6426.562,380.0
6429.133,457.0
6431.7046,455.0
6434.2773,417.0
6436.851,459.0
6439.426,387.0
6442.0015,417.0
6444.578,424.0
6447.156,495.0
6449.735,465.0
6452.315,412.0
6454.896,396.0
6457.478,430.0
6460.061,406.0
6462.645,435.0
6465.23,446.0
6467.816,389.0
6470.403,397.0
6472.991,415.0
6475.5806,395.0
6478.171,438.0
6480.762,429.0
6483.3545,426.0
6485.9478,409.0
6488.542,459.0
6491.137,405.0
6493.734,458.0
6496.3315,465.0
6498.93,450.0
6501.53,459.0
6504.1304,425.0
6506.732,479.0
6509.3345,447.0
6511.938,445.0
6514.543,498.0
6517.149,480.0
6519.756,443.0
6522.364,481.0
6524.9727,540.0
6527.5825,520.0
6530.1934,502.0
6532.8057,482.0
6535.419,500.0
6538.033,508.0
6540.6484,551.0
6543.2646,524.0
6545.882,515.0
6548.5,524.0
6551.1196,509.0
6553.74,506.0
6556.362,605.0
6558.9844,636.0
6561.608,571.0
6564.2324,506.0
6566.858,502.0
6569.485,489.0
6572.113,524.0
6574.7417,561.0
6577.3716,553.0
6580.0024,497.0
6582.6343,561.0
6585.267,539.0
6587.9014,550.0
6590.5366,584.0
6593.173,551.0
6595.81,537.0
6598.448,493.0
6601.0874,516.0
6603.728,525.0
6606.3696,493.0
6609.012,525.0
6611.656,544.0
6614.3003,571.0
6616.946,513.0
6619.593,531.0
6622.2407,524.0
6624.8896,567.0
6627.5396,549.0
6630.1904,522.0
6632.8423,490.0
6635.4956,532.0
6638.15,622.0
6640.805,613.0
6643.4614,568.0
6646.1187,558.0
6648.7773,543.0
6651.437,512.0
6654.0977,558.0
6656.7593,653.0
6659.422,649.0
6662.0854,523.0
6664.7505,463.0
6667.4165,495.0
6670.0835,444.0
6672.7515,471.0
6675.4204,540.0
6678.091,499.0
6680.762,554.0
6683.4346,504.0
6686.108,429.0
6688.782,505.0
6691.4575,490.0
6694.1343,498.0
6696.812,563.0
6699.4907,536.0
6702.1704,511.0
6704.851,496.0
6707.533,537.0
6710.2163,538.0
6712.9004,551.0
6715.5854,555.0
6718.2715,574.0
6720.959,559.0
6723.6475,559.0
6726.337,611.0
6729.0273,570.0
6731.7188,591.0
6734.4116,548.0
6737.1055,592.0
6739.8003,646.0
6742.496,689.0
6745.193,612.0
6747.891,573.0
6750.5903,553.0
6753.2905,561.0
6755.9917,656.0
6758.6943,835.0
6761.398,739.0
6764.1025,647.0
6766.808,662.0
6769.5146,606.0
6772.2227,595.0
6774.9316,678.0
6777.6416,721.0
6780.3525,722.0
6783.0645,724.0
6785.778,692.0
6788.492,630.0
6791.2075,701.0
6793.924,618.0
6796.6416,627.0
6799.3604,667.0
6802.08,673.0
6804.801,662.0
6807.5225,772.0
6810.2456,767.0
6812.9697,636.0
6815.695,609.0
6818.421,553.0
6821.1484,643.0
6823.877,846.0
6826.6064,872.0
6829.337,730.0
6832.069,619.0
6834.802,525.0
6837.5356,560.0
6840.2705,696.0
6843.007,928.0
6845.744,810.0
6848.4824,659.0
6851.2217,507.0
6853.9624,576.0
6856.704,656.0
6859.447,701.0
6862.1904,618.0
6864.9355,596.0
6867.6816,570.0
6870.4287,585.0
6873.177,511.0
6875.9263,591.0
6878.677,556.0
6881.428,507.0
6884.1807,566.0
6886.9346,598.0
6889.6895,531.0
6892.4453,482.0
6895.202,541.0
6897.9604,493.0
6900.7197,530.0
6903.48,576.0
6906.241,566.0
6909.004,537.0
6911.7676,595.0
6914.532,557.0
6917.298,603.0
6920.065,621.0
6922.833,572.0
6925.602,537.0
6928.372,602.0
6931.1436,585.0
6933.916,565.0
6936.6895,554.0
6939.4644,536.0
6942.24,503.0
6945.017,538.0
6947.795,622.0
6950.574,604.0
6953.3545,587.0
6956.1357,590.0
6958.918,569.0
6961.7017,553.0
6964.4863,612.0
6967.272,533.0
6970.059,544.0
6972.847,566.0
6975.636,588.0
6978.4263,639.0
6981.218,668.0
6984.0103,647.0
6986.8037,640.0
6989.5986,632.0
6992.3945,614.0
6995.1914,608.0
6997.9893,704.0
7000.7886,785.0
7003.589,734.0
7006.39,691.0
7009.193,690.0
7011.9966,694.0
7014.8013,763.0
7017.6074,818.0
7020.4146,842.0
7023.2227,784.0
7026.0317,907.0
7028.8423,879.0
7031.654,635.0
7034.4663,586.0
7037.2803,630.0
7040.095,780.0
7042.911,1093.0
7045.7285,900.0
7048.547,686.0
7051.366,633.0
7054.1865,623.0
7057.0083,860.0
7059.831,1389.0
7062.655,1291.0
7065.48,872.0
7068.306,700.0
7071.1333,690.0
7073.962,627.0
7076.7915,662.0
7079.622,700.0
7082.454,769.0
7085.287,726.0
7088.121,634.0
7090.9565,676.0
7093.793,674.0
7096.6304,643.0
7099.469,772.0
7102.309,684.0
7105.15,728.0
7107.992,723.0
7110.8354,746.0
7113.6797,779.0
7116.5254,717.0
7119.372,734.0
7122.2197,778.0
7125.069,915.0
7127.919,883.0
7130.77,854.0
7133.6226,814.0
7136.476,766.0
7139.3306,966.0
7142.1865,1034.0
7145.0435,920.0
7147.9014,870.0
7150.7607,857.0
7153.621,936.0
7156.4824,1232.0
7159.345,1320.0
7162.209,1075.0
7165.0737,963.0
7167.94,1033.0
7170.807,1064.0
7173.6753,1054.0
7176.545,1005.0
7179.4155,1050.0
7182.287,993.0
7185.16,981.0
7188.034,1100.0
7190.909,1080.0
7193.7856,1024.0
7196.663,1193.0
7199.542,1358.0
7202.422,1064.0
7205.3027,792.0
7208.185,763.0
7211.0684,890.0
7213.9526,1609.0
7216.8384,1604.0
7219.725,1038.0
7222.613,810.0
7225.502,744.0
7228.392,1006.0
7231.283,2181.0
7234.176,2285.0
7237.0693,1336.0
7239.9644,888.0
7242.8604,744.0
7245.7573,744.0
7248.656,690.0
7251.555,746.0
7254.4556,824.0
7257.3574,783.0
7260.2603,724.0
7263.1646,605.0
7266.07,624.0
7268.976,708.0
7271.884,678.0
7274.7925,609.0
7277.7026,604.0
7280.614,629.0
7283.526,637.0
7286.4395,657.0
7289.354,643.0
7292.2695,655.0
7295.1865,738.0
7298.1045,706.0
7301.024,702.0
7303.9443,613.0
7306.8657,591.0
7309.7886,707.0
7312.7124,944.0
7315.6377,816.0
7318.564,616.0
7321.491,565.0
7324.42,566.0
7327.3496,677.0
7330.281,953.0
7333.213,854.0
7336.146,716.0
7339.0806,565.0
7342.016,537.0
7344.953,597.0
7347.891,742.0
7350.83,719.0
7353.7705,598.0
7356.712,616.0
7359.655,594.0
7362.5986,551.0
7365.5435,540.0
7368.4897,518.0
7371.437,551.0
7374.3857,573.0
7377.3354,577.0
7380.2866,474.0
7383.239,582.0
7386.192,539.0
7389.1465,552.0
7392.102,559.0
7395.059,497.0
7398.017,580.0
7400.976,608.0
7403.9365,579.0
7406.898,505.0
7409.861,487.0
7412.8247,482.0
7415.79,554.0
7418.7563,690.0
7421.7236,605.0
7424.6924,501.0
7427.662,431.0
7430.6333,465.0
7433.6055,619.0
7436.579,621.0
7439.5537,540.0
7442.5293,514.0
7445.5063,468.0
7448.4844,421.0
7451.464,392.0
7454.4443,428.0
7457.4263,478.0
7460.409,439.0
7463.3936,441.0
7466.379,399.0
7469.365,468.0
7472.353,425.0
7475.342,426.0
7478.332,402.0
7481.323,387.0
7484.316,467.0
7487.3096,514.0
7490.3047,441.0
7493.301,396.0
7496.2983,376.0
7499.297,419.0
7502.2964,437.0
7505.2974,478.0
7508.2993,400.0
7511.3027,387.0
7514.307,413.0
7517.313,417.0
7520.32,391.0
7523.328,374.0
7526.3374,421.0
7529.348,460.0
7532.36,408.0
7535.373,371.0
7538.387,360.0
7541.4023,396.0
7544.419,448.0
7547.4365,494.0
7550.4556,401.0
7553.4756,403.0
7556.497,367.0
7559.5195,419.0
7562.5435,521.0
7565.5684,513.0
7568.5947,470.0
7571.622,405.0
7574.651,410.0
7577.6807,397.0
7580.712,356.0
7583.744,390.0
7586.778,409.0
7589.8125,370.0
7592.8486,376.0
7595.8857,351.0
7598.9243,436.0
7601.964,391.0
7605.005,409.0
7608.047,352.0
7611.0903,366.0
7614.135,403.0
7617.18,488.0
7620.227,414.0
7623.275,396.0
7626.324,361.0
7629.3745,367.0
7632.4263,388.0
7635.479,376.0
7638.533,355.0
7641.5884,376.0
7644.645,378.0
7647.7026,385.0
7650.7617,363.0
7653.8223,386.0
7656.884,397.0
7659.947,425.0
7663.0107,364.0
7666.076,372.0
7669.1426,353.0
7672.2104,387.0
7675.2793,440.0
7678.3496,383.0
7681.421,386.0
7684.4937,388.0
7687.5674,446.0
7690.6426,399.0
7693.7188,435.0
7696.7964,433.0
7699.875,438.0
7702.955,442.0
7706.036,458.0
7709.1187,455.0
7712.202,423.0
7715.287,470.0
7718.373,477.0
7721.4604,421.0
7724.549,481.0
7727.6387,486.0
7730.7295,496.0
7733.822,462.0
7736.9155,480.0
7740.0103,476.0
7743.1064,552.0
7746.2036,532.0
7749.3022,554.0
7752.402,548.0
7755.503,542.0
7758.605,538.0
7761.7085,485.0
7764.813,516.0
7767.919,554.0
7771.026,674.0
7774.1343,606.0
7777.244,573.0
7780.355,511.0
7783.4673,601.0
7786.5806,618.0
7789.6953,706.0
7792.811,684.0
7795.928,598.0
7799.0464,579.0
7802.166,540.0
7805.287,628.0
7808.409,670.0
7811.5327,762.0
7814.657,684.0
7817.783,599.0
7820.91,558.0
7824.0386,580.0
7827.168,844.0
7830.299,806.0
7833.431,657.0
7836.5645,638.0
7839.699,587.0
7842.835,663.0
7845.972,855.0
7849.1104,882.0
7852.25,714.0
7855.391,622.0
7858.533,623.0
7861.677,661.0
7864.8213,676.0
7867.9673,621.0
7871.1143,646.0
7874.2627,671.0
7877.4126,672.0
7880.5635,709.0
7883.716,772.0
7886.869,697.0
7890.024,627.0
7893.18,604.0
7896.3374,717.0
7899.496,912.0
7902.656,875.0
7905.817,696.0
7908.979,687.0
7912.1426,620.0
7915.3076,921.0
7918.4736,1183.0
7921.641,968.0
7924.8096,784.0
7927.9795,722.0
7931.151,699.0
7934.323,685.0
7937.497,787.0
7940.672,876.0
7943.848,818.0
7947.026,725.0
7950.2046,764.0
7953.385,835.0
7956.566,830.0
7959.7485,874.0
7962.9326,869.0
7966.1177,873.0
7969.304,1004.0
7972.4917,1013.0
7975.6807,855.0
7978.871,934.0
7982.0625,976.0
7985.2554,1083.0
7988.4497,1157.0
7991.645,1154.0
7994.842,1032.0
7998.0396,1046.0
8001.239,1069.0
8004.4395,1372.0
8007.641,1319.0
8010.844,1332.0
8014.0483,1254.0
8017.254,1303.0
8020.461,1335.0
8023.669,1352.0
8026.8784,1375.0
8030.0894,1382.0
8033.3013,1441.0
8036.5146,1563.0
8039.7295,1693.0
8042.9453,1688.0
8046.1626,1612.0
8049.381,1642.0
8052.6006,1850.0
8055.822,2130.0
8059.044,2222.0
8062.2676,2029.0
8065.4927,2180.0
8068.7188,2241.0
8071.9463,2365.0
8075.1753,2428.0
8078.4053,2646.0
8081.6367,3047.0
8084.869,3266.0
8088.103,3007.0
8091.3384,2666.0
8094.5747,2698.0
8097.8125,3459.0
8101.052,4562.0
8104.292,4461.0
8107.5337,3874.0
8110.777,3565.0
8114.021,3514.0
8117.2666,4394.0
8120.5137,5500.0
8123.7617,5790.0
8127.011,5944.0
8130.262,4836.0
8133.514,4490.0
8136.7676,5046.0
8140.0225,6390.0
8143.2783,8437.0
8146.5356,7796.0
8149.7944,6211.0
8153.054,7077.0
8156.3154,6844.0
8159.578,7748.0
8162.842,9353.0
8166.107,9010.0
8169.3735,12897.0
8172.641,12358.0
8175.91,7784.0
8179.1807,4817.0
8182.452,5773.0
8185.725,19264.0
8188.9995,24418.0
8192.275,12051.0
8195.553,5648.0
8198.831,4715.0
8202.11,18538.0
8205.392,43479.0
8208.674,27885.0
8211.957,10566.0
8215.242,4734.0
8218.528,3715.0
8221.815,3672.0
8225.1045,5743.0
8228.395,6817.0
8231.686,4792.0
8234.979,2694.0
8238.272,1926.0
8241.567,2217.0
8244.864,2437.0
8248.162,2485.0
8251.461,2178.0
8254.762,1739.0
8258.063,1451.0
8261.367,1467.0
8264.672,1508.0
8267.978,1555.0
8271.285,1625.0
8274.594,1389.0
8277.903,1203.0
8281.215,1224.0
8284.527,1212.0
8287.841,1432.0
8291.156,1461.0
8294.473,1274.0
8297.79,1228.0
8301.109,1239.0
8304.43,1325.0
8307.751,1490.0
8311.074,1460.0
8314.398,1462.0
8317.725,1450.0
8321.052,1355.0
8324.38,1253.0
8327.71,1438.0
8331.041,1814.0
8334.373,1672.0
8337.707,1300.0
8341.042,1261.0
8344.378,1334.0
8347.716,1867.0
8351.055,2071.0
8354.3955,1600.0
8357.737,1489.0
8361.08,1454.0
8364.425,1245.0
8367.7705,1149.0
8371.117,1168.0
8374.466,1641.0
8377.815,1664.0
8381.167,1310.0
8384.52,1020.0
8387.873,1050.0
8391.229,1544.0
8394.585,1947.0
8397.942,1560.0
8401.302,1149.0
8404.662,1000.0
8408.024,1085.0
8411.388,1026.0
8414.752,1084.0
8418.118,1072.0
8421.485,880.0
8424.854,776.0
8428.224,792.0
8431.595,926.0
8434.968,878.0
8438.342,840.0
8441.717,872.0
8445.094,805.0
8448.472,940.0
8451.851,906.0
8455.231,844.0
8458.613,888.0
8461.997,931.0
8465.382,1026.0
8468.768,997.0
8472.155,1108.0
8475.544,1111.0
8478.935,987.0
8482.326,1033.0
8485.719,1186.0
8489.113,1372.0
8492.509,1400.0
8495.906,1300.0
8499.305,1229.0
8502.704,1363.0
8506.105,1523.0
8509.508,1675.0
8512.911,1510.0
8516.316,1653.0
8519.723,1878.0
8523.131,1683.0
8526.54,1877.0
8529.95,1782.0
8533.362,2517.0
8536.775,2963.0
8540.19,2118.0
8543.606,1387.0
8547.023,1399.0
8550.442,3038.0
8553.862,4254.0
8557.284,2714.0
8560.707,1651.0
8564.131,1502.0
8567.557,3655.0
8570.983,6391.0
8574.412,4195.0
8577.842,2291.0
8581.272,1589.0
8584.705,1270.0
8588.139,1253.0
8591.574,1681.0
8595.011,2044.0
8598.449,1740.0
8601.889,1168.0
8605.329,859.0
8608.771,900.0
8612.215,904.0
8615.66,856.0
8619.106,935.0
8622.554,829.0
8626.003,741.0
8629.453,674.0
8632.905,732.0
8636.358,750.0
8639.8125,783.0
8643.269,804.0
8646.726,724.0
8650.185,673.0
8653.645,746.0
8657.106,695.0
8660.569,769.0
8664.033,736.0
8667.499,790.0
8670.966,811.0
8674.435,766.0
8677.904,836.0
8681.375,822.0
8684.848,765.0
8688.321,809.0
8691.797,872.0
8695.273,884.0
8698.752,973.0
8702.231,873.0
8705.712,982.0
8709.194,974.0
8712.678,1065.0
8716.163,1121.0
8719.649,1059.0
8723.138,1070.0
8726.627,1038.0
8730.117,1035.0
8733.609,1079.0
8737.103,1062.0
8740.598,1157.0
8744.094,1069.0
8747.592,1065.0
8751.091,1149.0
8754.591,1304.0
8758.093,1371.0
8761.596,1231.0
8765.101,1206.0
8768.606,1276.0
8772.114,1550.0
8775.623,1473.0
8779.133,1414.0
8782.645,1591.0
8786.157,1412.0
8789.672,1470.0
8793.1875,1508.0
8796.705,2021.0
8800.224,2197.0
8803.744,1647.0
8807.266,1267.0
8810.788,1418.0
8814.3125,2735.0
8817.838,3033.0
8821.365,1885.0
8824.894,1444.0
8828.424,1631.0
8831.955,3189.0
8835.488,3343.0
8839.022,2357.0
8842.558,1802.0
8846.095,1583.0
8849.633,1315.0
8853.173,1461.0
8856.714,1990.0
8860.257,2363.0
8863.801,1740.0
8867.347,1328.0
8870.894,1394.0
8874.442,2073.0
8877.992,2843.0
8881.543,2259.0
8885.096,1686.0
8888.649,1388.0
8892.205,1321.0
8895.762,1462.0
8899.32,1933.0
8902.88,1937.0
8906.441,1523.0
8910.004,1212.0
8913.568,1424.0
8917.134,2088.0
8920.7,1989.0
8924.269,1585.0
8927.838,1317.0
8931.409,1467.0
8934.981,2269.0
8938.556,2228.0
8942.131,1560.0
8945.708,1437.0
8949.286,1238.0
8952.866,1136.0
8956.447,1316.0
8960.03,1522.0
8963.614,1417.0
8967.199,1186.0
8970.786,1088.0
8974.374,1127.0
8977.964,1308.0
8981.555,1205.0
8985.147,1034.0
8988.741,984.0
8992.337,1120.0
8995.934,1152.0
8999.532,1155.0
9003.132,1056.0
9006.733,1073.0
9010.336,1125.0
9013.94,1078.0
9017.546,1088.0
9021.153,1072.0
9024.762,1150.0
9028.372,1062.0
9031.983,973.0
9035.597,950.0
9039.211,961.0
9042.826,1147.0
9046.443,1112.0
9050.062,973.0
9053.682,848.0
9057.303,1019.0
9060.926,1336.0
9064.55,1256.0
9068.176,913.0
9071.803,837.0
9075.432,1022.0
9079.062,1227.0
9082.693,1086.0
9086.326,918.0
9089.961,822.0
9093.597,1012.0
9097.234,1156.0
9100.873,937.0
9104.514,893.0
9108.155,867.0
9111.799,726.0
9115.443,721.0
9119.09,847.0
9122.737,951.0
9126.387,875.0
9130.037,738.0
9133.689,718.0
9137.343,953.0
9140.998,975.0
9144.654,917.0
9148.3125,820.0
9151.972,808.0
9155.633,764.0
9159.295,779.0
9162.959,953.0
9166.624,903.0
9170.291,736.0
9173.959,640.0
9177.629,793.0
9181.3,1230.0
9184.973,1139.0
9188.646,857.0
9192.322,727.0
9195.999,967.0
9199.678,1135.0
9203.357,952.0
9207.039,871.0
9210.722,726.0
9214.406,620.0
9218.092,564.0
9221.779,727.0
9225.468,859.0
9229.158,674.0
9232.85,562.0
9236.543,548.0
9240.237,776.0
9243.934,996.0
9247.631,722.0
9251.33,585.0
9255.03,495.0
9258.732,428.0
9262.436,530.0
9266.141,601.0
9269.847,519.0
9273.555,425.0
9277.264,399.0
9280.975,457.0
9284.687,487.0
9288.4,419.0
9292.116,394.0
9295.833,394.0
9299.552,411.0
9303.271,407.0
9306.993,425.0
9310.716,391.0
9314.44,393.0
9318.166,338.0
9321.894,364.0
9325.622,400.0
9329.353,334.0
9333.084,338.0
9336.817,359.0
9340.552,332.0
9344.288,373.0
9348.025,359.0
9351.765,353.0
9355.505,324.0
9359.247,382.0
9362.991,335.0
9366.736,343.0
9370.483,325.0
9374.231,354.0
9377.981,348.0
9381.732,345.0
9385.485,326.0
9389.239,323.0
9392.995,319.0
9396.752,368.0
9400.511,339.0
9404.2705,296.0
9408.032,296.0
9411.796,319.0
9415.561,336.0
9419.327,311.0
9423.095,361.0
9426.864,348.0
9430.635,308.0
9434.407,305.0
9438.181,299.0
9441.956,356.0
9445.732,382.0
9449.511,321.0
9453.291,284.0
9457.072,317.0
9460.855,346.0
9464.64,341.0
9468.426,324.0
9472.213,282.0
9476.002,302.0
9479.792,289.0
9483.584,296.0
9487.377,345.0
9491.172,335.0
9494.969,285.0
9498.767,269.0
9502.566,267.0
9506.367,361.0
9510.17,328.0
9513.974,287.0
9517.779,269.0
9521.586,258.0
9525.395,249.0
9529.205,293.0
9533.017,302.0
9536.83,284.0
9540.645,261.0
9544.461,295.0
9548.278,303.0
9552.098,320.0
9555.919,263.0
9559.741,251.0
9563.565,258.0
9567.391,270.0
9571.218,280.0
9575.046,278.0
9578.876,245.0
9582.708,218.0
9586.541,251.0
9590.376,277.0
9594.212,222.0
9598.05,213.0
9601.889,233.0
9605.7295,219.0
9609.572,226.0
9613.416,245.0
9617.262,250.0
9621.108,202.0
9624.957,193.0
9628.807,238.0
9632.658,192.0
9636.512,239.0
9640.366,207.0
9644.223,217.0
9648.08,210.0
9651.939,224.0
9655.8,215.0
9659.662,213.0
9663.526,222.0
9667.392,181.0
9671.259,217.0
9675.127,213.0
9678.997,229.0
9682.869,257.0
9686.742,183.0
9690.617,187.0
9694.493,189.0
9698.371,180.0
9702.25,182.0
9706.131,190.0
9710.014,213.0
9713.897,190.0
9717.783,191.0
9721.67,190.0
9725.559,185.0
9729.449,190.0
9733.341,202.0
9737.234,191.0
9741.129,208.0
9745.025,203.0
9748.924,182.0
9752.823,167.0
9756.725,190.0
9760.627,183.0
9764.531,193.0
9768.4375,219.0
9772.345,185.0
9776.254,198.0
9780.164,177.0
9784.076,205.0
9787.99,187.0
9791.905,180.0
9795.822,199.0
9799.74,198.0
9803.66,209.0
9807.582,187.0
9811.505,206.0
9815.43,194.0
9819.355,206.0
9823.283,172.0
9827.213,223.0
9831.144,215.0
9835.076,204.0
9839.01,212.0
9842.945,219.0
9846.883,261.0
9850.821,228.0
9854.762,223.0
9858.704,206.0
9862.647,214.0
9866.593,217.0
9870.539,222.0
9874.487,216.0
9878.4375,189.0
9882.389,216.0
9886.342,184.0
9890.296,182.0
9894.252,190.0
9898.21,196.0
9902.169,193.0
9906.13,202.0
9910.093,201.0
9914.057,213.0
9918.022,219.0
9921.989,215.0
9925.958,186.0
9929.929,198.0
9933.9,208.0
9937.874,203.0
9941.85,213.0
9945.826,179.0
9949.805,198.0
9953.784,216.0
9957.766,199.0
9961.749,215.0
9965.733,187.0
9969.72,195.0
9973.708,202.0
9977.697,176.0
9981.688,197.0
9985.681,177.0
9989.675,187.0
9993.671,185.0
9997.668,205.0
10001.667,174.0
10005.668,208.0
10009.67,180.0
10013.674,191.0
10017.68,176.0
10021.687,207.0
10025.695,166.0
10029.706,216.0
10033.718,192.0
10037.731,207.0
10041.746,173.0
10045.763,181.0
10049.781,196.0
10053.801,192.0
10057.822,190.0
10061.846,176.0
10065.87,197.0
10069.896,199.0
10073.925,208.0
10077.954,213.0
10081.985,160.0
10086.019,192.0
10090.053,175.0
10094.089,182.0
10098.127,185.0
10102.166,207.0
10106.207,208.0
10110.25,194.0
10114.294,156.0
10118.34,192.0
10122.387,208.0
10126.436,205.0
10130.486,183.0
10134.538,203.0
10138.592,207.0
10142.647,221.0
10146.704,204.0
10150.763,201.0
10154.823,213.0
10158.885,186.0
10162.948,206.0
10167.014,184.0
10171.08,190.0
10175.148,220.0
10179.219,185.0
10183.29,204.0
10187.363,219.0
10191.438,217.0
10195.515,209.0
10199.593,198.0
10203.673,196.0
10207.754,203.0
10211.837,208.0
10215.922,208.0
10220.008,211.0
10224.096,211.0
10228.186,202.0
10232.276,208.0
10236.369,216.0
10240.464,197.0
10244.56,204.0
10248.657,187.0
10252.757,202.0
10256.858,179.0
10260.961,224.0
10265.065,212.0
10269.172,225.0
10273.279,228.0
10277.389,212.0
10281.5,218.0
10285.612,194.0
10289.727,223.0
10293.843,181.0
10297.96,204.0
10302.079,221.0
10306.2,198.0
10310.322,200.0
10314.446,215.0
10318.572,213.0
10322.699,216.0
10326.828,185.0
10330.959,230.0
10335.092,203.0
10339.226,185.0
10343.361,184.0
10347.499,219.0
10351.638,241.0
10355.778,207.0
10359.921,207.0
10364.064,207.0
10368.21,206.0
10372.357,210.0
10376.507,210.0
10380.657,205.0
10384.81,196.0
10388.964,216.0
10393.119,230.0
10397.276,181.0
10401.436,226.0
10405.596,221.0
10409.758,201.0
10413.922,220.0
10418.088,201.0
10422.255,226.0
10426.424,209.0
10430.595,192.0
10434.767,211.0
10438.94,210.0
10443.116,224.0
10447.294,195.0
10451.473,211.0
10455.653,235.0
10459.836,222.0
10464.02,216.0
10468.205,220.0
10472.393,195.0
10476.581,226.0
10480.771,215.0
10484.964,244.0
10489.158,198.0
10493.354,223.0
10497.551,227.0
10501.75,216.0
10505.951,195.0
10510.153,200.0
10514.357,208.0
10518.563,239.0
10522.7705,206.0
10526.9795,192.0
10531.19,223.0
10535.403,214.0
10539.617,210.0
10543.833,236.0
10548.051,229.0
10552.27,218.0
10556.49,223.0
10560.713,217.0
10564.9375,196.0
10569.163,204.0
10573.391,226.0
10577.62,199.0
10581.852,229.0
10586.084,206.0
10590.318,223.0
10594.555,232.0
10598.793,209.0
10603.032,225.0
10607.273,231.0
10611.517,215.0
10615.761,213.0
10620.007,205.0
10624.255,245.0
10628.505,208.0
10632.756,206.0
10637.009,223.0
10641.264,214.0
10645.5205,231.0
10649.778,230.0
10654.038,222.0
10658.3,242.0
10662.563,263.0
10666.828,205.0
10671.095,215.0
10675.363,233.0
10679.634,222.0
10683.905,217.0
10688.179,212.0
10692.454,253.0
10696.731,261.0
10701.01,227.0
10705.29,221.0
10709.572,203.0
10713.856,223.0
10718.142,254.0
10722.429,199.0
10726.718,229.0
10731.009,227.0
10735.301,215.0
10739.595,228.0
10743.891,211.0
10748.188,220.0
10752.487,244.0
10756.788,244.0
10761.091,228.0
10765.3955,193.0
10769.702,227.0
10774.01,228.0
10778.319,239.0
10782.631,212.0
10786.944,228.0
10791.259,217.0
10795.575,241.0
10799.894,235.0
10804.214,226.0
10808.535,209.0
10812.858,231.0
10817.184,238.0
10821.511,247.0
10825.839,198.0
10830.169,224.0
10834.501,223.0
10838.835,219.0
10843.171,220.0
10847.508,258.0
10851.847,228.0
10856.1875,236.0
10860.53,227.0
10864.874,237.0
10869.22,263.0
10873.567,236.0
10877.917,235.0
10882.269,256.0
10886.621,228.0
10890.976,234.0
10895.332,206.0
10899.69,225.0
10904.051,250.0
10908.412,244.0
10912.775,220.0
10917.141,264.0
10921.508,262.0
10925.876,259.0
10930.246,262.0
10934.618,246.0
10938.992,248.0
10943.368,276.0
10947.745,284.0
10952.124,263.0
10956.505,264.0
10960.888,247.0
10965.272,255.0
10969.658,275.0
10974.046,280.0
10978.436,311.0
10982.827,242.0
10987.221,279.0
10991.615,253.0
10996.012,256.0
11000.41,286.0
11004.811,266.0
11009.213,272.0
11013.616,256.0
11018.021,287.0
11022.429,273.0
11026.838,278.0
11031.249,275.0
11035.661,283.0
11040.075,275.0
11044.491,258.0
11048.909,270.0
11053.329,252.0
11057.75,259.0
11062.173,294.0
11066.598,276.0
11071.024,276.0
11075.453,301.0
11079.884,277.0
11084.315,274.0
11088.749,298.0
11093.185,294.0
11097.622,285.0
11102.062,267.0
11106.502,290.0
11110.944,278.0
11115.389,288.0
11119.835,310.0
11124.283,278.0
11128.733,321.0
11133.185,309.0
11137.638,271.0
11142.093,313.0
11146.55,277.0
11151.009,296.0
11155.469,315.0
11159.931,316.0
11164.395,300.0
11168.86,294.0
11173.328,287.0
11177.798,315.0
11182.269,347.0
11186.741,310.0
11191.216,349.0
11195.692,339.0
11200.171,353.0
11204.651,327.0
11209.133,327.0
11213.616,382.0
11218.102,340.0
11222.589,339.0
11227.078,357.0
11231.569,329.0
11236.062,330.0
11240.556,359.0
11245.052,361.0
11249.55,382.0
11254.05,351.0
11258.552,435.0
11263.056,389.0
11267.561,383.0
11272.067,335.0
11276.576,396.0
11281.087,390.0
11285.6,412.0
11290.114,394.0
11294.63,401.0
11299.147,414.0
11303.667,442.0
11308.188,432.0
11312.712,413.0
11317.237,490.0
11321.765,448.0
11326.293,462.0
11330.823,484.0
11335.355,502.0
11339.89,514.0
11344.426,544.0
11348.964,523.0
11353.504,521.0
11358.045,532.0
11362.588,535.0
11367.133,561.0
11371.68,556.0
11376.229,613.0
11380.779,613.0
11385.332,651.0
11389.886,606.0
11394.441,646.0
11398.999,637.0
11403.559,696.0
11408.12,692.0
11412.684,737.0
11417.249,736.0
11421.816,658.0
11426.385,716.0
11430.955,739.0
11435.527,808.0
11440.102,797.0
11444.678,873.0
11449.256,803.0
11453.836,838.0
11458.417,877.0
11463.0,863.0
11467.585,850.0
11472.172,913.0
11476.761,928.0
11481.352,933.0
11485.944,969.0
11490.539,1038.0
11495.136,1050.0
11499.733,983.0
11504.333,963.0
11508.935,1104.0
11513.538,1129.0
11518.144,1114.0
11522.751,1116.0
11527.36,1155.0
11531.972,1207.0
11536.584,1178.0
11541.198,1166.0
11545.814,1250.0
11550.433,1167.0
11555.053,1229.0
11559.675,1239.0
11564.299,1416.0
11568.925,1278.0
11573.553,1266.0
11578.183,1307.0
11582.813,1316.0
11587.446,1170.0
11592.081,1307.0
11596.718,1399.0
11601.356,1280.0
11605.997,1225.0
11610.64,1432.0
11615.284,1382.0
11619.931,1242.0
11624.579,1366.0
11629.229,1398.0
11633.88,1248.0
11638.533,1360.0
11643.188,1564.0
11647.846,1273.0
11652.505,1135.0
11657.166,1374.0
11661.829,1542.0
11666.494,1193.0
11671.161,1156.0
11675.83,1651.0
11680.5,1473.0
11685.172,1138.0
11689.846,1047.0
11694.521,1189.0
11699.199,1084.0
11703.879,922.0
11708.561,985.0
11713.244,894.0
11717.93,798.0
11722.617,796.0
11727.307,755.0
11731.998,727.0
11736.69,675.0
11741.385,703.0
11746.081,607.0
11750.779,580.0
11755.4795,607.0
11760.182,578.0
11764.886,558.0
11769.592,576.0
11774.3,558.0
11779.01,529.0
11783.722,549.0
11788.436,520.0
11793.151,496.0
11797.868,514.0
11802.587,516.0
11807.308,487.0
11812.03,484.0
11816.755,474.0
11821.481,555.0
11826.21,463.0
11830.94,422.0
11835.673,415.0
11840.407,446.0
11845.144,411.0
11849.882,406.0
11854.622,391.0
11859.364,372.0
11864.108,374.0
11868.8545,426.0
11873.602,354.0
11878.351,355.0
11883.102,356.0
11887.8545,321.0
11892.609,348.0
11897.366,327.0
11902.125,302.0
11906.886,297.0
11911.648,289.0
11916.413,305.0
11921.18,255.0
11925.948,277.0
11930.719,272.0
11935.491,295.0
11940.266,271.0
11945.042,299.0
11949.82,277.0
11954.601,219.0
11959.383,260.0
11964.167,294.0
11968.953,267.0
11973.74,242.0
11978.529,244.0
11983.32,252.0
11988.113,228.0
11992.908,276.0
