M/Z,Intensity
800.0,69.0
800.32,134.0
800.64014,49.0
800.9604,122.0
801.28076,295.0
801.60126,77.0
801.9219,85.0
802.2426,154.0
802.56354,94.0
802.8846,169.0
803.20575,181.0
803.52704,64.0
803.84845,86.0
804.17,133.0
804.49164,91.0
804.8134,48.0
805.1353,107.0
805.4574,90.0
805.7796,45.0
806.1019,91.0
806.4244,95.0
806.74695,42.0
807.06964,90.0
807.39246,103.0
807.7154,44.0
808.03845,57.0
808.3617,117.0
808.68506,50.0
809.00854,72.0
809.33215,130.0
809.6559,54.0
809.97974,74.0
810.3037,130.0
810.6278,52.0
810.9521,63.0
811.2765,142.0
811.601,61.0
811.92566,67.0
812.2504,127.0
812.5753,59.0
812.9003,60.0
813.22546,96.0
813.5508,55.0
813.8762,49.0
814.2018,112.0
814.52747,62.0
814.8533,54.0
815.1792,116.0
815.50525,87.0
815.8314,53.0
816.1578,105.0
816.48425,82.0
816.81085,94.0
817.1376,169.0
817.4644,113.0
817.7914,50.0
818.11847,108.0
818.44574,81.0
818.77313,63.0
819.10065,125.0
819.4283,102.0
819.75604,48.0
820.0839,95.0
820.412,108.0
820.7402,66.0
821.0685,105.0
821.3969,108.0
821.72546,54.0
822.05414,76.0
822.38293,91.0
822.7119,57.0
823.041,156.0
823.37024,99.0
823.6996,62.0
824.02905,141.0
824.35864,131.0
824.6884,202.0
825.0183,2415.0
825.3483,183.0
825.67847,114.0
826.0087,1113.0
826.3391,125.0
826.6696,62.0
827.0003,335.0
827.3311,119.0
827.66205,51.0
827.9931,123.0
828.3243,105.0
828.65564,40.0
828.9871,62.0
829.3187,105.0
829.65045,54.0
829.9823,56.0
830.3143,133.0
830.6464,43.0
830.9787,58.0
831.3111,110.0
831.6436,42.0
831.97626,64.0
832.309,81.0
832.64197,44.0
832.97504,82.0
833.3082,133.0
833.64154,47.0
833.975,64.0
834.3086,125.0
834.64233,47.0
834.9762,85.0
835.3102,130.0
835.6443,51.0
835.9785,56.0
836.3129,122.0
836.64746,49.0
836.9821,110.0
837.3169,114.0
837.6518,48.0
837.9869,88.0
838.3221,119.0
838.6574,72.0
838.99286,356.0
839.3284,127.0
839.6642,54.0
840.00006,219.0
840.33606,140.0
840.6722,87.0
841.0084,491.0
841.34485,126.0
841.6814,70.0
842.01807,228.0
842.35486,158.0
842.6918,62.0
843.0289,155.0
843.3661,124.0
843.7034,55.0
844.0409,100.0
844.37854,112.0
844.7163,114.0
845.0542,386.0
845.3922,213.0
845.73035,95.0
846.06866,231.0
846.4071,177.0
846.74567,87.0
847.08435,177.0
847.42316,112.0
847.76215,68.0
848.10126,121.0
848.4405,100.0
848.77985,58.0
849.1194,91.0
849.45905,98.0
849.7988,53.0
850.13873,88.0
850.47876,86.0
850.819,48.0
851.1593,86.0
851.49976,68.0
851.84033,52.0
852.1811,104.0
852.522,65.0
852.863,51.0
853.2041,109.0
853.5454,81.0
853.88684,49.0
854.2284,104.0
854.57007,65.0
854.9119,259.0
855.2539,114.0
855.596,65.0
855.93823,189.0
856.2806,111.0
856.6231,49.0
856.96576,135.0
857.30853,101.0
857.6514,53.0
857.9945,101.0
858.3377,115.0
858.681,60.0
859.0245,127.0
859.3681,126.0
859.71185,43.0
860.0557,83.0
860.3997,113.0
860.7439,404.0
861.0882,781.0
861.4326,127.0
861.77716,281.0
862.1219,331.0
862.46674,112.0
862.8117,146.0
863.15686,144.0
863.50214,103.0
863.84753,88.0
864.19305,130.0
864.53876,66.0
864.8846,91.0
865.2305,118.0
865.5766,65.0
865.92285,82.0
866.2692,120.0
866.6157,57.0
866.96234,166.0
867.30914,130.0
867.65607,58.0
868.0031,100.0
868.35034,93.0
868.6977,53.0
869.04517,74.0
869.39276,93.0
869.74054,46.0
870.08844,70.0
870.43646,80.0
870.7846,69.0
871.13293,83.0
871.4814,75.0
871.82996,48.0
872.1787,84.0
872.5276,70.0
872.8766,80.0
873.2257,122.0
873.575,66.0
873.92444,66.0
874.274,105.0
874.6237,55.0
874.9736,58.0
875.32355,124.0
875.6737,50.0
876.024,75.0
876.3744,134.0
876.7249,131.0
877.0756,202.0
877.42645,123.0
877.7774,141.0
878.12854,142.0
878.4798,104.0
878.8312,97.0
879.18274,106.0
879.5344,67.0
879.8862,90.0
880.23816,142.0
880.5903,61.0
880.9425,79.0
881.29486,123.0
881.6474,55.0
882.00006,65.0
882.35284,112.0
882.7058,69.0
883.0589,118.0
883.4121,97.0
883.7655,56.0
884.119,78.0
884.47266,91.0
884.8264,71.0
885.18036,99.0
885.5344,79.0
885.8886,65.0
886.243,99.0
886.5975,60.0
886.9521,47.0
887.3069,112.0
887.6618,54.0
888.01685,63.0
888.3721,104.0
888.7274,57.0
889.0829,93.0
889.43854,207.0
889.7943,35.0
890.1502,76.0
890.5063,138.0
890.8625,58.0
891.2188,107.0
891.5753,85.0
891.93195,61.0
892.2887,93.0
892.6456,51.0
893.0027,79.0
893.35986,130.0
893.7172,43.0
894.0747,71.0
894.4323,132.0
894.7901,69.0
895.148,106.0
895.50604,86.0
895.86426,60.0
896.2226,97.0
896.58105,67.0
896.9397,46.0
897.29846,104.0
897.6574,61.0
898.0165,56.0
898.3757,126.0
898.73505,57.0
899.09454,92.0
899.45416,91.0
899.81396,55.0
900.1739,102.0
900.53394,76.0
900.89417,66.0
901.2545,114.0
901.615,46.0
901.97565,59.0
902.3364,100.0
902.6974,57.0
903.0585,68.0
903.4197,111.0
903.78107,70.0
904.1426,113.0
904.5042,106.0
904.866,73.0
905.22797,130.0
905.5901,74.0
905.95233,71.0
906.3147,108.0
906.67725,46.0
907.0399,65.0
907.4027,107.0
907.7657,41.0
908.1288,80.0
908.49207,120.0
908.85547,60.0
909.219,94.0
909.5827,47.0
909.94653,48.0
910.3105,85.0
910.6746,44.0
911.0389,81.0
911.4033,104.0
911.7679,55.0
912.13257,83.0
912.49744,71.0
912.8624,44.0
913.2276,98.0
913.5929,73.0
913.9583,42.0
914.3239,104.0
914.68964,43.0
915.05554,72.0
915.4216,88.0
915.7877,64.0
916.15405,76.0
916.5205,77.0
916.88715,52.0
917.2539,132.0
917.6208,68.0
917.98785,56.0
918.35504,104.0
918.7224,45.0
919.0899,84.0
919.4575,97.0
919.8253,45.0
920.19324,146.0
920.56134,58.0
920.92957,67.0
921.2979,101.0
921.66644,50.0
922.0351,66.0
922.40393,103.0
922.7729,59.0
923.14197,92.0
923.5112,82.0
923.8806,49.0
924.2502,95.0
924.6199,47.0
924.98975,59.0
925.35974,95.0
925.72986,46.0
926.10016,84.0
926.4706,83.0
926.8412,62.0
927.2119,92.0
927.5828,55.0
927.95386,48.0
928.325,106.0
928.69635,44.0
929.0678,76.0
929.43945,105.0
929.8112,50.0
930.18317,87.0
930.55524,78.0
930.9274,53.0
931.2998,102.0
931.6723,49.0
932.045,62.0
932.4178,97.0
932.7908,47.0
933.1639,88.0
933.5372,138.0
933.9106,39.0
934.2841,133.0
934.65784,55.0
935.0317,73.0
935.4057,122.0
935.77985,32.0
936.1542,68.0
936.5286,63.0
936.90326,49.0
937.278,121.0
937.65295,55.0
938.028,79.0
938.4032,129.0
938.77856,48.0
939.15405,74.0
939.5297,70.0
939.9055,43.0
940.2815,115.0
940.6576,51.0
941.0339,49.0
941.4103,91.0
941.78687,51.0
942.1636,86.0
942.54047,67.0
942.9175,65.0
943.2947,107.0
943.672,55.0
944.04944,70.0
944.42706,104.0
944.8048,51.0
945.18274,71.0
945.5608,67.0
945.939,67.0
946.3174,109.0
946.6959,57.0
947.0746,66.0
947.4534,85.0
947.8324,57.0
948.21155,114.0
948.5908,60.0
948.9703,55.0
949.34985,99.0
949.7296,55.0
950.1095,75.0
950.48956,104.0
950.86975,63.0
951.2501,91.0
951.6306,54.0
952.0113,61.0
952.3921,95.0
952.7731,41.0
953.1542,79.0
953.53546,72.0
953.9169,50.0
954.29846,109.0
954.6802,56.0
955.0621,69.0
955.4441,118.0
955.8263,55.0
956.2086,88.0
956.5911,81.0
956.97375,52.0
957.35657,94.0
957.7395,47.0
958.1226,73.0
958.50586,88.0
958.8893,42.0
959.2728,87.0
959.65656,54.0
960.0404,61.0
960.42444,92.0
960.8086,58.0
961.19293,78.0
961.5774,64.0
961.96204,60.0
962.3468,93.0
962.73175,53.0
963.1168,83.0
963.5021,83.0
963.88745,60.0
964.273,98.0
964.6587,43.0
965.04456,54.0
965.4306,125.0
965.8168,52.0
966.2031,86.0
966.5896,71.0
966.97626,47.0
967.36304,97.0
967.75,57.0
968.1371,76.0
968.52435,92.0
968.91174,67.0
969.2993,116.0
969.687,57.0
970.0749,92.0
970.4629,113.0
970.8511,64.0
971.23944,102.0
971.6279,67.0
972.0166,64.0
972.4054,97.0
972.7944,44.0
973.1835,103.0
973.57275,57.0
973.96216,60.0
974.35175,119.0
974.7415,52.0
975.1314,72.0
975.5215,88.0
975.9117,49.0
976.30206,88.0
976.69257,56.0
977.08325,77.0
977.47406,132.0
977.86505,40.0
978.2562,103.0
978.6475,68.0
979.039,80.0
979.4306,112.0
979.8224,67.0
980.2143,108.0
980.6064,75.0
980.99866,59.0
981.39105,120.0
981.7836,57.0
982.17633,83.0
982.5692,59.0
982.9622,64.0
983.3554,95.0
983.7488,58.0
984.1423,77.0
984.53595,84.0
984.92975,70.0
985.3237,87.0
985.71783,51.0
986.1121,94.0
986.5066,82.0
986.9012,68.0
987.29596,110.0
987.69086,45.0
988.08594,79.0
988.4812,72.0
988.8766,54.0
989.27216,86.0
989.66785,45.0
990.0637,85.0
990.4597,68.0
990.8559,60.0
991.25226,117.0
991.64874,51.0
992.0454,112.0
992.4422,102.0
992.8392,58.0
993.2363,98.0
993.6336,57.0
994.03107,91.0
994.42865,102.0
994.8264,60.0
995.22437,92.0
995.62244,58.0
996.0207,80.0
996.4191,80.0
996.8177,44.0
997.21643,100.0
997.6153,74.0
998.01434,68.0
998.4136,105.0
998.8129,58.0
999.21246,100.0
999.6121,64.0
1000.01196,74.0
1000.412,102.0
1000.81213,44.0
1001.21246,96.0
1001.613,77.0
1002.0136,64.0
1002.4144,108.0
1002.81537,66.0
1003.2165,99.0
1003.6178,79.0
1004.0192,71.0
1004.42084,111.0
1004.82263,50.0
1005.22455,103.0
1005.62665,74.0
1006.0289,92.0
1006.4313,88.0
1006.83386,55.0
1007.2366,88.0
1007.63947,61.0
1008.04254,99.0
1008.44574,104.0
1008.8491,85.0
1009.2527,99.0
1009.6564,71.0
1010.06024,62.0
1010.4643,88.0
1010.86847,71.0
1011.2728,84.0
1011.6773,62.0
1012.082,81.0
1012.4868,75.0
1012.8918,61.0
1013.29694,105.0
1013.7023,66.0
1014.1077,178.0
1014.51337,89.0
1014.9192,136.0
1015.32513,96.0
1015.73126,68.0
1016.1376,106.0
1016.544,81.0
1016.9506,53.0
1017.3574,104.0
1017.76434,61.0
1018.17145,103.0
1018.57874,70.0
1018.98615,67.0
1019.39374,90.0
1019.8015,52.0
1020.2094,81.0
1020.6175,66.0
1021.02576,52.0
1021.43414,151.0
1021.8427,70.0
1022.25146,111.0
1022.66034,72.0
1023.0694,78.0
1023.47864,95.0
1023.888,63.0
1024.2976,97.0
1024.7073,56.0
1025.1172,82.0
1025.5272,99.0
1025.9374,75.0
1026.3478,101.0
1026.7583,51.0
1027.169,72.0
1027.5798,85.0
1027.9908,110.0
1028.4021,99.0
1028.8135,88.0
1029.225,111.0
1029.6367,96.0
1030.0486,188.0
1030.4606,92.0
1030.8728,113.0
1031.2852,120.0
1031.6976,68.0
1032.1104,87.0
1032.5232,63.0
1032.9362,57.0
1033.3494,111.0
1033.7627,79.0
1034.1761,107.0
1034.5898,71.0
1035.0037,75.0
1035.4177,99.0
1035.8319,100.0
1036.2462,106.0
1036.6608,64.0
1037.0754,90.0
1037.4902,95.0
1037.9053,86.0
1038.3204,100.0
1038.7357,54.0
1039.1512,85.0
1039.5669,74.0
1039.9827,62.0
1040.3987,101.0
1040.8148,52.0
1041.2312,86.0
1041.6477,73.0
1042.0643,75.0
1042.4812,123.0
1042.8982,51.0
1043.3153,107.0
1043.7327,98.0
1044.1501,99.0
1044.5677,101.0
1044.9856,88.0
1045.4036,109.0
1045.8218,79.0
1046.2401,97.0
1046.6586,61.0
1047.0773,75.0
1047.4961,84.0
1047.915,62.0
1048.3342,113.0
1048.7535,57.0
1049.1731,76.0
1049.5928,110.0
1050.0126,208.0
1050.4326,114.0
1050.8528,141.0
1051.2731,101.0
1051.6936,90.0
1052.1143,146.0
1052.5352,85.0
1052.9562,72.0
1053.3773,125.0
1053.7987,94.0
1054.2202,105.0
1054.6418,80.0
1055.0637,70.0
1055.4857,97.0
1055.908,90.0
1056.3303,98.0
1056.7528,56.0
1057.1755,102.0
1057.5984,97.0
1058.0215,84.0
1058.4447,127.0
1058.868,74.0
1059.2916,94.0
1059.7153,76.0
1060.1392,103.0
1060.5632,119.0
1060.9874,86.0
1061.4119,128.0
1061.8364,64.0
1062.2611,121.0
1062.686,61.0
1063.1111,74.0
1063.5364,102.0
1063.9618,79.0
1064.3873,101.0
1064.8131,78.0
1065.239,100.0
1065.6652,167.0
1066.0914,194.0
1066.5178,107.0
1066.9445,163.0
1067.3712,124.0
1067.7982,106.0
1068.2253,89.0
1068.6526,90.0
1069.0801,84.0
1069.5077,97.0
1069.9355,72.0
1070.3635,84.0
1070.7916,71.0
1071.22,93.0
1071.6484,103.0
1072.0771,147.0
1072.506,117.0
1072.9349,101.0
1073.3641,108.0
1073.7935,98.0
1074.223,101.0
1074.6527,100.0
1075.0825,95.0
1075.5126,113.0
1075.9427,71.0
1076.3732,87.0
1076.8037,53.0
1077.2344,92.0
1077.6653,84.0
1078.0963,110.0
1078.5276,84.0
1078.959,91.0
1079.3906,87.0
1079.8224,68.0
1080.2543,93.0
1080.6864,91.0
1081.1187,66.0
1081.5511,83.0
1081.9838,96.0
1082.4165,77.0
1082.8495,76.0
1083.2826,98.0
1083.716,68.0
1084.1494,74.0
1084.5831,85.0
1085.017,63.0
1085.4509,103.0
1085.8851,61.0
1086.3195,87.0
1086.754,58.0
1087.1887,98.0
1087.6235,97.0
1088.0586,81.0
1088.4938,77.0
1088.9292,70.0
1089.3647,87.0
1089.8005,69.0
1090.2365,142.0
1090.6725,132.0
1091.1088,95.0
1091.5452,157.0
1091.9818,78.0
1092.4186,137.0
1092.8556,52.0
1093.2927,104.0
1093.7301,71.0
1094.1676,72.0
1094.6052,88.0
1095.0431,69.0
1095.4811,107.0
1095.9193,78.0
1096.3577,93.0
1096.7963,67.0
1097.235,90.0
1097.6738,90.0
1098.1129,74.0
1098.5521,101.0
1098.9916,74.0
1099.4312,112.0
1099.871,83.0
1100.3109,104.0
1100.751,73.0
1101.1913,92.0
1101.6317,78.0
1102.0724,64.0
1102.5132,96.0
1102.9542,50.0
1103.3954,115.0
1103.8368,70.0
1104.2783,95.0
1104.72,62.0
1105.1619,84.0
1105.6039,86.0
1106.0461,60.0
1106.4885,101.0
1106.9312,61.0
1107.3739,91.0
1107.8169,61.0
1108.26,103.0
1108.7034,82.0
1109.1469,78.0
1109.5905,106.0
1110.0343,75.0
1110.4783,93.0
1110.9225,58.0
1111.3668,99.0
1111.8114,74.0
1112.2561,93.0
1112.701,69.0
1113.1461,84.0
1113.5914,96.0
1114.0369,67.0
1114.4824,92.0
1114.9282,52.0
1115.3741,82.0
1115.8203,78.0
1116.2666,91.0
1116.7131,80.0
1117.1598,78.0
1117.6067,94.0
1118.0537,83.0
1118.501,90.0
1118.9484,55.0
1119.396,108.0
1119.8438,70.0
1120.2917,119.0
1120.7399,67.0
1121.1881,79.0
1121.6366,64.0
1122.0852,73.0
1122.534,96.0
1122.983,68.0
1123.4323,86.0
1123.8816,63.0
1124.3312,107.0
1124.7809,72.0
1125.2308,91.0
1125.6809,65.0
1126.1312,76.0
1126.5817,91.0
1127.0323,53.0
1127.4832,98.0
1127.9342,60.0
1128.3854,84.0
1128.8367,50.0
1129.2882,86.0
1129.7399,53.0
1130.1918,72.0
1130.6438,69.0
1131.0961,62.0
1131.5485,92.0
1132.0011,60.0
1132.4539,96.0
1132.9069,56.0
1133.36,104.0
1133.8134,68.0
1134.2668,105.0
1134.7206,77.0
1135.1744,75.0
1135.6285,93.0
1136.0828,63.0
1136.5372,85.0
1136.9918,50.0
1137.4467,106.0
1137.9016,70.0
1138.3568,89.0
1138.8121,58.0
1139.2677,102.0
1139.7234,62.0
1140.1793,56.0
1140.6354,78.0
1141.0917,65.0
1141.5481,112.0
1142.0048,62.0
1142.4615,91.0
1142.9186,83.0
1143.3757,95.0
1143.8331,66.0
1144.2906,93.0
1144.7484,83.0
1145.2063,87.0
1145.6644,72.0
1146.1227,65.0
1146.5812,69.0
1147.0398,62.0
1147.4987,94.0
1147.9576,68.0
1148.4169,146.0
1148.8762,59.0
1149.3358,117.0
1149.7955,55.0
1150.2555,102.0
1150.7156,79.0
1151.1759,77.0
1151.6364,79.0
1152.097,76.0
1152.5579,108.0
1153.0189,60.0
1153.4801,92.0
1153.9415,65.0
1154.4031,95.0
1154.8649,53.0
1155.3268,103.0
1155.789,64.0
1156.2512,82.0
1156.7137,93.0
1157.1764,87.0
1157.6393,110.0
1158.1023,63.0
1158.5656,90.0
1159.0289,73.0
1159.4926,97.0
1159.9563,61.0
1160.4203,93.0
1160.8844,64.0
1161.3488,123.0
1161.8134,55.0
1162.2781,101.0
1162.743,80.0
1163.2081,77.0
1163.6735,73.0
1164.1389,86.0
1164.6046,106.0
1165.0704,72.0
1165.5365,97.0
1166.0027,47.0
1166.4691,108.0
1166.9357,57.0
1167.4025,112.0
1167.8694,67.0
1168.3365,83.0
1168.8038,63.0
1169.2714,89.0
1169.739,86.0
1170.2069,78.0
1170.675,89.0
1171.1433,73.0
1171.6118,105.0
1172.0804,76.0
1172.5493,85.0
1173.0183,51.0
1173.4875,108.0
1173.9569,59.0
1174.4265,106.0
1174.8962,65.0
1175.3662,86.0
1175.8363,76.0
1176.3066,98.0
1176.7772,55.0
1177.2479,87.0
1177.7189,65.0
1178.19,73.0
1178.6613,75.0
1179.1327,71.0
1179.6044,78.0
1180.0762,60.0
1180.5482,81.0
1181.0204,75.0
1181.4928,101.0
1181.9655,68.0
1182.4382,83.0
1182.9113,77.0
1183.3844,102.0
1183.8578,46.0
1184.3313,94.0
1184.805,53.0
1185.2789,113.0
1185.753,94.0
1186.2273,101.0
1186.7018,79.0
1187.1765,72.0
1187.6514,89.0
1188.1265,79.0
1188.6017,89.0
1189.0771,48.0
1189.5527,103.0
1190.0286,49.0
1190.5045,88.0
1190.9807,73.0
1191.4572,97.0
1191.9337,65.0
1192.4105,95.0
1192.8875,48.0
1193.3646,115.0
1193.8419,69.0
1194.3195,104.0
1194.7972,60.0
1195.2751,79.0
1195.7533,75.0
1196.2316,84.0
1196.7101,98.0
1197.1887,89.0
1197.6676,96.0
1198.1467,85.0
1198.626,89.0
1199.1055,71.0
1199.5851,99.0
1200.065,55.0
1200.5449,88.0
1201.0251,70.0
1201.5056,92.0
1201.9862,51.0
1202.467,108.0
1202.948,68.0
1203.4292,90.0
1203.9105,63.0
1204.3921,95.0
1204.8739,71.0
1205.3558,108.0
1205.838,55.0
1206.3203,82.0
1206.8029,58.0
1207.2855,84.0
1207.7684,69.0
1208.2516,81.0
1208.7349,71.0
1209.2184,80.0
1209.702,95.0
1210.1859,87.0
1210.67,97.0
1211.1543,93.0
1211.6388,105.0
1212.1234,73.0
1212.6083,86.0
1213.0933,45.0
1213.5785,74.0
1214.064,59.0
1214.5496,80.0
1215.0354,61.0
1215.5214,101.0
1216.0076,56.0
1216.494,84.0
1216.9806,78.0
1217.4674,94.0
1217.9543,70.0
1218.4415,106.0
1218.929,88.0
1219.4165,94.0
1219.9043,82.0
1220.3922,96.0
1220.8804,80.0
1221.3688,86.0
1221.8573,66.0
1222.3461,91.0
1222.835,78.0
1223.3241,99.0
1223.8135,83.0
1224.303,77.0
1224.7927,63.0
1225.2826,76.0
1225.7727,78.0
1226.2631,82.0
1226.7535,85.0
1227.2443,90.0
1227.7351,84.0
1228.2262,83.0
1228.7175,75.0
1229.209,83.0
1229.7007,88.0
1230.1925,77.0
1230.6846,96.0
1231.1769,72.0
1231.6693,70.0
1232.162,78.0
1232.6549,80.0
1233.148,87.0
1233.6412,83.0
1234.1346,67.0
1234.6283,64.0
1235.1222,74.0
1235.6162,101.0
1236.1105,76.0
1236.6049,76.0
1237.0995,56.0
1237.5944,82.0
1238.0894,64.0
1238.5846,85.0
1239.0801,81.0
1239.5757,81.0
1240.0715,67.0
1240.5675,96.0
1241.0637,88.0
1241.5602,84.0
1242.0568,70.0
1242.5536,115.0
1243.0507,62.0
1243.5479,108.0
1244.0453,68.0
1244.5428,95.0
1245.0406,83.0
1245.5387,90.0
1246.0369,84.0
1246.5353,124.0
1247.0339,75.0
1247.5327,93.0
1248.0317,67.0
1248.531,97.0
1249.0304,63.0
1249.53,88.0
1250.0298,54.0
1250.5298,92.0
1251.03,63.0
1251.5304,97.0
1252.031,63.0
1252.5319,88.0
1253.0328,50.0
1253.534,73.0
1254.0355,69.0
1254.5371,73.0
1255.039,88.0
1255.541,99.0
1256.0432,76.0
1256.5457,97.0
1257.0482,68.0
1257.551,77.0
1258.0541,70.0
1258.5573,93.0
1259.0607,52.0
1259.5643,103.0
1260.0681,66.0
1260.5721,86.0
1261.0764,87.0
1261.5808,114.0
1262.0854,81.0
1262.5903,98.0
1263.0953,102.0
1263.6006,111.0
1264.1061,83.0
1264.6117,96.0
1265.1176,92.0
1265.6237,99.0
1266.1299,64.0
1266.6364,84.0
1267.1431,79.0
1267.6499,89.0
1268.157,74.0
1268.6642,92.0
1269.1716,89.0
1269.6793,75.0
1270.1871,69.0
1270.6952,81.0
1271.2035,68.0
1271.7119,73.0
1272.2206,62.0
1272.7295,75.0
1273.2385,81.0
1273.7478,84.0
1274.2573,76.0
1274.767,75.0
1275.2769,62.0
1275.787,79.0
1276.2972,85.0
1276.8077,120.0
1277.3185,100.0
1277.8295,117.0
1278.3406,75.0
1278.8519,92.0
1279.3635,99.0
1279.8752,70.0
1280.3872,93.0
1280.8994,65.0
1281.4117,102.0
1281.9243,54.0
1282.4371,93.0
1282.9501,101.0
1283.4633,98.0
1283.9767,74.0
1284.4902,111.0
1285.004,75.0
1285.5181,83.0
1286.0322,68.0
1286.5466,95.0
1287.0613,64.0
1287.576,111.0
1288.0911,58.0
1288.6063,127.0
1289.1218,86.0
1289.6375,94.0
1290.1533,82.0
1290.6694,85.0
1291.1857,80.0
1291.7021,70.0
1292.2189,78.0
1292.7357,107.0
1293.2528,79.0
1293.7701,82.0
1294.2876,97.0
1294.8053,78.0
1295.3232,90.0
1295.8414,68.0
1296.3597,78.0
1296.8783,54.0
1297.3971,76.0
1297.916,58.0
1298.4352,86.0
1298.9546,80.0
1299.4741,107.0
1299.9939,72.0
1300.5139,88.0
1301.0342,51.0
1301.5546,111.0
1302.0752,57.0
1302.5961,97.0
1303.1171,62.0
1303.6383,92.0
1304.1598,66.0
1304.6814,91.0
1305.2032,74.0
1305.7253,85.0
1306.2477,91.0
1306.7701,81.0
1307.2928,73.0
1307.8158,59.0
1308.3389,92.0
1308.8622,66.0
1309.3857,109.0
1309.9095,69.0
1310.4335,76.0
1310.9576,73.0
1311.482,84.0
1312.0066,62.0
1312.5314,73.0
1313.0564,49.0
1313.5817,87.0
1314.107,69.0
1314.6327,79.0
1315.1586,66.0
1315.6847,80.0
1316.2109,49.0
1316.7374,77.0
1317.2642,94.0
1317.791,80.0
1318.3181,87.0
1318.8455,73.0
1319.373,80.0
1319.9008,62.0
1320.4287,82.0
1320.9569,74.0
1321.4854,98.0
1322.0139,69.0
1322.5427,85.0
1323.0718,56.0
1323.601,92.0
1324.1304,69.0
1324.66,84.0
1325.19,65.0
1325.72,79.0
1326.2502,79.0
1326.7808,80.0
1327.3115,94.0
1327.8424,63.0
1328.3735,75.0
1328.9049,63.0
1329.4365,107.0
1329.9683,47.0
1330.5002,82.0
1331.0325,60.0
1331.565,104.0
1332.0975,69.0
1332.6304,122.0
1333.1635,78.0
1333.6968,74.0
1334.2302,78.0
1334.7639,88.0
1335.2979,65.0
1335.832,64.0
1336.3663,84.0
1336.9009,58.0
1337.4357,89.0
1337.9707,59.0
1338.5059,89.0
1339.0413,68.0
1339.5769,82.0
1340.1128,53.0
1340.6488,63.0
1341.185,62.0
1341.7216,80.0
1342.2583,82.0
1342.7952,66.0
1343.3323,102.0
1343.8696,67.0
1344.4072,94.0
1344.945,58.0
1345.4829,103.0
1346.0211,62.0
1346.5596,100.0
1347.0981,65.0
1347.637,90.0
1348.176,84.0
1348.7153,95.0
1349.2548,76.0
1349.7944,70.0
1350.3344,76.0
1350.8745,73.0
1351.4149,100.0
1351.9554,56.0
1352.4962,85.0
1353.0372,48.0
1353.5785,67.0
1354.1199,52.0
1354.6615,108.0
1355.2034,72.0
1355.7455,80.0
1356.2878,76.0
1356.8303,64.0
1357.373,89.0
1357.916,61.0
1358.4592,91.0
1359.0026,53.0
1359.5461,81.0
1360.09,74.0
1360.634,110.0
1361.1783,79.0
1361.7228,98.0
1362.2675,85.0
1362.8124,74.0
1363.3575,91.0
1363.9028,63.0
1364.4484,122.0
1364.9941,57.0
1365.5402,96.0
1366.0864,69.0
1366.6328,91.0
1367.1794,76.0
1367.7263,77.0
1368.2734,79.0
1368.8208,55.0
1369.3683,89.0
1369.916,60.0
1370.464,100.0
1371.0122,60.0
1371.5607,78.0
1372.1093,54.0
1372.6581,85.0
1373.2072,59.0
1373.7565,88.0
1374.306,85.0
1374.8557,62.0
1375.4056,121.0
1375.9558,81.0
1376.5062,108.0
1377.0569,64.0
1377.6077,89.0
1378.1587,70.0
1378.71,87.0
1379.2615,74.0
1379.8132,86.0
1380.3651,84.0
1380.9172,76.0
1381.4696,94.0
1382.0222,74.0
1382.5751,84.0
1383.128,62.0
1383.6813,82.0
1384.2347,68.0
1384.7885,82.0
1385.3424,101.0
1385.8965,76.0
1386.4508,81.0
1387.0054,78.0
1387.5602,75.0
1388.1152,45.0
1388.6705,87.0
1389.226,76.0
1389.7816,77.0
1390.3375,74.0
1390.8937,76.0
1391.4501,94.0
1392.0067,67.0
1392.5635,93.0
1393.1205,71.0
1393.6777,88.0
1394.2352,80.0
1394.793,65.0
1395.3508,73.0
1395.9089,67.0
1396.4673,116.0
1397.0259,76.0
1397.5847,107.0
1398.1438,81.0
1398.703,89.0
1399.2625,93.0
1399.8221,76.0
1400.3821,104.0
1400.9423,63.0
1401.5027,95.0
1402.0632,69.0
1402.624,88.0
1403.185,89.0
1403.7463,85.0
1404.3079,83.0
1404.8696,75.0
1405.4315,110.0
1405.9937,57.0
1406.556,100.0
1407.1187,77.0
1407.6815,115.0
1408.2446,86.0
1408.808,87.0
1409.3715,99.0
1409.9352,67.0
1410.4991,93.0
1411.0634,67.0
1411.6278,86.0
1412.1925,81.0
1412.7573,87.0
1413.3224,100.0
1413.8877,89.0
1414.4532,105.0
1415.019,80.0
1415.5851,109.0
1416.1514,77.0
1416.7178,106.0
1417.2844,98.0
1417.8513,82.0
1418.4185,89.0
1418.9858,73.0
1419.5535,113.0
1420.1213,76.0
1420.6893,98.0
1421.2576,93.0
1421.826,88.0
1422.3948,84.0
1422.9637,60.0
1423.533,110.0
1424.1024,78.0
1424.672,119.0
1425.2418,82.0
1425.8119,111.0
1426.3822,99.0
1426.9528,80.0
1427.5236,95.0
1428.0946,72.0
1428.6659,88.0
1429.2373,84.0
1429.809,98.0
1430.3809,95.0
1430.953,79.0
1431.5254,107.0
1432.098,75.0
1432.6709,89.0
1433.244,90.0
1433.8173,106.0
1434.3907,117.0
1434.9645,72.0
1435.5385,85.0
1436.1127,91.0
1436.6871,101.0
1437.2618,91.0
1437.8368,99.0
1438.412,78.0
1438.9873,82.0
1439.5629,107.0
1440.1387,78.0
1440.7147,109.0
1441.291,81.0
1441.8676,74.0
1442.4443,100.0
1443.0214,72.0
1443.5985,91.0
1444.1759,97.0
1444.7535,116.0
1445.3314,115.0
1445.9095,79.0
1446.4879,80.0
1447.0665,61.0
1447.6454,85.0
1448.2245,99.0
1448.8038,92.0
1449.3833,82.0
1449.963,63.0
1450.543,92.0
1451.1232,63.0
1451.7036,90.0
1452.2843,89.0
1452.8652,85.0
1453.4464,110.0
1454.0278,68.0
1454.6095,85.0
1455.1913,87.0
1455.7733,93.0
1456.3556,94.0
1456.9381,80.0
1457.5209,92.0
1458.1039,70.0
1458.6871,89.0
1459.2706,102.0
1459.8544,79.0
1460.4384,80.0
1461.0226,67.0
1461.6069,160.0
1462.1915,97.0
1462.7764,125.0
1463.3615,91.0
1463.9468,94.0
1464.5323,105.0
1465.1182,61.0
1465.7042,82.0
1466.2905,101.0
1466.8771,100.0
1467.4639,105.0
1468.0509,85.0
1468.6382,85.0
1469.2256,63.0
1469.8132,79.0
1470.4011,113.0
1470.9893,71.0
1471.5776,114.0
1472.1663,85.0
1472.7551,102.0
1473.3442,90.0
1473.9336,81.0
1474.5232,99.0
1475.113,87.0
1475.7031,98.0
1476.2935,84.0
1476.884,99.0
1477.4747,109.0
1478.0657,81.0
1478.6569,96.0
1479.2483,74.0
1479.84,84.0
1480.4319,100.0
1481.024,71.0
1481.6165,103.0
1482.2091,84.0
1482.802,90.0
1483.3951,99.0
1483.9885,67.0
1484.5822,151.0
1485.176,74.0
1485.7701,102.0
1486.3645,99.0
1486.9591,57.0
1487.5538,89.0
1488.1488,69.0
1488.744,95.0
1489.3395,97.0
1489.9352,72.0
1490.5311,105.0
1491.1273,77.0
1491.7238,94.0
1492.3204,89.0
1492.9174,71.0
1493.5145,115.0
1494.1119,67.0
1494.7096,95.0
1495.3075,122.0
1495.9056,132.0
1496.504,164.0
1497.1027,74.0
1497.7015,118.0
1498.3007,81.0
1498.9,79.0
1499.4996,97.0
1500.0995,79.0
1500.6996,78.0
1501.2998,79.0
1501.9003,68.0
1502.501,98.0
1503.1019,71.0
1503.7031,95.0
1504.3046,100.0
1504.9062,80.0
1505.5082,82.0
1506.1104,65.0
1506.7128,93.0
1507.3154,94.0
1507.9183,79.0
1508.5215,117.0
1509.1249,72.0
1509.7285,92.0
1510.3324,81.0
1510.9365,84.0
1511.5409,88.0
1512.1455,116.0
1512.7504,492.0
1513.3555,279.0
1513.9608,220.0
1514.5664,241.0
1515.1722,90.0
1515.7783,146.0
1516.3846,103.0
1516.9912,85.0
1517.598,98.0
1518.2051,80.0
1518.8124,91.0
1519.4199,89.0
1520.0277,65.0
1520.6357,93.0
1521.244,75.0
1521.8525,81.0
1522.4613,80.0
1523.0703,79.0
1523.6796,79.0
1524.2891,79.0
1524.8988,68.0
1525.5088,96.0
1526.119,60.0
1526.7295,112.0
1527.3402,106.0
1527.9512,77.0
1528.5624,110.0
1529.1738,76.0
1529.7855,91.0
1530.3975,99.0
1531.0096,66.0
1531.6221,92.0
1532.2347,85.0
1532.8477,89.0
1533.4608,102.0
1534.0742,82.0
1534.6879,105.0
1535.3018,83.0
1535.9159,90.0
1536.5303,119.0
1537.1449,77.0
1537.7598,86.0
1538.3749,61.0
1538.9902,80.0
1539.6058,97.0
1540.2217,68.0
1540.8378,75.0
1541.4541,95.0
1542.0707,58.0
1542.6875,81.0
1543.3046,95.0
1543.9219,74.0
1544.5394,94.0
1545.1572,79.0
1545.7753,100.0
1546.3936,85.0
1547.0121,73.0
1547.6309,90.0
1548.2499,74.0
1548.8691,93.0
1549.4886,92.0
1550.1084,65.0
1550.7284,95.0
1551.3486,92.0
1551.9691,75.0
1552.5898,97.0
1553.2109,72.0
1553.8323,68.0
1554.4539,85.0
1555.0757,52.0
1555.6978,81.0
1556.3201,86.0
1556.9426,78.0
1557.5654,111.0
1558.1885,65.0
1558.8118,112.0
1559.4353,103.0
1560.0591,78.0
1560.6831,97.0
1561.3074,95.0
1561.9319,84.0
1562.5566,101.0
1563.1816,86.0
1563.8069,75.0
1564.4324,82.0
1565.0581,73.0
1565.6841,87.0
1566.3103,96.0
1566.9368,77.0
1567.5636,96.0
1568.1907,90.0
1568.818,91.0
1569.4456,100.0
1570.0734,64.0
1570.7014,107.0
1571.3297,83.0
1571.9583,76.0
1572.587,91.0
1573.2161,55.0
1573.8453,89.0
1574.4749,90.0
1575.1046,64.0
1575.7346,89.0
1576.3649,62.0
1576.9954,67.0
1577.6261,99.0
1578.2572,62.0
1578.8885,88.0
1579.5201,112.0
1580.152,95.0
1580.784,81.0
1581.4164,77.0
1582.049,71.0
1582.6818,74.0
1583.3148,78.0
1583.9481,88.0
1584.5817,78.0
1585.2155,76.0
1585.8495,91.0
1586.4839,106.0
1587.1185,67.0
1587.7534,101.0
1588.3885,94.0
1589.0239,75.0
1589.6595,89.0
1590.2954,64.0
1590.9315,76.0
1591.5679,98.0
1592.2045,66.0
1592.8413,85.0
1593.4784,87.0
1594.1158,85.0
1594.7535,90.0
1595.3915,86.0
1596.0297,69.0
1596.6681,110.0
1597.3068,83.0
1597.9457,99.0
1598.5848,91.0
1599.2242,71.0
1599.8639,89.0
1600.5038,99.0
1601.144,82.0
1601.7845,96.0
1602.4253,101.0
1603.0663,72.0
1603.7075,105.0
1604.349,94.0
1604.9907,69.0
1605.6327,103.0
1606.2749,76.0
1606.9174,77.0
1607.5602,87.0
1608.2032,82.0
1608.8466,79.0
1609.4901,87.0
1610.1339,74.0
1610.778,91.0
1611.4222,85.0
1612.0668,72.0
1612.7115,101.0
1613.3567,92.0
1614.0021,76.0
1614.6477,117.0
1615.2936,97.0
1615.9397,86.0
1616.586,92.0
1617.2327,80.0
1617.8795,85.0
1618.5266,108.0
1619.1741,67.0
1619.8218,80.0
1620.4697,102.0
1621.1179,85.0
1621.7664,107.0
1622.415,87.0
1623.064,75.0
1623.7131,102.0
1624.3627,86.0
1625.0125,71.0
1625.6625,90.0
1626.3127,72.0
1626.9633,62.0
1627.614,87.0
1628.265,96.0
1628.9163,87.0
1629.5679,102.0
1630.2197,78.0
1630.8718,86.0
1631.5242,99.0
1632.1768,79.0
1632.8296,85.0
1633.4827,78.0
1634.1361,74.0
1634.7898,86.0
1635.4437,83.0
1636.0979,79.0
1636.7523,96.0
1637.407,86.0
1638.0619,76.0
1638.7172,107.0
1639.3727,82.0
1640.0284,107.0
1640.6844,144.0
1641.3407,117.0
1641.9972,85.0
1642.6539,119.0
1643.311,93.0
1643.9684,88.0
1644.626,216.0
1645.2838,164.0
1645.9419,95.0
1646.6002,173.0
1647.2589,97.0
1647.9178,91.0
1648.577,99.0
1649.2365,97.0
1649.8961,87.0
1650.556,100.0
1651.2163,64.0
1651.8768,87.0
1652.5376,94.0
1653.1986,68.0
1653.8599,74.0
1654.5214,97.0
1655.1832,57.0
1655.8453,97.0
1656.5077,100.0
1657.1703,67.0
1657.8331,86.0
1658.4962,90.0
1659.1597,83.0
1659.8234,84.0
1660.4873,105.0
1661.1515,92.0
1661.8159,120.0
1662.4806,71.0
1663.1456,73.0
1663.8109,85.0
1664.4764,95.0
1665.1422,76.0
1665.8082,95.0
1666.4746,90.0
1667.1412,70.0
1667.8081,86.0
1668.4752,106.0
1669.1426,75.0
1669.8102,84.0
1670.4781,92.0
1671.1464,70.0
1671.8148,81.0
1672.4835,101.0
1673.1525,67.0
1673.8218,85.0
1674.4913,96.0
1675.1611,76.0
1675.8312,78.0
1676.5015,120.0
1677.1721,89.0
1677.843,80.0
1678.5142,106.0
1679.1855,88.0
1679.8572,85.0
1680.5292,101.0
1681.2014,79.0
1681.8739,74.0
1682.5466,97.0
1683.2196,78.0
1683.893,93.0
1684.5665,92.0
1685.2404,76.0
1685.9144,80.0
1686.5887,81.0
1687.2634,64.0
1687.9384,80.0
1688.6135,79.0
1689.289,61.0
1689.9646,71.0
1690.6406,87.0
1691.3169,71.0
1691.9934,67.0
1692.6702,102.0
1693.3473,59.0
1694.0247,76.0
1694.7023,88.0
1695.3801,74.0
1696.0582,68.0
1696.7367,84.0
1697.4154,84.0
1698.0944,67.0
1698.7736,88.0
1699.4531,93.0
1700.1329,80.0
1700.813,99.0
1701.4933,109.0
1702.1738,85.0
1702.8547,96.0
1703.5359,89.0
1704.2173,68.0
1704.8989,90.0
1705.5809,83.0
1706.2632,81.0
1706.9457,89.0
1707.6284,120.0
1708.3115,71.0
1708.9949,85.0
1709.6785,82.0
1710.3623,74.0
1711.0465,73.0
1711.731,66.0
1712.4156,82.0
1713.1006,66.0
1713.7858,85.0
1714.4713,68.0
1715.1571,63.0
1715.8431,94.0
1716.5294,90.0
1717.2161,68.0
1717.903,79.0
1718.5901,94.0
1719.2775,74.0
1719.9652,53.0
1720.6532,91.0
1721.3414,76.0
1722.0299,79.0
1722.7188,89.0
1723.4078,74.0
1724.0972,81.0
1724.7869,79.0
1725.4768,104.0
1726.167,63.0
1726.8574,71.0
1727.5482,84.0
1728.2393,72.0
1728.9305,76.0
1729.6221,109.0
1730.314,70.0
1731.0061,86.0
1731.6985,84.0
1732.3911,69.0
1733.0841,64.0
1733.7773,85.0
1734.4708,66.0
1735.1647,62.0
1735.8588,94.0
1736.5531,84.0
1737.2477,68.0
1737.9426,74.0
1738.6378,97.0
1739.3333,75.0
1740.0289,63.0
1740.725,80.0
1741.4213,84.0
1742.1178,55.0
1742.8147,70.0
1743.5118,69.0
1744.2092,62.0
1744.9069,82.0
1745.6049,78.0
1746.3031,60.0
1747.0016,65.0
1747.7004,55.0
1748.3995,87.0
1749.0989,58.0
1749.7985,75.0
1750.4984,80.0
1751.1986,72.0
1751.899,79.0
1752.5999,81.0
1753.3009,68.0
1754.0022,59.0
1754.7039,83.0
1755.4058,67.0
1756.1079,61.0
1756.8103,72.0
1757.5131,84.0
1758.2161,55.0
1758.9193,84.0
1759.6229,87.0
1760.3268,71.0
1761.0309,76.0
1761.7354,86.0
1762.4401,82.0
1763.145,71.0
1763.8502,94.0
1764.5558,112.0
1765.2616,68.0
1765.9677,84.0
1766.6741,79.0
1767.3807,79.0
1768.0876,68.0
1768.7949,65.0
1769.5024,72.0
1770.2102,60.0
1770.9183,77.0
1771.6267,110.0
1772.3353,71.0
1773.0443,64.0
1773.7535,89.0
1774.463,74.0
1775.1729,73.0
1775.8829,100.0
1776.5933,83.0
1777.304,64.0
1778.0149,80.0
1778.7261,99.0
1779.4376,82.0
1780.1494,79.0
1780.8615,83.0
1781.5739,75.0
1782.2865,74.0
1782.9994,72.0
1783.7126,70.0
1784.4261,81.0
1785.1399,61.0
1785.854,94.0
1786.5684,78.0
1787.283,70.0
1787.9979,72.0
1788.7131,100.0
1789.4286,83.0
1790.1444,68.0
1790.8605,97.0
1791.5768,102.0
1792.2935,75.0
1793.0104,70.0
1793.7275,88.0
1794.4451,84.0
1795.1628,62.0
1795.8809,88.0
1796.5992,81.0
1797.3179,72.0
1798.0367,76.0
1798.756,81.0
1799.4755,72.0
1800.1953,67.0
1800.9154,83.0
1801.6357,73.0
1802.3564,81.0
1803.0774,76.0
1803.7986,87.0
1804.5201,67.0
1805.242,88.0
1805.964,195.0
1806.6864,214.0
1807.409,133.0
1808.1321,114.0
1808.8553,108.0
1809.5789,89.0
1810.3027,78.0
1811.0269,76.0
1811.7512,88.0
1812.476,91.0
1813.2009,63.0
1813.9261,74.0
1814.6517,93.0
1815.3776,69.0
1816.1038,74.0
1816.8302,74.0
1817.5569,73.0
1818.2839,80.0
1819.0112,59.0
1819.7389,82.0
1820.4668,112.0
1821.195,70.0
1821.9235,77.0
1822.6522,89.0
1823.3812,82.0
1824.1106,51.0
1824.8402,82.0
1825.5702,80.0
1826.3004,67.0
1827.0309,93.0
1827.7617,103.0
1828.4928,106.0
1829.2242,62.0
1829.9559,84.0
1830.6879,89.0
1831.4202,77.0
1832.1527,68.0
1832.8856,82.0
1833.6188,101.0
1834.3522,78.0
1835.0859,60.0
1835.82,83.0
1836.5543,85.0
1837.289,63.0
1838.0238,78.0
1838.759,81.0
1839.4945,95.0
1840.2303,59.0
1840.9664,83.0
1841.7028,102.0
1842.4395,82.0
1843.1764,55.0
1843.9137,78.0
1844.6512,65.0
1845.3892,70.0
1846.1273,58.0
1846.8657,80.0
1847.6045,84.0
1848.3435,70.0
1849.0829,55.0
1849.8225,78.0
1850.5624,77.0
1851.3026,63.0
1852.0431,72.0
1852.7839,83.0
1853.525,83.0
1854.2665,75.0
1855.0082,81.0
1855.7501,90.0
1856.4924,80.0
1857.235,82.0
1857.9779,97.0
1858.7211,110.0
1859.4646,74.0
1860.2084,59.0
1860.9525,78.0
1861.6969,63.0
1862.4415,66.0
1863.1865,77.0
1863.9318,68.0
1864.6774,81.0
1865.4232,70.0
1866.1694,71.0
1866.9159,70.0
1867.6627,90.0
1868.4098,90.0
1869.1571,60.0
1869.9048,98.0
1870.6527,78.0
1871.401,91.0
1872.1495,77.0
1872.8984,66.0
1873.6476,91.0
1874.3971,83.0
1875.1469,69.0
1875.8969,100.0
1876.6472,98.0
1877.3978,78.0
1878.1488,68.0
1878.9,91.0
1879.6516,86.0
1880.4034,74.0
1881.1556,82.0
1881.9081,62.0
1882.6609,94.0
1883.414,69.0
1884.1674,67.0
1884.921,153.0
1885.675,188.0
1886.4293,136.0
1887.1838,93.0
1887.9387,99.0
1888.6938,101.0
1889.4493,82.0
1890.2051,67.0
1890.9612,92.0
1891.7175,60.0
1892.4742,75.0
1893.2312,77.0
1893.9885,71.0
1894.7461,88.0
1895.504,80.0
1896.2622,76.0
1897.0208,106.0
1897.7795,107.0
1898.5387,95.0
1899.2981,76.0
1900.0579,66.0
1900.8179,86.0
1901.5782,91.0
1902.3389,86.0
1903.0999,72.0
1903.8611,60.0
1904.6227,83.0
1905.3845,74.0
1906.1467,64.0
1906.9092,77.0
1907.672,78.0
1908.435,91.0
1909.1985,66.0
1909.9622,77.0
1910.7262,93.0
1911.4905,81.0
1912.2551,82.0
1913.02,96.0
1913.7853,285.0
1914.5508,230.0
1915.3167,182.0
1916.0828,199.0
1916.8492,123.0
1917.616,95.0
1918.383,78.0
1919.1504,79.0
1919.9181,77.0
1920.686,81.0
1921.4543,65.0
1922.2229,78.0
1922.9918,82.0
1923.761,74.0
1924.5305,77.0
1925.3003,58.0
1926.0704,81.0
1926.8408,88.0
1927.6116,78.0
1928.3826,72.0
1929.1539,56.0
1929.9255,86.0
1930.6975,80.0
1931.4698,84.0
1932.2424,66.0
1933.0154,64.0
1933.7886,77.0
1934.5621,79.0
1935.3359,83.0
1936.1101,73.0
1936.8845,89.0
1937.6593,101.0
1938.4343,85.0
1939.2097,94.0
1939.9854,60.0
1940.7614,71.0
1941.5376,99.0
1942.3142,66.0
1943.0912,78.0
1943.8684,67.0
1944.646,71.0
1945.4238,72.0
1946.202,63.0
1946.9805,68.0
1947.7593,78.0
1948.5383,94.0
1949.3177,80.0
1950.0975,71.0
1950.8776,72.0
1951.658,86.0
1952.4386,67.0
1953.2196,70.0
1954.0009,84.0
1954.7825,88.0
1955.5643,80.0
1956.3466,66.0
1957.1292,67.0
1957.912,68.0
1958.6952,71.0
1959.4786,52.0
1960.2625,56.0
1961.0465,62.0
1961.8309,78.0
1962.6157,81.0
1963.4008,62.0
1964.1862,61.0
1964.9718,65.0
1965.7578,63.0
1966.5441,70.0
1967.3307,77.0
1968.1177,82.0
1968.9049,78.0
1969.6925,79.0
1970.4803,132.0
1971.2686,112.0
1972.057,108.0
1972.8458,102.0
1973.635,84.0
1974.4244,81.0
1975.2142,50.0
1976.0043,82.0
1976.7947,78.0
1977.5854,79.0
1978.3765,64.0
1979.1678,55.0
1979.9595,69.0
1980.7515,68.0
1981.5438,84.0
1982.3364,65.0
1983.1294,68.0
1983.9226,96.0
1984.7162,90.0
1985.5101,78.0
1986.3043,76.0
1987.0989,70.0
1987.8937,66.0
1988.6888,72.0
1989.4844,87.0
1990.2802,62.0
1991.0763,61.0
1991.8727,91.0
1992.6694,104.0
1993.4666,101.0
1994.2639,79.0
1995.0616,84.0
1995.8596,85.0
1996.658,90.0
1997.4567,87.0
1998.2556,61.0
1999.0549,57.0
1999.8546,73.0
2000.6545,59.0
2001.4548,71.0
2002.2554,75.0
2003.0563,73.0
2003.8575,67.0
2004.659,73.0
2005.4609,69.0
2006.2631,74.0
2007.0656,74.0
2007.8684,80.0
2008.6715,71.0
2009.475,99.0
2010.2788,97.0
2011.0829,92.0
2011.8873,125.0
2012.6921,129.0
2013.4972,97.0
2014.3026,80.0
2015.1083,69.0
2015.9143,89.0
2016.7207,58.0
2017.5273,81.0
2018.3344,73.0
2019.1417,60.0
2019.9493,70.0
2020.7573,83.0
2021.5657,57.0
2022.3743,67.0
2023.1832,74.0
2023.9926,67.0
2024.8021,67.0
2025.612,119.0
2026.4224,128.0
2027.2329,106.0
2028.0438,112.0
2028.855,112.0
2029.6665,94.0
2030.4784,93.0
2031.2905,82.0
2032.103,70.0
2032.9159,81.0
2033.729,87.0
2034.5425,112.0
2035.3563,75.0
2036.1704,79.0
2036.9849,72.0
2037.7997,66.0
2038.6147,84.0
2039.4302,64.0
2040.246,54.0
2041.062,75.0
2041.8784,68.0
2042.6952,101.0
2043.5123,75.0
2044.3297,52.0
2045.1475,69.0
2045.9656,73.0
2046.7839,75.0
2047.6027,75.0
2048.4216,66.0
2049.241,65.0
2050.0605,80.0
2050.8806,71.0
2051.701,80.0
2052.5217,105.0
2053.3428,89.0
2054.164,82.0
2054.9858,76.0
2055.8079,73.0
2056.6301,92.0
2057.453,68.0
2058.276,60.0
2059.099,75.0
2059.9229,78.0
2060.7468,86.0
2061.571,75.0
2062.3958,65.0
2063.2207,61.0
2064.046,68.0
2064.8716,62.0
2065.6975,80.0
2066.5237,86.0
2067.3503,71.0
2068.1772,73.0
2069.0046,65.0
2069.8323,82.0
2070.6602,80.0
2071.4885,83.0
2072.3171,64.0
2073.146,71.0
2073.9753,72.0
2074.805,74.0
2075.6348,59.0
2076.465,79.0
2077.2957,66.0
2078.1265,55.0
2078.9578,57.0
2079.7893,74.0
2080.6213,90.0
2081.4536,81.0
2082.2861,82.0
2083.1191,93.0
2083.9524,106.0
2084.786,96.0
2085.6199,89.0
2086.454,77.0
2087.2886,63.0
2088.1235,70.0
2088.9587,45.0
2089.7944,63.0
2090.6304,62.0
2091.4666,65.0
2092.3032,63.0
2093.1401,72.0
2093.9773,53.0
2094.815,91.0
2095.6528,66.0
2096.4912,67.0
2097.3298,63.0
2098.1687,57.0
2099.008,69.0
2099.8477,63.0
2100.6875,80.0
2101.5278,54.0
2102.3684,67.0
2103.2095,58.0
2104.0508,77.0
2104.8923,78.0
2105.7344,68.0
2106.5767,71.0
2107.4192,57.0
2108.2622,57.0
2109.1055,76.0
2109.9492,63.0
2110.7932,58.0
2111.6375,66.0
2112.4822,74.0
2113.3271,50.0
2114.1724,66.0
2115.018,52.0
2115.864,63.0
2116.7104,69.0
2117.5571,71.0
2118.404,66.0
2119.2515,59.0
2120.099,56.0
2120.9473,56.0
2121.7957,98.0
2122.6443,62.0
2123.4934,84.0
2124.3428,86.0
2125.1926,72.0
2126.0427,80.0
2126.893,70.0
2127.744,68.0
2128.595,46.0
2129.4463,54.0
2130.298,58.0
2131.1501,66.0
2132.0027,79.0
2132.8555,85.0
2133.7085,66.0
2134.562,66.0
2135.4158,73.0
2136.27,70.0
2137.1245,59.0
2137.9792,74.0
2138.8345,72.0
2139.69,81.0
2140.546,68.0
2141.402,90.0
2142.2585,104.0
2143.1155,117.0
2143.9727,108.0
2144.8303,73.0
2145.6882,76.0
2146.5464,65.0
2147.405,63.0
2148.264,59.0
2149.1233,63.0
2149.983,55.0
2150.843,68.0
2151.7034,68.0
2152.564,67.0
2153.425,65.0
2154.2864,55.0
2155.1482,79.0
2156.0103,101.0
2156.8726,79.0
2157.7354,77.0
2158.5984,77.0
2159.462,65.0
2160.3257,64.0
2161.1897,71.0
2162.0542,77.0
2162.919,76.0
2163.7842,85.0
2164.6497,53.0
2165.5156,67.0
2166.3818,74.0
2167.2483,55.0
2168.1152,84.0
2168.9824,58.0
2169.85,93.0
2170.718,90.0
2171.5864,78.0
2172.455,64.0
2173.324,57.0
2174.1934,72.0
2175.063,67.0
2175.933,73.0
2176.8035,92.0
2177.674,84.0
2178.5452,68.0
2179.4165,72.0
2180.2883,64.0
2181.1604,87.0
2182.033,80.0
2182.9058,84.0
2183.7788,76.0
2184.6523,66.0
2185.5261,69.0
2186.4004,75.0
2187.275,59.0
2188.15,70.0
2189.0251,68.0
2189.9006,79.0
2190.7766,81.0
2191.6528,72.0
2192.5295,68.0
2193.4065,62.0
2194.284,86.0
2195.1616,84.0
2196.0398,111.0
2196.9182,79.0
2197.7969,90.0
2198.676,82.0
2199.5554,65.0
2200.4353,70.0
2201.3154,68.0
2202.196,76.0
2203.077,64.0
2203.9583,81.0
2204.8398,70.0
2205.7217,83.0
2206.604,73.0
2207.4866,72.0
2208.3696,58.0
2209.253,66.0
2210.1367,67.0
2211.0208,66.0
2211.9053,68.0
2212.79,67.0
2213.675,98.0
2214.5605,78.0
2215.4463,84.0
2216.3325,65.0
2217.219,78.0
2218.106,95.0
2218.9932,87.0
2219.8809,70.0
2220.7688,71.0
2221.6572,73.0
2222.546,62.0
2223.4348,62.0
2224.3242,75.0
2225.2139,77.0
2226.104,80.0
2226.9944,73.0
2227.8853,64.0
2228.7764,83.0
2229.668,82.0
2230.5598,68.0
2231.4521,60.0
2232.3447,61.0
2233.2375,79.0
2234.1309,79.0
2235.0244,81.0
2235.9185,80.0
2236.8127,74.0
2237.7075,84.0
2238.6025,80.0
2239.498,73.0
2240.3938,66.0
2241.29,73.0
2242.1865,78.0
2243.0835,85.0
2243.9807,65.0
2244.8784,76.0
2245.7764,71.0
2246.6746,94.0
2247.5732,73.0
2248.4722,68.0
2249.3716,71.0
2250.2712,67.0
2251.1714,75.0
2252.0718,67.0
2252.9727,76.0
2253.8738,84.0
2254.7754,63.0
2255.6772,67.0
2256.5796,77.0
2257.4822,80.0
2258.3853,85.0
2259.2886,83.0
2260.1924,71.0
2261.0964,86.0
2262.001,68.0
2262.9058,97.0
2263.811,85.0
2264.7166,54.0
2265.6226,60.0
2266.5288,64.0
2267.4353,70.0
2268.3423,67.0
2269.2495,66.0
2270.1572,77.0
2271.0652,50.0
2271.9736,73.0
2272.8823,82.0
2273.7915,74.0
2274.701,69.0
2275.6108,102.0
2276.521,87.0
2277.4316,101.0
2278.3425,89.0
2279.254,87.0
2280.1655,98.0
2281.0776,74.0
2281.99,86.0
2282.9028,78.0
2283.816,93.0
2284.7295,76.0
2285.6433,63.0
2286.5576,75.0
2287.4722,73.0
2288.3872,86.0
2289.3025,70.0
2290.2183,60.0
2291.1343,78.0
2292.0508,83.0
2292.9675,77.0
2293.8848,82.0
2294.8022,78.0
2295.7202,77.0
2296.6384,68.0
2297.5571,84.0
2298.476,72.0
2299.3955,63.0
2300.3152,95.0
2301.2354,74.0
2302.1558,63.0
2303.0767,73.0
2303.9978,65.0
2304.9194,84.0
2305.8413,64.0
2306.7637,67.0
2307.6863,76.0
2308.6094,84.0
2309.5327,88.0
2310.4565,87.0
2311.3806,70.0
2312.3052,65.0
2313.23,82.0
2314.1553,76.0
2315.081,70.0
2316.007,79.0
2316.9336,74.0
2317.8604,73.0
2318.7876,83.0
2319.715,87.0
2320.643,91.0
2321.5713,81.0
2322.5,79.0
2323.429,75.0
2324.3584,76.0
2325.288,91.0
2326.2183,70.0
2327.1487,79.0
2328.0796,94.0
2329.0107,79.0
2329.9424,70.0
2330.8743,79.0
2331.8066,72.0
2332.7393,70.0
2333.6724,87.0
2334.6057,81.0
2335.5396,73.0
2336.4739,72.0
2337.4084,75.0
2338.3435,80.0
2339.2788,71.0
2340.2146,74.0
2341.1506,84.0
2342.0872,81.0
2343.024,69.0
2343.9612,84.0
2344.8987,117.0
2345.8367,106.0
2346.775,117.0
2347.7136,104.0
2348.6526,91.0
2349.592,92.0
2350.532,71.0
2351.4722,55.0
2352.4128,85.0
2353.3538,95.0
2354.2952,63.0
2355.2368,73.0
2356.179,72.0
2357.1213,75.0
2358.0642,72.0
2359.0073,80.0
2359.951,88.0
2360.895,98.0
2361.8394,62.0
2362.7842,89.0
2363.7292,77.0
2364.6748,90.0
2365.6206,77.0
2366.567,103.0
2367.5134,75.0
2368.4604,74.0
2369.4077,76.0
2370.3555,85.0
2371.3037,85.0
2372.2522,89.0
2373.2012,79.0
2374.1504,78.0
2375.1,66.0
2376.05,77.0
2377.0005,79.0
2377.9512,70.0
2378.9023,75.0
2379.854,98.0
2380.806,77.0
2381.7583,76.0
2382.711,75.0
2383.664,60.0
2384.6174,58.0
2385.5713,77.0
2386.5256,93.0
2387.4802,113.0
2388.4353,110.0
2389.3906,109.0
2390.3464,99.0
2391.3025,87.0
2392.259,83.0
2393.2158,88.0
2394.173,73.0
2395.1309,80.0
2396.0889,72.0
2397.0474,76.0
2398.006,79.0
2398.9653,84.0
2399.9248,62.0
2400.8848,59.0
2401.8452,67.0
2402.806,75.0
2403.767,96.0
2404.7285,107.0
2405.6904,84.0
2406.6526,76.0
2407.6152,81.0
2408.5784,65.0
2409.5417,68.0
2410.5056,61.0
2411.4697,69.0
2412.4343,79.0
2413.3994,86.0
2414.3647,85.0
2415.3306,83.0
2416.2966,79.0
2417.2632,77.0
2418.23,78.0
2419.1973,63.0
2420.165,70.0
2421.133,74.0
2422.1016,84.0
2423.0703,75.0
2424.0396,77.0
2425.0093,75.0
2425.9792,69.0
2426.9497,86.0
2427.9204,59.0
2428.8916,64.0
2429.863,71.0
2430.835,84.0
2431.8074,86.0
2432.78,80.0
2433.7532,61.0
2434.7266,75.0
2435.7004,79.0
2436.6748,62.0
2437.6494,86.0
2438.6245,62.0
2439.5999,67.0
2440.5757,59.0
2441.552,70.0
2442.5286,78.0
2443.5056,67.0
2444.483,64.0
2445.4607,81.0
2446.439,64.0
2447.4175,84.0
2448.3965,84.0
2449.3757,84.0
2450.3555,67.0
2451.3357,70.0
2452.3162,86.0
2453.297,90.0
2454.2783,73.0
2455.26,81.0
2456.2422,78.0
2457.2246,60.0
2458.2075,74.0
2459.191,70.0
2460.1746,76.0
2461.1587,64.0
2462.143,75.0
2463.128,79.0
2464.1133,76.0
2465.0989,84.0
2466.085,84.0
2467.0713,88.0
2468.058,93.0
2469.0454,68.0
2470.033,53.0
2471.021,78.0
2472.0095,65.0
2472.9983,78.0
2473.9875,79.0
2474.977,65.0
2475.967,77.0
2476.9575,59.0
2477.9482,85.0
2478.9395,69.0
2479.931,77.0
2480.9229,76.0
2481.9153,79.0
2482.908,77.0
2483.9011,78.0
2484.8948,63.0
2485.8887,92.0
2486.883,69.0
2487.878,79.0
2488.873,59.0
2489.8687,80.0
2490.8645,88.0
2491.8608,79.0
2492.8577,86.0
2493.8547,71.0
2494.8523,58.0
2495.8503,66.0
2496.8486,78.0
2497.8474,94.0
2498.8464,71.0
2499.846,70.0
2500.846,82.0
2501.8462,70.0
2502.847,78.0
2503.8481,65.0
2504.8496,76.0
2505.8516,74.0
2506.854,77.0
2507.8567,72.0
2508.8599,74.0
2509.8635,81.0
2510.8674,76.0
2511.8718,60.0
2512.8765,70.0
2513.8816,68.0
2514.8872,62.0
2515.893,68.0
2516.8994,78.0
2517.9062,84.0
2518.9133,70.0
2519.921,67.0
2520.929,77.0
2521.9373,83.0
2522.946,73.0
2523.9553,64.0
2524.9648,69.0
2525.9749,75.0
2526.9854,67.0
2527.996,77.0
2529.0073,70.0
2530.019,76.0
2531.031,87.0
2532.0435,85.0
2533.0562,86.0
2534.0693,69.0
2535.083,81.0
2536.097,70.0
2537.1113,58.0
2538.1262,67.0
2539.1414,76.0
2540.157,86.0
2541.173,56.0
2542.1895,62.0
2543.2063,70.0
2544.2236,68.0
2545.2412,64.0
2546.2593,67.0
2547.2778,70.0
2548.2966,70.0
2549.316,73.0
2550.3357,81.0
2551.3557,71.0
2552.3762,69.0
2553.3972,73.0
2554.4185,71.0
2555.4402,84.0
2556.4624,76.0
2557.485,65.0
2558.508,58.0
2559.5315,69.0
2560.5554,69.0
2561.5796,72.0
2562.6042,76.0
2563.6294,78.0
2564.6548,84.0
2565.6807,74.0
2566.707,82.0
2567.7336,73.0
2568.7607,78.0
2569.7883,63.0
2570.8162,69.0
2571.8445,72.0
2572.8733,73.0
2573.9023,62.0
2574.932,76.0
2575.962,75.0
2576.9922,61.0
2578.023,74.0
2579.0542,76.0
2580.086,63.0
2581.118,71.0
2582.1504,65.0
2583.1833,69.0
2584.2166,81.0
2585.2502,71.0
2586.2844,73.0
2587.3188,76.0
2588.3538,67.0
2589.3892,80.0
2590.4248,76.0
2591.461,89.0
2592.4976,92.0
2593.5347,78.0
2594.572,68.0
2595.6099,81.0
2596.6482,67.0
2597.6868,72.0
2598.7258,76.0
2599.7654,91.0
2600.8052,64.0
2601.8455,79.0
2602.8862,65.0
2603.9275,71.0
2604.969,92.0
2606.011,77.0
2607.0535,80.0
2608.0962,76.0
2609.1394,99.0
2610.183,92.0
2611.2273,89.0
2612.2717,86.0
2613.3167,67.0
2614.362,73.0
2615.4077,83.0
2616.4539,84.0
2617.5005,73.0
2618.5476,83.0
2619.595,73.0
2620.6428,82.0
2621.6912,88.0
2622.7397,70.0
2623.7888,56.0
2624.8384,87.0
2625.8884,79.0
2626.9387,70.0
2627.9895,78.0
2629.0408,94.0
2630.0923,80.0
2631.1443,65.0
2632.1968,74.0
2633.2498,101.0
2634.303,79.0
2635.3567,79.0
2636.411,99.0
2637.4653,74.0
2638.5203,65.0
2639.5757,64.0
2640.6316,88.0
2641.6877,93.0
2642.7444,81.0
2643.8015,74.0
2644.8591,68.0
2645.917,78.0
2646.9753,78.0
2648.0342,77.0
2649.0935,76.0
2650.153,92.0
2651.2131,70.0
2652.2737,72.0
2653.3345,62.0
2654.3958,73.0
2655.4575,73.0
2656.5198,72.0
2657.5823,84.0
2658.6453,76.0
2659.7087,70.0
2660.7727,86.0
2661.837,89.0
2662.9016,80.0
2663.9668,76.0
2665.0325,61.0
2666.0984,81.0
2667.1648,86.0
2668.2317,101.0
2669.299,93.0
2670.3667,68.0
2671.4348,94.0
2672.5034,84.0
2673.5725,83.0
2674.6418,86.0
2675.7117,88.0
2676.782,84.0
2677.8528,78.0
2678.9238,69.0
2679.9954,81.0
2681.0674,80.0
2682.14,65.0
2683.2126,63.0
2684.286,76.0
2685.3596,83.0
2686.4338,82.0
2687.5083,71.0
2688.5833,69.0
2689.6587,66.0
2690.7346,73.0
2691.8108,67.0
2692.8875,73.0
2693.9646,86.0
2695.0422,70.0
2696.1204,67.0
2697.1987,73.0
2698.2776,94.0
2699.357,107.0
2700.4368,83.0
2701.5168,86.0
2702.5974,84.0
2703.6785,81.0
2704.76,69.0
2705.8418,94.0
2706.924,93.0
2708.0068,90.0
2709.09,66.0
2710.1738,94.0
2711.2578,67.0
2712.3423,96.0
2713.4272,81.0
2714.5127,73.0
2715.5984,94.0
2716.6846,100.0
2717.7712,81.0
2718.8584,73.0
2719.946,66.0
2721.034,68.0
2722.1223,96.0
2723.2112,88.0
2724.3005,113.0
2725.3901,102.0
2726.4802,66.0
2727.5708,73.0
2728.6619,71.0
2729.7534,118.0
2730.8452,84.0
2731.9375,77.0
2733.0303,73.0
2734.1235,73.0
2735.2173,102.0
2736.3113,97.0
2737.4058,100.0
2738.5007,87.0
2739.5962,90.0
2740.6921,78.0
2741.7883,80.0
2742.885,74.0
2743.9822,96.0
2745.0798,83.0
2746.178,83.0
2747.2764,59.0
2748.3752,79.0
2749.4746,78.0
2750.5745,72.0
2751.6748,94.0
2752.7754,88.0
2753.8765,62.0
2754.978,74.0
2756.08,55.0
2757.1826,78.0
2758.2854,82.0
2759.3887,70.0
2760.4924,84.0
2761.5967,93.0
2762.7014,97.0
2763.8064,89.0
2764.9119,69.0
2766.0178,84.0
2767.1243,77.0
2768.2312,81.0
2769.3384,77.0
2770.446,86.0
2771.5542,68.0
2772.6628,76.0
2773.772,72.0
2774.8816,84.0
2775.9915,82.0
2777.1018,77.0
2778.2126,88.0
2779.324,89.0
2780.4358,73.0
2781.5479,89.0
2782.6604,70.0
2783.7734,59.0
2784.887,66.0
2786.001,74.0
2787.1155,76.0
2788.2302,58.0
2789.3455,56.0
2790.4612,75.0
2791.5774,99.0
2792.694,117.0
2793.8113,174.0
2794.9287,179.0
2796.0466,163.0
2797.165,154.0
2798.284,148.0
2799.4033,132.0
2800.5232,122.0
2801.6433,121.0
2802.764,121.0
2803.885,119.0
2805.0066,102.0
2806.1287,103.0
2807.2512,107.0
2808.374,124.0
2809.4973,112.0
2810.621,108.0
2811.7454,122.0
2812.87,116.0
2813.9954,137.0
2815.1208,98.0
2816.2468,138.0
2817.3733,118.0
2818.5002,121.0
2819.6277,102.0
2820.7556,117.0
2821.884,108.0
2823.0127,127.0
2824.1418,125.0
2825.2715,110.0
2826.4016,98.0
2827.5322,119.0
2828.6633,141.0
2829.7947,135.0
2830.9265,128.0
2832.0588,107.0
2833.1917,100.0
2834.325,105.0
2835.4587,123.0
2836.593,125.0
2837.7275,113.0
2838.8625,98.0
2839.998,112.0
2841.134,93.0
2842.2705,117.0
2843.4075,112.0
2844.545,115.0
2845.6829,132.0
2846.821,137.0
2847.9597,114.0
2849.0989,114.0
2850.2385,120.0
2851.3787,108.0
2852.5193,113.0
2853.6604,126.0
2854.8018,127.0
2855.9436,113.0
2857.086,134.0
2858.2288,130.0
2859.372,103.0
2860.5159,125.0
2861.6602,117.0
2862.805,120.0
2863.95,109.0
2865.0955,133.0
2866.2415,132.0
2867.388,152.0
2868.535,114.0
2869.6824,111.0
2870.8303,136.0
2871.9788,120.0
2873.1274,126.0
2874.2766,120.0
2875.4263,113.0
2876.5764,119.0
2877.727,110.0
2878.8782,95.0
2880.0298,124.0
2881.182,147.0
2882.3345,146.0
2883.4873,103.0
2884.6406,107.0
2885.7944,118.0
2886.9487,148.0
2888.1035,187.0
2889.2588,178.0
2890.4146,185.0
2891.5708,135.0
2892.7275,120.0
2893.8845,126.0
2895.042,103.0
2896.2,120.0
2897.3584,123.0
2898.5173,108.0
2899.6768,127.0
2900.8367,110.0
2901.997,112.0
2903.158,116.0
2904.3193,172.0
2905.481,164.0
2906.643,156.0
2907.8057,152.0
2908.9688,157.0
2910.1323,149.0
2911.2964,121.0
2912.461,125.0
2913.626,129.0
2914.7915,97.0
2915.9575,117.0
2917.124,114.0
2918.2908,119.0
2919.458,108.0
2920.6257,143.0
2921.794,262.0
2922.9626,336.0
2924.1318,287.0
2925.3015,208.0
2926.4717,164.0
2927.6423,148.0
2928.8135,124.0
2929.985,128.0
2931.157,117.0
2932.3293,108.0
2933.5022,118.0
2934.6755,112.0
2935.8494,113.0
2937.0237,108.0
2938.1985,134.0
2939.3738,170.0
2940.5496,137.0
2941.7258,132.0
2942.9026,128.0
2944.0798,128.0
2945.2576,128.0
2946.4358,119.0
2947.6143,109.0
2948.7932,117.0
2949.9727,139.0
2951.1526,131.0
2952.333,131.0
2953.514,129.0
2954.6953,123.0
2955.8772,130.0
2957.0596,127.0
2958.2424,107.0
2959.4258,119.0
2960.6096,118.0
2961.794,130.0
2962.9788,108.0
2964.164,108.0
2965.3496,108.0
2966.5356,117.0
2967.7222,121.0
2968.9092,97.0
2970.0967,100.0
2971.2847,119.0
2972.4731,101.0
2973.662,105.0
2974.8516,118.0
2976.0415,111.0
2977.232,129.0
2978.4229,118.0
2979.6143,111.0
2980.8062,122.0
2981.9985,120.0
2983.1914,139.0
2984.3848,122.0
2985.5786,109.0
2986.773,123.0
2987.9678,97.0
2989.1628,122.0
2990.3584,102.0
2991.5544,114.0
2992.751,101.0
2993.948,122.0
2995.1455,126.0
2996.3435,130.0
2997.542,125.0
2998.741,134.0
2999.9404,95.0
3001.1404,90.0
3002.3408,121.0
3003.5417,117.0
3004.7432,135.0
3005.945,103.0
3007.1475,116.0
3008.3503,113.0
3009.5537,114.0
3010.7576,137.0
3011.962,123.0
3013.1667,91.0
3014.372,114.0
3015.578,119.0
3016.7842,102.0
3017.991,94.0
3019.1982,142.0
3020.406,126.0
3021.6143,142.0
3022.823,123.0
3024.0322,115.0
3025.242,116.0
3026.4521,124.0
3027.6628,120.0
3028.874,107.0
3030.0857,113.0
3031.2976,111.0
3032.51,124.0
3033.723,126.0
3034.9363,103.0
3036.1501,112.0
3037.3645,117.0
3038.5793,126.0
3039.7947,112.0
3041.0105,114.0
3042.2268,125.0
3043.4436,128.0
3044.661,136.0
3045.8787,127.0
3047.097,103.0
3048.3157,105.0
3049.535,106.0
3050.7546,107.0
3051.9749,112.0
3053.1956,110.0
3054.4167,135.0
3055.6384,130.0
3056.8606,128.0
3058.0833,112.0
3059.3064,126.0
3060.53,138.0
3061.7542,127.0
3062.9788,122.0
3064.2039,108.0
3065.4294,107.0
3066.6555,101.0
3067.882,97.0
3069.1091,104.0
3070.3367,109.0
3071.5647,123.0
3072.7932,109.0
3074.0222,99.0
3075.2517,112.0
3076.4817,112.0
3077.7124,150.0
3078.9436,130.0
3080.1753,139.0
3081.4075,117.0
3082.6401,114.0
3083.8733,111.0
3085.107,110.0
3086.341,117.0
3087.5757,124.0
3088.8108,122.0
3090.0464,108.0
3091.2825,98.0
3092.519,118.0
3093.756,111.0
3094.9937,94.0
3096.2317,141.0
3097.4702,117.0
3098.7092,117.0
3099.9487,117.0
3101.1887,105.0
3102.4292,132.0
3103.6702,105.0
3104.9116,129.0
3106.1536,107.0
3107.396,109.0
3108.639,113.0
3109.8823,125.0
3111.1262,123.0
3112.3706,125.0
3113.6155,119.0
3114.8608,111.0
3116.1067,113.0
3117.353,119.0
3118.5999,133.0
3119.8474,122.0
3121.0955,103.0
3122.344,134.0
3123.593,117.0
3124.8425,131.0
3126.0925,118.0
3127.343,112.0
3128.594,132.0
3129.8455,109.0
3131.0974,114.0
3132.3499,116.0
3133.6028,113.0
3134.8562,114.0
3136.11,94.0
3137.3645,127.0
3138.6194,115.0
3139.8748,108.0
3141.1306,95.0
3142.387,101.0
3143.6438,118.0
3144.9014,123.0
3146.1594,115.0
3147.418,114.0
3148.677,124.0
3149.9365,115.0
3151.1965,127.0
3152.457,134.0
3153.718,124.0
3154.9795,118.0
3156.2415,98.0
3157.504,120.0
3158.7668,136.0
3160.0303,133.0
3161.2942,126.0
3162.5586,126.0
3163.8237,108.0
3165.0894,136.0
3166.3555,117.0
3167.622,127.0
3168.8892,100.0
3170.1567,114.0
3171.4248,110.0
3172.6934,127.0
3173.9624,113.0
3175.232,115.0
3176.502,111.0
3177.7725,107.0
3179.0435,88.0
3180.3152,116.0
3181.5874,127.0
3182.86,100.0
3184.1333,111.0
3185.407,126.0
3186.6812,139.0
3187.9558,121.0
3189.231,110.0
3190.5066,128.0
3191.7827,126.0
3193.0593,108.0
3194.3367,111.0
3195.6145,140.0
3196.8928,132.0
3198.1716,127.0
3199.451,118.0
3200.7307,124.0
3202.011,120.0
3203.2917,117.0
3204.573,127.0
3205.8547,131.0
3207.137,105.0
3208.42,132.0
3209.7034,122.0
3210.9873,115.0
3212.2717,106.0
3213.5566,130.0
3214.842,122.0
3216.128,127.0
3217.4143,146.0
3218.7012,128.0
3219.9888,116.0
3221.2769,107.0
3222.5654,141.0
3223.8545,129.0
3225.144,115.0
3226.434,149.0
3227.7246,127.0
3229.0156,115.0
3230.3071,125.0
3231.5994,107.0
3232.892,96.0
3234.1853,113.0
3235.479,123.0
3236.7732,115.0
3238.0679,119.0
3239.363,103.0
3240.6587,119.0
3241.9548,110.0
3243.2517,112.0
3244.549,117.0
3245.847,126.0
3247.1453,100.0
3248.444,130.0
3249.7434,90.0
3251.0432,111.0
3252.3438,146.0
3253.6448,140.0
3254.9463,133.0
3256.2483,136.0
3257.5508,124.0
3258.8538,151.0
3260.1572,126.0
3261.4612,101.0
3262.7659,118.0
3264.071,93.0
3265.3767,101.0
3266.6829,132.0
3267.9895,131.0
3269.2966,137.0
3270.6042,130.0
3271.9126,130.0
3273.2214,126.0
3274.5308,132.0
3275.8406,113.0
3277.151,94.0
3278.4617,125.0
3279.773,125.0
3281.085,111.0
3282.3975,103.0
3283.7104,118.0
3285.024,104.0
3286.338,143.0
3287.6523,115.0
3288.9673,128.0
3290.283,121.0
3291.599,150.0
3292.9158,120.0
3294.233,113.0
3295.5505,129.0
3296.8687,136.0
3298.1875,112.0
3299.5068,145.0
3300.8267,143.0
3302.147,116.0
3303.4678,111.0
3304.789,107.0
3306.111,115.0
3307.4336,131.0
3308.7566,122.0
3310.08,119.0
3311.404,120.0
3312.7285,130.0
3314.0537,107.0
3315.3794,125.0
3316.7056,122.0
3318.0322,113.0
3319.3594,110.0
3320.687,134.0
3322.0154,119.0
3323.3442,136.0
3324.6736,122.0
3326.0034,121.0
3327.3337,127.0
3328.6648,143.0
3329.9963,121.0
3331.3284,106.0
3332.661,116.0
3333.994,114.0
3335.3274,122.0
3336.6616,141.0
3337.9963,143.0
3339.3315,115.0
3340.6672,152.0
3342.0034,148.0
3343.3403,108.0
3344.6777,133.0
3346.0156,110.0
3347.354,132.0
3348.6929,114.0
3350.0322,117.0
3351.3723,134.0
3352.713,144.0
3354.054,114.0
3355.3955,136.0
3356.7375,134.0
3358.0803,117.0
3359.4236,138.0
3360.7673,122.0
3362.1116,138.0
3363.4563,123.0
3364.8018,115.0
3366.1477,124.0
3367.4941,140.0
3368.841,125.0
3370.1887,128.0
3371.5369,133.0
3372.8855,117.0
3374.2346,135.0
3375.5842,159.0
3376.9346,127.0
3378.2854,123.0
3379.6367,140.0
3380.9885,164.0
3382.3408,115.0
3383.6938,133.0
3385.0474,129.0
3386.4014,138.0
3387.7559,141.0
3389.1108,118.0
3390.4666,122.0
3391.8228,136.0
3393.1794,146.0
3394.5366,112.0
3395.8945,132.0
3397.253,131.0
3398.6118,131.0
3399.9712,128.0
3401.3313,131.0
3402.692,151.0
3404.053,173.0
3405.4146,160.0
3406.7766,147.0
3408.1394,106.0
3409.5027,127.0
3410.8665,114.0
3412.2307,112.0
3413.5957,161.0
3414.9612,126.0
3416.3271,125.0
3417.6936,131.0
3419.0608,142.0
3420.4285,138.0
3421.7966,146.0
3423.1653,137.0
3424.5347,140.0
3425.9045,129.0
3427.275,121.0
3428.6458,124.0
3430.017,125.0
3431.3892,119.0
3432.7617,145.0
3434.1348,122.0
3435.5083,148.0
3436.8826,136.0
3438.2573,117.0
3439.6326,153.0
3441.0083,128.0
3442.3848,119.0
3443.7617,139.0
3445.1392,135.0
3446.5173,142.0
3447.896,136.0
3449.2751,129.0
3450.6548,147.0
3452.0352,146.0
3453.416,121.0
3454.7974,131.0
3456.1792,139.0
3457.5618,125.0
3458.9448,143.0
3460.3284,113.0
3461.7124,129.0
3463.0972,153.0
3464.4824,138.0
3465.8682,132.0
3467.2544,128.0
3468.6414,147.0
3470.0288,131.0
3471.4167,122.0
3472.8054,148.0
3474.1946,124.0
3475.5842,160.0
3476.9744,127.0
3478.3652,137.0
3479.7566,119.0
3481.1484,139.0
3482.541,134.0
3483.934,173.0
3485.3276,161.0
3486.7217,168.0
3488.1165,153.0
3489.5117,128.0
3490.9075,132.0
3492.304,141.0
3493.701,110.0
3495.0984,145.0
3496.4963,149.0
3497.895,153.0
3499.2942,133.0
3500.6938,152.0
3502.0942,166.0
3503.495,143.0
3504.8965,157.0
3506.2983,139.0
3507.701,161.0
3509.104,171.0
3510.5076,147.0
3511.9119,152.0
3513.3167,144.0
3514.722,150.0
3516.128,125.0
3517.5344,99.0
3518.9414,146.0
3520.3489,141.0
3521.757,164.0
3523.1658,201.0
3524.575,135.0
3525.9849,111.0
3527.3953,134.0
3528.8062,144.0
3530.2178,196.0
3531.63,206.0
3533.0425,137.0
3534.4558,155.0
3535.8696,148.0
3537.284,130.0
3538.6987,150.0
3540.1143,134.0
3541.5303,140.0
3542.9468,130.0
3544.364,126.0
3545.7817,141.0
3547.2,145.0
3548.619,132.0
3550.0383,143.0
3551.4583,123.0
3552.879,151.0
3554.3,140.0
3555.7217,167.0
3557.144,146.0
3558.567,141.0
3559.9902,145.0
3561.4143,137.0
3562.8389,140.0
3564.264,145.0
3565.6897,155.0
3567.116,130.0
3568.5427,132.0
3569.9702,149.0
3571.3982,169.0
3572.8267,156.0
3574.2559,149.0
3575.6855,165.0
3577.1157,175.0
3578.5466,160.0
3579.978,196.0
3581.41,183.0
3582.8425,167.0
3584.2756,152.0
3585.7092,171.0
3587.1436,168.0
3588.5784,180.0
3590.014,159.0
3591.45,158.0
3592.8865,167.0
3594.3237,154.0
3595.7615,179.0
3597.1997,163.0
3598.6387,167.0
3600.0781,184.0
3601.518,194.0
3602.9587,160.0
3604.4,159.0
3605.8416,161.0
3607.284,219.0
3608.7268,213.0
3610.1704,180.0
3611.6145,177.0
3613.059,149.0
3614.5044,180.0
3615.9502,218.0
3617.3965,281.0
3618.8435,215.0
3620.291,157.0
3621.739,177.0
3623.1877,157.0
3624.637,179.0
3626.087,175.0
3627.5374,182.0
3628.9883,178.0
3630.44,161.0
3631.892,153.0
3633.3447,152.0
3634.798,182.0
3636.252,153.0
3637.7065,149.0
3639.1616,143.0
3640.6172,156.0
3642.0735,164.0
3643.5303,213.0
3644.9878,189.0
3646.4458,178.0
3647.9043,151.0
3649.3635,149.0
3650.8232,185.0
3652.2837,168.0
3653.7446,152.0
3655.206,123.0
3656.6682,176.0
3658.1309,167.0
3659.594,158.0
3661.0579,210.0
3662.5222,194.0
3663.9873,176.0
3665.453,173.0
3666.919,161.0
3668.3857,181.0
3669.853,170.0
3671.321,153.0
3672.7896,143.0
3674.2585,154.0
3675.7283,193.0
3677.1985,190.0
3678.6694,218.0
3680.1409,190.0
3681.613,185.0
3683.0857,166.0
3684.5588,166.0
3686.0327,139.0
3687.507,149.0
3688.9822,170.0
3690.4578,182.0
3691.9338,191.0
3693.4106,179.0
3694.888,185.0
3696.366,181.0
3697.8445,164.0
3699.3237,160.0
3700.8035,177.0
3702.2837,159.0
3703.7646,158.0
3705.246,153.0
3706.7283,148.0
3708.211,207.0
3709.6943,211.0
3711.1782,219.0
3712.6626,207.0
3714.1477,182.0
3715.6333,168.0
3717.1196,174.0
3718.6064,193.0
3720.094,194.0
3721.582,180.0
3723.0706,179.0
3724.5598,175.0
3726.0496,190.0
3727.54,189.0
3729.031,191.0
3730.5227,177.0
3732.015,195.0
3733.5078,223.0
3735.0012,260.0
3736.495,245.0
3737.9897,216.0
3739.4849,190.0
3740.9807,163.0
3742.477,174.0
3743.974,222.0
3745.4717,218.0
3746.97,186.0
3748.4688,198.0
3749.968,332.0
3751.468,623.0
3752.9685,598.0
3754.4697,397.0
3755.9714,313.0
3757.4739,255.0
3758.9768,196.0
3760.4805,183.0
3761.9846,178.0
3763.4895,191.0
3764.9949,185.0
3766.501,258.0
3768.0076,256.0
3769.515,205.0
3771.0227,216.0
3772.531,209.0
3774.04,238.0
3775.5496,221.0
3777.0598,228.0
3778.5706,209.0
3780.082,197.0
3781.594,237.0
3783.1067,273.0
3784.6199,253.0
3786.1338,251.0
3787.6482,212.0
3789.1633,208.0
3790.679,196.0
3792.1953,178.0
3793.7122,197.0
3795.2297,190.0
3796.7478,193.0
3798.2666,227.0
3799.786,222.0
3801.306,180.0
3802.8264,168.0
3804.3477,185.0
3805.8694,206.0
3807.3918,197.0
3808.9148,216.0
3810.4385,187.0
3811.9626,226.0
3813.4875,202.0
3815.013,273.0
3816.539,245.0
3818.0657,219.0
3819.593,190.0
3821.1208,177.0
3822.6494,184.0
3824.1785,207.0
3825.7083,202.0
3827.2385,197.0
3828.7695,241.0
3830.301,229.0
3831.8333,251.0
3833.366,232.0
3834.8994,197.0
3836.4333,202.0
3837.968,195.0
3839.5032,231.0
3841.039,200.0
3842.5754,204.0
3844.1125,202.0
3845.6501,204.0
3847.1885,248.0
3848.7273,330.0
3850.2668,300.0
3851.807,249.0
3853.3477,194.0
3854.889,201.0
3856.431,195.0
3857.9734,212.0
3859.5166,196.0
3861.0603,156.0
3862.6047,204.0
3864.1497,235.0
3865.6953,210.0
3867.2417,229.0
3868.7886,223.0
3870.3362,207.0
3871.8843,190.0
3873.433,200.0
3874.9824,232.0
3876.5325,202.0
3878.083,206.0
3879.6343,237.0
3881.186,238.0
3882.7385,209.0
3884.2915,235.0
3885.8452,257.0
3887.3997,207.0
3888.9546,207.0
3890.5103,186.0
3892.0664,185.0
3893.6233,176.0
3895.1807,184.0
3896.7388,210.0
3898.2974,199.0
3899.8567,237.0
3901.4167,256.0
3902.9773,226.0
3904.5386,181.0
3906.1003,227.0
3907.6628,196.0
3909.2258,202.0
3910.7896,165.0
3912.3538,177.0
3913.9187,217.0
3915.4844,216.0
3917.0505,218.0
3918.6174,220.0
3920.1848,215.0
3921.753,189.0
3923.3215,186.0
3924.8909,176.0
3926.461,170.0
3928.0315,178.0
3929.6028,194.0
3931.1746,206.0
3932.747,204.0
3934.32,185.0
3935.8938,194.0
3937.4683,203.0
3939.0432,164.0
3940.619,187.0
3942.195,184.0
3943.772,190.0
3945.3494,165.0
3946.9275,157.0
3948.5063,187.0
3950.0857,220.0
3951.6658,201.0
3953.2463,186.0
3954.8276,216.0
3956.4097,184.0
3957.9922,183.0
3959.5754,207.0
3961.1592,182.0
3962.7437,185.0
3964.3289,173.0
3965.9146,168.0
3967.501,167.0
3969.088,148.0
3970.6755,160.0
3972.264,173.0
3973.8528,197.0
3975.4424,165.0
3977.0325,191.0
3978.6233,183.0
3980.2148,171.0
3981.807,185.0
3983.3997,182.0
3984.993,188.0
3986.587,174.0
3988.1816,187.0
3989.7769,176.0
3991.3728,176.0
3992.9692,203.0
3994.5664,191.0
3996.1643,180.0
3997.7627,177.0
3999.3618,163.0
4000.9617,177.0
4002.562,203.0
4004.163,225.0
4005.7646,196.0
4007.367,191.0
4008.97,192.0
4010.5735,190.0
4012.1777,225.0
4013.7827,219.0
4015.3882,211.0
4016.9944,212.0
4018.601,184.0
4020.2085,200.0
4021.8167,213.0
4023.4253,174.0
4025.0347,194.0
4026.6448,183.0
4028.2554,249.0
4029.8667,217.0
4031.4788,221.0
4033.0913,202.0
4034.7046,216.0
4036.3184,220.0
4037.9329,267.0
4039.548,247.0
4041.1638,258.0
4042.7803,252.0
4044.3975,255.0
4046.0151,251.0
4047.6335,220.0
4049.2527,259.0
4050.8723,330.0
4052.4927,339.0
4054.1138,313.0
4055.7354,276.0
4057.3577,285.0
4058.9807,338.0
4060.6042,453.0
4062.2285,355.0
4063.8535,339.0
4065.479,303.0
4067.1052,309.0
4068.7322,326.0
4070.3596,359.0
4071.9878,453.0
4073.6167,372.0
4075.246,365.0
4076.8762,331.0
4078.507,323.0
4080.1384,399.0
4081.7705,456.0
4083.4033,440.0
4085.0366,528.0
4086.6707,573.0
4088.3054,488.0
4089.9407,378.0
4091.5767,318.0
4093.2134,786.0
4094.8506,1273.0
4096.489,741.0
4098.1274,375.0
4099.7666,325.0
4101.4067,876.0
4103.0474,2334.0
4104.6885,1788.0
4106.3306,805.0
4107.973,383.0
4109.616,322.0
4111.2603,348.0
4112.905,386.0
4114.55,456.0
4116.196,395.0
4117.8423,301.0
4119.4893,254.0
4121.137,243.0
4122.7856,270.0
4124.4346,246.0
4126.0845,239.0
4127.735,225.0
4129.3857,181.0
4131.0376,187.0
4132.69,222.0
4134.343,213.0
4135.9966,210.0
4137.651,225.0
4139.306,188.0
4140.962,193.0
4142.618,174.0
4144.2754,211.0
4145.933,236.0
4147.5913,213.0
4149.2505,210.0
4150.91,220.0
4152.5703,224.0
4154.2314,196.0
4155.893,221.0
4157.5557,188.0
4159.2188,212.0
4160.8823,190.0
4162.547,194.0
4164.212,172.0
4165.8774,243.0
4167.544,205.0
4169.211,205.0
4170.8784,216.0
4172.547,227.0
4174.216,261.0
4175.8857,268.0
4177.556,254.0
4179.227,226.0
4180.899,224.0
4182.5713,223.0
4184.244,227.0
4185.918,232.0
4187.5923,220.0
4189.267,264.0
4190.943,257.0
4192.619,202.0
4194.2964,199.0
4195.974,245.0
4197.6523,251.0
4199.3315,231.0
4201.011,207.0
4202.6914,222.0
4204.3726,213.0
4206.054,223.0
4207.737,246.0
4209.42,203.0
4211.1035,267.0
4212.788,236.0
4214.473,217.0
4216.1587,189.0
4217.845,209.0
4219.532,194.0
4221.22,216.0
4222.9087,198.0
4224.5977,219.0
4226.2876,232.0
4227.978,204.0
4229.6694,191.0
4231.3613,216.0
4233.0537,232.0
4234.747,238.0
4236.441,227.0
4238.1353,242.0
4239.8306,212.0
4241.5264,235.0
4243.223,228.0
4244.9204,228.0
4246.618,223.0
4248.317,240.0
4250.016,240.0
4251.7163,238.0
4253.417,252.0
4255.118,229.0
4256.8203,290.0
4258.523,258.0
4260.2266,228.0
4261.9307,243.0
4263.6353,240.0
4265.341,289.0
4267.047,282.0
4268.754,325.0
4270.4614,300.0
4272.1694,267.0
4273.8784,250.0
4275.588,295.0
4277.2983,365.0
4279.0093,343.0
4280.7207,281.0
4282.433,245.0
4284.146,369.0
4285.86,559.0
4287.574,491.0
4289.289,338.0
4291.005,250.0
4292.721,230.0
4294.4385,265.0
4296.1562,273.0
4297.8745,327.0
4299.5938,259.0
4301.3135,258.0
4303.034,251.0
4304.7554,249.0
4306.477,244.0
4308.1997,215.0
4309.923,225.0
4311.647,220.0
4313.3716,219.0
4315.097,208.0
4316.823,183.0
4318.55,185.0
4320.2773,202.0
4322.0054,214.0
4323.7344,220.0
4325.464,217.0
4327.194,210.0
4328.925,207.0
4330.6562,216.0
4332.3887,237.0
4334.1216,238.0
4335.8555,203.0
4337.59,222.0
4339.3247,264.0
4341.0605,193.0
4342.797,208.0
4344.534,226.0
4346.272,195.0
4348.0103,208.0
4349.7495,207.0
4351.4893,200.0
4353.23,208.0
4354.971,210.0
4356.7134,239.0
4358.456,221.0
4360.199,218.0
4361.9434,201.0
4363.688,228.0
4365.4336,204.0
4367.1797,223.0
4368.927,215.0
4370.6743,198.0
4372.4224,253.0
4374.1714,223.0
4375.921,239.0
4377.6714,211.0
4379.4224,228.0
4381.1743,242.0
4382.927,212.0
4384.6797,235.0
4386.4336,247.0
4388.188,218.0
4389.9434,268.0
4391.699,212.0
4393.456,245.0
4395.2134,249.0
4396.9717,241.0
4398.7305,244.0
4400.4897,275.0
4402.25,220.0
4404.0107,228.0
4405.7725,222.0
4407.5347,292.0
4409.298,301.0
4411.0615,264.0
4412.826,217.0
4414.5913,224.0
4416.357,317.0
4418.1235,337.0
4419.8906,277.0
4421.6587,269.0
4423.4272,259.0
4425.197,232.0
4426.967,222.0
4428.738,267.0
4430.5093,316.0
4432.2812,304.0
4434.054,217.0
4435.8276,238.0
4437.602,301.0
4439.377,356.0
4441.153,309.0
4442.929,270.0
4444.7065,257.0
4446.4844,233.0
4448.263,255.0
4450.0425,277.0
4451.8223,283.0
4453.603,246.0
4455.3843,249.0
4457.1665,238.0
4458.949,281.0
4460.733,325.0
4462.517,260.0
4464.3022,241.0
4466.088,274.0
4467.8745,326.0
4469.6616,329.0
4471.4497,282.0
4473.2383,234.0
4475.0273,279.0
4476.8174,247.0
4478.608,274.0
4480.3994,282.0
4482.1914,308.0
4483.9844,268.0
4485.778,223.0
4487.5723,276.0
4489.367,298.0
4491.163,311.0
4492.9595,299.0
4494.757,258.0
4496.5547,252.0
4498.3535,342.0
4500.153,285.0
4501.953,261.0
4503.754,268.0
4505.555,274.0
4507.3574,291.0
4509.16,252.0
4510.964,271.0
4512.768,270.0
4514.573,302.0
4516.379,292.0
4518.1855,232.0
4519.9927,236.0
4521.801,299.0
4523.6094,319.0
4525.419,272.0
4527.229,240.0
4529.04,270.0
4530.8516,345.0
4532.664,340.0
4534.477,269.0
4536.291,218.0
4538.1055,275.0
4539.921,290.0
4541.737,264.0
4543.5537,233.0
4545.371,228.0
4547.1895,250.0
4549.0083,255.0
4550.828,239.0
4552.6484,238.0
4554.4697,216.0
4556.2915,221.0
4558.1143,204.0
4559.9375,237.0
4561.7617,251.0
4563.5864,242.0
4565.4116,226.0
4567.238,221.0
4569.0645,250.0
4570.892,234.0
4572.72,229.0
4574.5493,236.0
4576.379,223.0
4578.2095,235.0
4580.0405,224.0
4581.8726,243.0
4583.705,264.0
4585.5386,186.0
4587.3726,234.0
4589.2075,223.0
4591.043,233.0
4592.8794,264.0
4594.7163,263.0
4596.554,242.0
4598.3926,241.0
4600.232,231.0
4602.0723,241.0
4603.913,234.0
4605.755,230.0
4607.597,205.0
4609.4404,243.0
4611.284,262.0
4613.129,269.0
4614.974,209.0
4616.8203,208.0
4618.667,242.0
4620.5146,228.0
4622.363,230.0
4624.212,242.0
4626.0615,243.0
4627.912,232.0
4629.763,250.0
4631.615,218.0
4633.468,256.0
4635.3213,241.0
4637.1753,243.0
4639.0303,241.0
4640.8857,253.0
4642.742,243.0
4644.599,258.0
4646.457,262.0
4648.3154,238.0
4650.175,220.0
4652.0347,224.0
4653.8955,214.0
4655.757,228.0
4657.619,212.0
4659.4824,236.0
4661.346,269.0
4663.211,221.0
4665.076,242.0
4666.9424,247.0
4668.809,231.0
4670.677,232.0
4672.545,237.0
4674.414,209.0
4676.2837,227.0
4678.1543,247.0
4680.0254,223.0
4681.8975,253.0
4683.77,231.0
4685.6436,222.0
4687.5176,221.0
4689.3926,227.0
4691.2686,227.0
4693.145,225.0
4695.0225,242.0
4696.9004,217.0
4698.7793,208.0
4700.6587,218.0
4702.539,246.0
4704.42,218.0
4706.302,243.0
4708.184,211.0
4710.0674,230.0
4711.951,247.0
4713.836,253.0
4715.7217,242.0
4717.608,241.0
4719.495,233.0
4721.383,229.0
4723.2715,264.0
4725.1606,255.0
4727.051,240.0
4728.9414,239.0
4730.833,286.0
4732.725,223.0
4734.618,231.0
4736.512,202.0
4738.4067,227.0
4740.3022,217.0
4742.198,223.0
4744.095,231.0
4745.9927,244.0
4747.891,263.0
4749.79,211.0
4751.69,219.0
4753.591,216.0
4755.492,208.0
4757.3945,199.0
4759.2974,228.0
4761.201,223.0
4763.1055,227.0
4765.0107,210.0
4766.9165,194.0
4768.823,207.0
4770.731,200.0
4772.639,207.0
4774.5483,210.0
4776.458,215.0
4778.3687,186.0
4780.28,194.0
4782.192,220.0
4784.105,194.0
4786.0186,183.0
4787.933,195.0
4789.848,184.0
4791.764,192.0
4793.6807,210.0
4795.598,214.0
4797.5166,199.0
4799.4355,186.0
4801.3555,197.0
4803.276,215.0
4805.1973,175.0
4807.119,206.0
4809.042,193.0
4810.966,206.0
4812.89,224.0
4814.8154,199.0
4816.741,165.0
4818.668,201.0
4820.595,176.0
4822.5234,196.0
4824.4526,202.0
4826.3823,198.0
4828.313,201.0
4830.244,200.0
4832.1763,220.0
4834.1094,200.0
4836.043,203.0
4837.9775,224.0
4839.9126,206.0
4841.8486,205.0
4843.785,197.0
4845.7227,192.0
4847.661,205.0
4849.6,209.0
4851.54,194.0
4853.4805,191.0
4855.422,210.0
4857.3643,186.0
4859.307,196.0
4861.251,206.0
4863.1953,218.0
4865.1406,185.0
4867.087,204.0
4869.0337,206.0
4870.9814,192.0
4872.9297,247.0
4874.879,166.0
4876.829,199.0
4878.78,199.0
4880.7314,182.0
4882.6836,207.0
4884.6367,191.0
4886.5903,176.0
4888.545,206.0
4890.5005,201.0
4892.4565,203.0
4894.4136,200.0
4896.3716,210.0
4898.33,172.0
4900.2896,207.0
4902.2495,201.0
4904.2104,228.0
4906.1724,167.0
4908.135,181.0
4910.098,207.0
4912.062,195.0
4914.027,195.0
4915.9927,207.0
4917.959,222.0
4919.9263,218.0
4921.894,209.0
4923.863,215.0
4925.8325,186.0
4927.8027,225.0
4929.774,204.0
4931.7456,199.0
4933.7183,216.0
4935.692,199.0
4937.666,195.0
4939.641,177.0
4941.617,199.0
4943.5938,215.0
4945.5713,210.0
4947.5493,209.0
4949.5283,186.0
4951.5083,227.0
4953.489,258.0
4955.47,283.0
4957.4526,207.0
4959.4355,240.0
4961.4194,213.0
4963.404,195.0
4965.389,224.0
4967.3755,242.0
4969.3623,216.0
4971.35,229.0
4973.339,205.0
4975.328,204.0
4977.3184,203.0
4979.309,237.0
4981.301,211.0
4983.2935,212.0
4985.2866,254.0
4987.281,241.0
4989.276,245.0
4991.2715,232.0
4993.268,214.0
4995.265,226.0
4997.263,233.0
4999.262,224.0
5001.2617,201.0
5003.262,226.0
5005.2637,238.0
5007.2656,229.0
5009.2686,254.0
5011.2725,229.0
5013.277,195.0
5015.282,228.0
5017.2886,240.0
5019.2954,243.0
5021.303,235.0
5023.3115,226.0
5025.321,232.0
5027.331,208.0
5029.342,240.0
5031.3535,237.0
5033.366,238.0
5035.3794,221.0
5037.3936,223.0
5039.4087,241.0
5041.4243,230.0
5043.441,237.0
5045.4585,233.0
5047.4766,236.0
5049.4956,255.0
5051.5156,243.0
5053.536,247.0
5055.5576,224.0
5057.58,225.0
5059.603,216.0
5061.627,205.0
5063.6514,208.0
5065.677,228.0
5067.703,218.0
5069.73,233.0
5071.758,210.0
5073.7866,230.0
5075.816,208.0
5077.846,224.0
5079.8774,214.0
5081.909,214.0
5083.942,220.0
5085.9756,216.0
5088.01,213.0
5090.045,231.0
5092.081,244.0
5094.1177,232.0
5096.1553,189.0
5098.194,238.0
5100.233,250.0
5102.273,227.0
5104.314,222.0
5106.3555,243.0
5108.398,264.0
5110.4414,226.0
5112.4854,230.0
5114.5303,254.0
5116.576,242.0
5118.6226,218.0
5120.67,209.0
5122.7183,226.0
5124.7676,250.0
5126.8174,240.0
5128.868,228.0
5130.92,249.0
5132.972,237.0
5135.0254,249.0
5137.0796,230.0
5139.1343,246.0
5141.19,235.0
5143.2466,259.0
5145.3037,248.0
5147.362,278.0
5149.421,243.0
5151.4805,245.0
5153.541,219.0
5155.6025,235.0
5157.6646,239.0
5159.7275,229.0
5161.7915,230.0
5163.8564,246.0
5165.922,196.0
5167.9883,223.0
5170.0557,211.0
5172.1235,233.0
5174.1924,237.0
5176.262,225.0
5178.3325,223.0
5180.404,246.0
5182.476,226.0
5184.549,242.0
5186.6226,244.0
5188.6973,260.0
5190.773,222.0
5192.849,225.0
5194.9263,228.0
5197.0044,229.0
5199.083,245.0
5201.1626,215.0
5203.243,282.0
5205.324,239.0
5207.4062,260.0
5209.4893,234.0
5211.573,234.0
5213.6577,234.0
5215.743,241.0
5217.8296,232.0
5219.9165,285.0
5222.0044,262.0
5224.0933,269.0
5226.183,302.0
5228.2734,257.0
5230.3647,269.0
5232.457,214.0
5234.55,256.0
5236.6436,253.0
5238.7383,245.0
5240.834,241.0
5242.93,252.0
5245.0273,285.0
5247.1255,259.0
5249.224,255.0
5251.3237,241.0
5253.4243,259.0
5255.526,243.0
5257.628,245.0
5259.731,233.0
5261.835,213.0
5263.9395,230.0
5266.045,274.0
5268.1514,259.0
5270.259,261.0
5272.3667,248.0
5274.4756,264.0
5276.5854,252.0
5278.6963,235.0
5280.8076,257.0
5282.92,290.0
5285.033,257.0
5287.147,244.0
5289.2617,262.0
5291.3774,242.0
5293.494,243.0
5295.6113,222.0
5297.7295,257.0
5299.8486,282.0
5301.9688,261.0
5304.0894,297.0
5306.211,228.0
5308.3335,253.0
5310.457,248.0
5312.581,247.0
5314.706,221.0
5316.832,301.0
5318.959,349.0
5321.0864,296.0
5323.215,268.0
5325.344,244.0
5327.4746,252.0
5329.6055,248.0
5331.7373,206.0
5333.87,254.0
5336.004,226.0
5338.138,278.0
5340.2734,269.0
5342.4097,263.0
5344.547,264.0
5346.6846,274.0
5348.823,248.0
5350.963,230.0
5353.1035,254.0
5355.2446,240.0
5357.3867,250.0
5359.53,249.0
5361.674,257.0
5363.8184,274.0
5365.964,249.0
5368.1104,243.0
5370.258,235.0
5372.406,244.0
5374.5547,280.0
5376.7046,308.0
5378.8555,291.0
5381.007,283.0
5383.159,282.0
5385.3125,251.0
5387.467,254.0
5389.6216,244.0
5391.7773,288.0
5393.934,283.0
5396.092,288.0
5398.25,264.0
5400.409,294.0
5402.5693,240.0
5404.7305,275.0
5406.8926,263.0
5409.055,313.0
5411.2188,295.0
5413.3833,312.0
5415.549,302.0
5417.715,290.0
5419.882,247.0
5422.05,279.0
5424.2188,272.0
5426.3887,303.0
5428.559,261.0
5430.7305,262.0
5432.903,284.0
5435.076,284.0
5437.25,265.0
5439.425,264.0
5441.6006,266.0
5443.7773,304.0
5445.955,267.0
5448.1333,240.0
5450.3125,250.0
5452.4927,235.0
5454.674,263.0
5456.8555,274.0
5459.038,262.0
5461.2217,276.0
5463.4062,246.0
5465.592,269.0
5467.778,262.0
5469.965,255.0
5472.153,303.0
5474.342,295.0
5476.5317,285.0
5478.722,293.0
5480.9136,263.0
5483.106,283.0
5485.2993,285.0
5487.4937,277.0
5489.6885,302.0
5491.8843,262.0
5494.081,275.0
5496.279,276.0
5498.4775,275.0
5500.677,288.0
5502.877,306.0
5505.078,310.0
5507.2803,332.0
5509.4834,351.0
5511.687,262.0
5513.8916,290.0
5516.097,287.0
5518.3037,282.0
5520.511,264.0
5522.719,347.0
5524.928,323.0
5527.138,300.0
5529.349,293.0
5531.561,299.0
5533.7734,285.0
5535.987,305.0
5538.201,289.0
5540.4165,273.0
5542.633,278.0
5544.85,288.0
5547.068,288.0
5549.2866,269.0
5551.5063,285.0
5553.727,323.0
5555.9487,283.0
5558.171,298.0
5560.394,283.0
5562.618,292.0
5564.8433,267.0
5567.0693,310.0
5569.2964,277.0
5571.524,263.0
5573.7524,290.0
5575.982,287.0
5578.2124,259.0
5580.444,288.0
5582.676,294.0
5584.9087,300.0
5587.1426,309.0
5589.3774,281.0
5591.6133,258.0
5593.85,285.0
5596.0874,294.0
5598.3257,272.0
5600.565,295.0
5602.805,269.0
5605.0464,282.0
5607.2886,291.0
5609.5312,279.0
5611.775,266.0
5614.0195,270.0
5616.265,265.0
5618.5117,249.0
5620.7593,252.0
5623.008,265.0
5625.257,264.0
5627.507,285.0
5629.758,267.0
5632.01,256.0
5634.2627,256.0
5636.5166,267.0
5638.771,258.0
5641.0264,254.0
5643.2827,234.0
5645.54,264.0
5647.7983,271.0
5650.0576,271.0
5652.318,278.0
5654.5786,280.0
5656.8403,270.0
5659.103,254.0
5661.3667,248.0
5663.6313,243.0
5665.897,287.0
5668.1636,267.0
5670.4307,264.0
5672.6987,267.0
5674.968,239.0
5677.238,267.0
5679.509,253.0
5681.781,254.0
5684.0537,266.0
5686.327,271.0
5688.6016,263.0
5690.877,294.0
5693.1533,283.0
5695.4307,283.0
5697.709,265.0
5699.9883,301.0
5702.268,283.0
5704.549,289.0
5706.8306,300.0
5709.1133,322.0
5711.397,257.0
5713.6816,276.0
5715.9673,275.0
5718.254,303.0
5720.541,286.0
5722.829,325.0
5725.118,311.0
5727.408,275.0
5729.699,264.0
5731.991,299.0
5734.284,306.0
5736.578,326.0
5738.8726,271.0
5741.168,296.0
5743.4644,317.0
5745.7617,325.0
5748.06,267.0
5750.3594,293.0
5752.6597,308.0
5754.961,301.0
5757.2627,338.0
5759.5654,305.0
5761.869,318.0
5764.174,333.0
5766.4795,299.0
5768.786,298.0
5771.0938,317.0
5773.4023,327.0
5775.712,300.0
5778.022,321.0
5780.333,331.0
5782.645,308.0
5784.958,329.0
5787.272,325.0
5789.587,315.0
5791.903,306.0
5794.2197,314.0
5796.5376,335.0
5798.8564,363.0
5801.176,338.0
5803.496,335.0
5805.8174,358.0
5808.1396,375.0
5810.463,357.0
5812.787,344.0
5815.1123,378.0
5817.4385,394.0
5819.7656,372.0
5822.0938,391.0
5824.4224,369.0
5826.752,348.0
5829.0825,389.0
5831.414,397.0
5833.7466,371.0
5836.08,375.0
5838.4146,446.0
5840.75,432.0
5843.0864,407.0
5845.424,377.0
5847.762,371.0
5850.101,405.0
5852.441,354.0
5854.7817,375.0
5857.1235,356.0
5859.4663,374.0
5861.81,374.0
5864.155,388.0
5866.5005,364.0
5868.847,362.0
5871.195,357.0
5873.5435,373.0
5875.893,349.0
5878.2437,368.0
5880.5947,351.0
5882.947,356.0
5885.3,392.0
5887.654,401.0
5890.009,390.0
5892.3647,385.0
5894.7217,370.0
5897.0796,390.0
5899.4385,353.0
5901.7983,382.0
5904.159,426.0
5906.521,417.0
5908.884,409.0
5911.2476,374.0
5913.612,452.0
5915.977,453.0
5918.3433,448.0
5920.7104,430.0
5923.0786,377.0
5925.4478,413.0
5927.818,410.0
5930.189,426.0
5932.561,436.0
5934.934,443.0
5937.308,401.0
5939.683,415.0
5942.059,485.0
5944.436,433.0
5946.814,430.0
5949.193,463.0
5951.5728,448.0
5953.9536,384.0
5956.335,414.0
5958.7173,438.0
5961.1006,510.0
5963.485,471.0
5965.87,460.0
5968.2563,466.0
5970.6436,477.0
5973.0317,464.0
5975.421,477.0
5977.811,533.0
5980.202,460.0
5982.594,435.0
5984.9873,477.0
5987.3813,502.0
5989.7764,430.0
5992.1724,489.0
5994.5693,547.0
5996.9673,487.0
5999.366,474.0
6001.766,535.0
6004.167,511.0
6006.569,525.0
6008.9717,499.0
6011.3755,509.0
6013.7803,485.0
6016.1855,437.0
6018.592,519.0
6020.999,472.0
6023.407,434.0
6025.8164,412.0
6028.2266,465.0
6030.6377,484.0
6033.05,456.0
6035.463,500.0
6037.877,454.0
6040.292,445.0
6042.708,426.0
6045.125,499.0
6047.543,514.0
6049.962,412.0
6052.382,431.0
6054.8027,402.0
6057.2246,386.0
6059.6475,442.0
6062.0713,514.0
6064.496,447.0
6066.922,477.0
6069.3486,434.0
6071.7764,433.0
6074.205,471.0
6076.635,371.0
6079.0654,402.0
6081.497,459.0
6083.9297,452.0
6086.3633,428.0
6088.798,432.0
6091.2334,440.0
6093.67,405.0
6096.1074,396.0
6098.546,434.0
6100.9854,457.0
6103.426,477.0
6105.867,487.0
6108.3096,463.0
6110.753,443.0
6113.1973,437.0
6115.6426,480.0
6118.089,488.0
6120.536,491.0
6122.9844,410.0
6125.4336,407.0
6127.884,471.0
6130.335,560.0
6132.787,569.0
6135.24,553.0
6137.6943,488.0
6140.1494,508.0
6142.6055,519.0
6145.0625,514.0
6147.5205,612.0
6149.9795,645.0
6152.4395,582.0
6154.9004,582.0
6157.3623,632.0
6159.825,680.0
6162.289,612.0
6164.754,523.0
6167.2197,534.0
6169.6865,515.0
6172.1543,575.0
6174.623,792.0
6177.093,850.0
6179.5635,662.0
6182.035,549.0
6184.508,589.0
6186.9814,601.0
6189.456,631.0
6191.9316,939.0
6194.408,979.0
6196.8857,816.0
6199.3643,707.0
6201.844,642.0
6204.325,618.0
6206.807,586.0
6209.29,563.0
6211.774,560.0
6214.259,645.0
6216.7446,746.0
6219.2314,655.0
6221.719,607.0
6224.208,525.0
6226.6978,587.0
6229.1885,654.0
6231.68,806.0
6234.173,825.0
6236.6665,764.0
6239.161,648.0
6241.6567,550.0
6244.1533,579.0
6246.651,682.0
6249.1494,770.0
6251.649,708.0
6254.1494,672.0
6256.651,755.0
6259.1533,681.0
6261.6567,604.0
6264.1616,570.0
6266.6675,522.0
6269.1743,536.0
6271.682,804.0
6274.191,1150.0
6276.7007,872.0
6279.2114,578.0
6281.723,492.0
6284.236,453.0
6286.7495,549.0
6289.264,1118.0
6291.78,1579.0
6294.2964,1123.0
6296.814,718.0
6299.3325,552.0
6301.852,529.0
6304.3726,511.0
6306.8945,492.0
6309.4175,545.0
6311.9414,492.0
6314.4663,498.0
6316.992,473.0
6319.519,476.0
6322.047,451.0
6324.5757,456.0
6327.1055,452.0
6329.636,443.0
6332.168,473.0
6334.7007,492.0
6337.2344,448.0
6339.769,448.0
6342.305,454.0
6344.8423,463.0
6347.3804,458.0
6349.9194,464.0
6352.4595,443.0
6355.0005,436.0
6357.5425,426.0
6360.0854,486.0
6362.6294,465.0
6365.1743,462.0
6367.72,456.0
6370.267,463.0
6372.8154,469.0
6375.3647,449.0
6377.915,440.0
6380.4663,444.0
6383.0186,490.0
6385.572,499.0
6388.126,518.0
6390.681,497.0
6393.2373,455.0
6395.7944,498.0
6398.3525,502.0
6400.912,484.0
6403.4727,554.0
6406.034,575.0
6408.5967,548.0
6411.16,523.0
6413.7246,465.0
6416.29,468.0
6418.8564,487.0
6421.424,460.0
6423.992,490.0
6426.562,503.0
6429.133,464.0
6431.7046,498.0
6434.2773,521.0
6436.851,476.0
6439.426,486.0
6442.0015,492.0
6444.578,548.0
6447.156,526.0
6449.735,508.0
6452.315,448.0
6454.896,485.0
6457.478,457.0
6460.061,466.0
6462.645,467.0
6465.23,523.0
6467.816,461.0
6470.403,448.0
6472.991,482.0
6475.5806,483.0
6478.171,453.0
6480.762,512.0
6483.3545,527.0
6485.9478,433.0
6488.542,503.0
6491.137,487.0
6493.734,519.0
6496.3315,509.0
6498.93,490.0
6501.53,495.0
6504.1304,496.0
6506.732,529.0
6509.3345,484.0
6511.938,570.0
6514.543,494.0
6517.149,537.0
6519.756,540.0
6522.364,581.0
6524.9727,647.0
6527.5825,546.0
6530.1934,569.0
6532.8057,538.0
6535.419,529.0
6538.033,580.0
6540.6484,604.0
6543.2646,626.0
6545.882,606.0
6548.5,611.0
6551.1196,604.0
6553.74,578.0
6556.362,646.0
6558.9844,734.0
6561.608,658.0
6564.2324,583.0
6566.858,563.0
6569.485,548.0
6572.113,594.0
6574.7417,597.0
6577.3716,675.0
6580.0024,655.0
6582.6343,560.0
6585.267,605.0
6587.9014,604.0
6590.5366,667.0
6593.173,687.0
6595.81,616.0
6598.448,611.0
6601.0874,588.0
6603.728,584.0
6606.3696,588.0
6609.012,599.0
6611.656,597.0
6614.3003,526.0
6616.946,552.0
6619.593,618.0
6622.2407,628.0
6624.8896,617.0
6627.5396,637.0
6630.1904,575.0
6632.8423,561.0
6635.4956,580.0
6638.15,705.0
6640.805,690.0
6643.4614,637.0
6646.1187,593.0
6648.7773,584.0
6651.437,520.0
6654.0977,647.0
6656.7593,702.0
6659.422,673.0
6662.0854,629.0
6664.7505,558.0
6667.4165,526.0
6670.0835,519.0
6672.7515,501.0
6675.4204,535.0
6678.091,541.0
6680.762,613.0
6683.4346,560.0
6686.108,518.0
6688.782,515.0
6691.4575,551.0
6694.1343,562.0
6696.812,643.0
6699.4907,566.0
6702.1704,564.0
6704.851,487.0
6707.533,522.0
6710.2163,509.0
6712.9004,558.0
6715.5854,593.0
6718.2715,598.0
6720.959,580.0
6723.6475,627.0
6726.337,600.0
6729.0273,564.0
6731.7188,569.0
6734.4116,580.0
6737.1055,602.0
6739.8003,696.0
6742.496,758.0
6745.193,665.0
6747.891,615.0
6750.5903,610.0
6753.2905,573.0
6755.9917,645.0
6758.6943,793.0
6761.398,783.0
6764.1025,667.0
6766.808,671.0
6769.5146,640.0
6772.2227,626.0
6774.9316,685.0
6777.6416,700.0
6780.3525,705.0
6783.0645,689.0
6785.778,748.0
6788.492,647.0
6791.2075,729.0
6793.924,662.0
6796.6416,639.0
6799.3604,677.0
6802.08,644.0
6804.801,615.0
6807.5225,761.0
6810.2456,777.0
6812.9697,689.0
6815.695,583.0
6818.421,548.0
6821.1484,599.0
6823.877,731.0
6826.6064,863.0
6829.337,733.0
6832.069,584.0
6834.802,491.0
6837.5356,574.0
6840.2705,701.0
6843.007,932.0
6845.744,821.0
6848.4824,621.0
6851.2217,557.0
6853.9624,547.0
6856.704,650.0
6859.447,752.0
6862.1904,667.0
6864.9355,636.0
6867.6816,555.0
6870.4287,552.0
6873.177,560.0
6875.9263,551.0
6878.677,527.0
6881.428,536.0
6884.1807,532.0
6886.9346,556.0
6889.6895,524.0
6892.4453,519.0
6895.202,525.0
6897.9604,515.0
6900.7197,553.0
6903.48,605.0
6906.241,551.0
6909.004,564.0
6911.7676,643.0
6914.532,599.0
6917.298,532.0
6920.065,602.0
6922.833,647.0
6925.602,519.0
6928.372,590.0
6931.1436,656.0
6933.916,579.0
6936.6895,543.0
6939.4644,554.0
6942.24,545.0
6945.017,594.0
6947.795,624.0
6950.574,581.0
6953.3545,590.0
6956.1357,629.0
6958.918,650.0
6961.7017,607.0
6964.4863,608.0
6967.272,583.0
6970.059,600.0
6972.847,579.0
6975.636,660.0
6978.4263,647.0
6981.218,652.0
6984.0103,659.0
6986.8037,640.0
6989.5986,622.0
6992.3945,667.0
6995.1914,697.0
6997.9893,747.0
7000.7886,806.0
7003.589,657.0
7006.39,681.0
7009.193,682.0
7011.9966,673.0
7014.8013,755.0
7017.6074,870.0
7020.4146,803.0
7023.2227,845.0
7026.0317,941.0
7028.8423,884.0
7031.654,671.0
7034.4663,609.0
7037.2803,614.0
7040.095,827.0
7042.911,1208.0
7045.7285,1046.0
7048.547,709.0
7051.366,658.0
7054.1865,641.0
7057.0083,872.0
7059.831,1510.0
7062.655,1320.0
7065.48,917.0
7068.306,731.0
7071.1333,657.0
7073.962,697.0
7076.7915,626.0
7079.622,699.0
7082.454,717.0
7085.287,734.0
7088.121,691.0
7090.9565,706.0
7093.793,680.0
7096.6304,763.0
7099.469,763.0
7102.309,723.0
7105.15,699.0
7107.992,740.0
7110.8354,781.0
7113.6797,822.0
7116.5254,826.0
7119.372,788.0
7122.2197,871.0
7125.069,897.0
7127.919,924.0
7130.77,896.0
7133.6226,733.0
7136.476,774.0
7139.3306,981.0
7142.1865,1071.0
7145.0435,929.0
7147.9014,932.0
7150.7607,839.0
7153.621,961.0
7156.4824,1208.0
7159.345,1345.0
7162.209,1139.0
7165.0737,961.0
7167.94,1015.0
7170.807,1123.0
7173.6753,1185.0
7176.545,996.0
7179.4155,984.0
7182.287,989.0
7185.16,945.0
7188.034,1023.0
7190.909,1044.0
7193.7856,1014.0
7196.663,1309.0
7199.542,1377.0
7202.422,1074.0
7205.3027,806.0
7208.185,709.0
7211.0684,922.0
7213.9526,1682.0
7216.8384,1729.0
7219.725,1063.0
7222.613,790.0
7225.502,717.0
7228.392,1009.0
7231.283,2333.0
7234.176,2332.0
7237.0693,1376.0
7239.9644,839.0
7242.8604,699.0
7245.7573,681.0
7248.656,712.0
7251.555,749.0
7254.4556,779.0
7257.3574,762.0
7260.2603,663.0
7263.1646,641.0
7266.07,683.0
7268.976,726.0
7271.884,673.0
7274.7925,668.0
7277.7026,620.0
7280.614,612.0
7283.526,614.0
7286.4395,690.0
7289.354,676.0
7292.2695,626.0
7295.1865,710.0
7298.1045,700.0
7301.024,629.0
7303.9443,632.0
7306.8657,591.0
7309.7886,715.0
7312.7124,863.0
7315.6377,818.0
7318.564,641.0
7321.491,565.0
7324.42,513.0
7327.3496,742.0
7330.281,1057.0
7333.213,831.0
7336.146,718.0
7339.0806,589.0
7342.016,567.0
7344.953,629.0
7347.891,712.0
7350.83,664.0
7353.7705,608.0
7356.712,600.0
7359.655,561.0
7362.5986,525.0
7365.5435,557.0
7368.4897,555.0
7371.437,575.0
7374.3857,572.0
7377.3354,605.0
7380.2866,585.0
7383.239,616.0
7386.192,576.0
7389.1465,504.0
7392.102,549.0
7395.059,584.0
7398.017,626.0
7400.976,692.0
7403.9365,581.0
7406.898,557.0
7409.861,496.0
7412.8247,567.0
7415.79,626.0
7418.7563,689.0
7421.7236,621.0
7424.6924,581.0
7427.662,487.0
7430.6333,514.0
7433.6055,654.0
7436.579,643.0
7439.5537,555.0
7442.5293,560.0
7445.5063,489.0
7448.4844,480.0
7451.464,513.0
7454.4443,469.0
7457.4263,501.0
7460.409,468.0
7463.3936,428.0
7466.379,490.0
7469.365,501.0
7472.353,480.0
7475.342,423.0
7478.332,454.0
7481.323,492.0
7484.316,580.0
7487.3096,620.0
7490.3047,509.0
7493.301,468.0
7496.2983,453.0
7499.297,478.0
7502.2964,522.0
7505.2974,494.0
7508.2993,436.0
7511.3027,455.0
7514.307,429.0
7517.313,449.0
7520.32,470.0
7523.328,423.0
7526.3374,427.0
7529.348,504.0
7532.36,501.0
7535.373,453.0
7538.387,423.0
7541.4023,443.0
7544.419,546.0
7547.4365,544.0
7550.4556,474.0
7553.4756,462.0
7556.497,446.0
7559.5195,424.0
7562.5435,572.0
7565.5684,605.0
7568.5947,488.0
7571.622,474.0
7574.651,451.0
7577.6807,418.0
7580.712,443.0
7583.744,470.0
7586.778,453.0
7589.8125,442.0
7592.8486,392.0
7595.8857,387.0
7598.9243,508.0
7601.964,519.0
7605.005,421.0
7608.047,399.0
7611.0903,403.0
7614.135,453.0
7617.18,597.0
7620.227,512.0
7623.275,439.0
7626.324,413.0
7629.3745,390.0
7632.4263,456.0
7635.479,419.0
7638.533,448.0
7641.5884,393.0
7644.645,408.0
7647.7026,412.0
7650.7617,408.0
7653.8223,431.0
7656.884,441.0
7659.947,428.0
7663.0107,381.0
7666.076,434.0
7669.1426,376.0
7672.2104,462.0
7675.2793,427.0
7678.3496,453.0
7681.421,410.0
7684.4937,485.0
7687.5674,444.0
7690.6426,518.0
7693.7188,498.0
7696.7964,476.0
7699.875,477.0
7702.955,514.0
7706.036,460.0
7709.1187,460.0
7712.202,476.0
7715.287,507.0
7718.373,500.0
7721.4604,519.0
7724.549,538.0
7727.6387,588.0
7730.7295,531.0
7733.822,521.0
7736.9155,552.0
7740.0103,554.0
7743.1064,566.0
7746.2036,570.0
7749.3022,599.0
7752.402,599.0
7755.503,642.0
7758.605,602.0
7761.7085,571.0
7764.813,592.0
7767.919,662.0
7771.026,737.0
7774.1343,661.0
7777.244,653.0
7780.355,586.0
7783.4673,628.0
7786.5806,739.0
7789.6953,859.0
7792.811,712.0
7795.928,654.0
7799.0464,599.0
7802.166,609.0
7805.287,667.0
7808.409,687.0
7811.5327,715.0
7814.657,743.0
7817.783,656.0
7820.91,549.0
7824.0386,629.0
7827.168,855.0
7830.299,903.0
7833.431,766.0
7836.5645,690.0
7839.699,591.0
7842.835,744.0
7845.972,908.0
7849.1104,797.0
7852.25,754.0
7855.391,705.0
7858.533,695.0
7861.677,685.0
7864.8213,619.0
7867.9673,668.0
7871.1143,725.0
7874.2627,689.0
7877.4126,695.0
7880.5635,703.0
7883.716,774.0
7886.869,762.0
7890.024,696.0
7893.18,647.0
7896.3374,757.0
7899.496,943.0
7902.656,873.0
7905.817,784.0
7908.979,713.0
7912.1426,775.0
7915.3076,1000.0
7918.4736,1179.0
7921.641,1059.0
7924.8096,851.0
7927.9795,796.0
7931.151,791.0
7934.323,826.0
7937.497,896.0
7940.672,915.0
7943.848,929.0
7947.026,916.0
7950.2046,908.0
7953.385,964.0
7956.566,1019.0
7959.7485,1019.0
7962.9326,1013.0
7966.1177,995.0
7969.304,1100.0
7972.4917,1188.0
7975.6807,1057.0
7978.871,1071.0
7982.0625,1083.0
7985.2554,1336.0
7988.4497,1336.0
7991.645,1308.0
7994.842,1231.0
7998.0396,1200.0
8001.239,1342.0
8004.4395,1692.0
8007.641,1635.0
8010.844,1532.0
8014.0483,1483.0
8017.254,1507.0
8020.461,1536.0
8023.669,1581.0
8026.8784,1527.0
8030.0894,1594.0
8033.3013,1688.0
8036.5146,1846.0
8039.7295,2068.0
8042.9453,2036.0
8046.1626,1878.0
8049.381,1925.0
8052.6006,2270.0
8055.822,2543.0
8059.044,2640.0
8062.2676,2331.0
8065.4927,2500.0
8068.7188,2554.0
8071.9463,2766.0
8075.1753,2964.0
8078.4053,3026.0
8081.6367,3399.0
8084.869,3917.0
8088.103,3384.0
8091.3384,3066.0
8094.5747,2857.0
8097.8125,3864.0
8101.052,5339.0
8104.292,4950.0
8107.5337,4322.0
8110.777,3846.0
8114.021,3696.0
8117.2666,5512.0
8120.5137,6811.0
8123.7617,6141.0
8127.011,5953.0
8130.262,5080.0
8133.514,4725.0
8136.7676,5275.0
8140.0225,6477.0
8143.2783,8521.0
8146.5356,7695.0
8149.7944,6119.0
8153.054,6969.0
8156.3154,6755.0
8159.578,7621.0
8162.842,9160.0
8166.107,8476.0
8169.3735,12556.0
8172.641,12229.0
8175.91,7330.0
8179.1807,4165.0
8182.452,5318.0
8185.725,18641.0
8188.9995,23687.0
8192.275,11316.0
8195.553,5075.0
8198.831,4364.0
8202.11,18236.0
8205.392,42878.0
8208.674,26366.0
8211.957,9533.0
8215.242,4297.0
8218.528,3325.0
8221.815,3291.0
8225.1045,4214.0
8228.395,5365.0
8231.686,3880.0
8234.979,2319.0
8238.272,1712.0
8241.567,1878.0
8244.864,2042.0
8248.162,1909.0
8251.461,1743.0
8254.762,1433.0
8258.063,1284.0
8261.367,1325.0
8264.672,1380.0
8267.978,1411.0
8271.285,1362.0
8274.594,1302.0
8277.903,1092.0
8281.215,1114.0
8284.527,1107.0
8287.841,1300.0
8291.156,1368.0
8294.473,1186.0
8297.79,1111.0
8301.109,1115.0
8304.43,1241.0
8307.751,1282.0
8311.074,1351.0
8314.398,1339.0
8317.725,1308.0
8321.052,1215.0
8324.38,1101.0
8327.71,1328.0
8331.041,1500.0
8334.373,1492.0
8337.707,1193.0
8341.042,1210.0
8344.378,1198.0
8347.716,1697.0
8351.055,1749.0
8354.3955,1422.0
8357.737,1395.0
8361.08,1298.0
8364.425,1076.0
8367.7705,1103.0
8371.117,1013.0
8374.466,1367.0
8377.815,1407.0
8381.167,1068.0
8384.52,842.0
8387.873,989.0
8391.229,1358.0
8394.585,1468.0
8397.942,1130.0
8401.302,915.0
8404.662,926.0
8408.024,1010.0
8411.388,990.0
8414.752,936.0
8418.118,915.0
8421.485,814.0
8424.854,729.0
8428.224,789.0
8431.595,893.0
8434.968,848.0
8438.342,835.0
8441.717,828.0
8445.094,819.0
8448.472,923.0
8451.851,918.0
8455.231,836.0
8458.613,898.0
8461.997,930.0
8465.382,1036.0
8468.768,1051.0
8472.155,1104.0
8475.544,1065.0
8478.935,988.0
8482.326,1010.0
8485.719,1155.0
8489.113,1351.0
8492.509,1426.0
8495.906,1317.0
8499.305,1216.0
8502.704,1362.0
8506.105,1543.0
8509.508,1792.0
8512.911,1580.0
8516.316,1673.0
8519.723,1791.0
8523.131,1685.0
8526.54,1866.0
8529.95,1814.0
8533.362,2607.0
8536.775,3083.0
8540.19,2142.0
8543.606,1457.0
8547.023,1366.0
8550.442,3175.0
8553.862,4613.0
8557.284,2772.0
8560.707,1615.0
8564.131,1437.0
8567.557,3693.0
8570.983,6667.0
8574.412,4342.0
8577.842,2332.0
8581.272,1539.0
8584.705,1278.0
8588.139,1140.0
8591.574,1485.0
8595.011,1954.0
8598.449,1694.0
8601.889,988.0
8605.329,885.0
8608.771,871.0
8612.215,823.0
8615.66,812.0
8619.106,857.0
8622.554,769.0
8626.003,725.0
8629.453,737.0
8632.905,668.0
8636.358,736.0
8639.8125,832.0
8643.269,804.0
8646.726,661.0
8650.185,706.0
8653.645,779.0
8657.106,715.0
8660.569,707.0
8664.033,745.0
8667.499,744.0
8670.966,832.0
8674.435,803.0
8677.904,830.0
8681.375,804.0
8684.848,828.0
8688.321,815.0
8691.797,796.0
8695.273,904.0
8698.752,974.0
8702.231,898.0
8705.712,914.0
8709.194,960.0
8712.678,1105.0
8716.163,1057.0
8719.649,1048.0
8723.138,1023.0
8726.627,1091.0
8730.117,1028.0
8733.609,1114.0
8737.103,1148.0
8740.598,1236.0
8744.094,1132.0
8747.592,1158.0
8751.091,1283.0
8754.591,1438.0
8758.093,1382.0
8761.596,1299.0
8765.101,1317.0
8768.606,1474.0
8772.114,1678.0
8775.623,1576.0
8779.133,1599.0
8782.645,1683.0
8786.157,1591.0
8789.672,1687.0
8793.1875,1759.0
8796.705,2211.0
8800.224,2395.0
8803.744,1821.0
8807.266,1517.0
8810.788,1584.0
8814.3125,2850.0
8817.838,3207.0
8821.365,2168.0
8824.894,1771.0
8828.424,1857.0
8831.955,3393.0
8835.488,3663.0
8839.022,2677.0
8842.558,2176.0
8846.095,1800.0
8849.633,1570.0
8853.173,1674.0
8856.714,2288.0
8860.257,2618.0
8863.801,2064.0
8867.347,1676.0
8870.894,1713.0
8874.442,2670.0
8877.992,3363.0
8881.543,2661.0
8885.096,2035.0
8888.649,1811.0
8892.205,1685.0
8895.762,1823.0
8899.32,2259.0
8902.88,2328.0
8906.441,1800.0
8910.004,1548.0
8913.568,1804.0
8917.134,2493.0
8920.7,2472.0
8924.269,1931.0
8927.838,1741.0
8931.409,1964.0
8934.981,2895.0
8938.556,2541.0
8942.131,2083.0
8945.708,1941.0
8949.286,1684.0
8952.866,1523.0
8956.447,1637.0
8960.03,1939.0
8963.614,1931.0
8967.199,1571.0
8970.786,1374.0
8974.374,1569.0
8977.964,1779.0
8981.555,1698.0
8985.147,1457.0
8988.741,1383.0
8992.337,1660.0
8995.934,1744.0
8999.532,1527.0
9003.132,1439.0
9006.733,1494.0
9010.336,1681.0
9013.94,1530.0
9017.546,1508.0
9021.153,1371.0
9024.762,1712.0
9028.372,1676.0
9031.983,1464.0
9035.597,1187.0
9039.211,1407.0
9042.826,1740.0
9046.443,1540.0
9050.062,1255.0
9053.682,1152.0
9057.303,1481.0
9060.926,2046.0
9064.55,1687.0
9068.176,1222.0
9071.803,1021.0
9075.432,1413.0
9079.062,1612.0
9082.693,1258.0
9086.326,1024.0
9089.961,1062.0
9093.597,1092.0
9097.234,1186.0
9100.873,1033.0
9104.514,1038.0
9108.155,910.0
9111.799,812.0
9115.443,837.0
9119.09,953.0
9122.737,1073.0
9126.387,944.0
9130.037,814.0
9133.689,838.0
9137.343,969.0
9140.998,1057.0
9144.654,973.0
9148.3125,872.0
9151.972,836.0
9155.633,801.0
9159.295,855.0
9162.959,1035.0
9166.624,1054.0
9170.291,816.0
9173.959,733.0
9177.629,821.0
9181.3,1278.0
9184.973,1215.0
9188.646,854.0
9192.322,721.0
9195.999,940.0
9199.678,1128.0
9203.357,984.0
9207.039,837.0
9210.722,742.0
9214.406,616.0
9218.092,584.0
9221.779,719.0
9225.468,960.0
9229.158,678.0
9232.85,574.0
9236.543,538.0
9240.237,759.0
9243.934,966.0
9247.631,720.0
9251.33,611.0
9255.03,450.0
9258.732,392.0
9262.436,419.0
9266.141,532.0
9269.847,501.0
9273.555,393.0
9277.264,370.0
9280.975,404.0
9284.687,420.0
9288.4,453.0
9292.116,395.0
9295.833,334.0
9299.552,360.0
9303.271,409.0
9306.993,389.0
9310.716,353.0
9314.44,335.0
9318.166,319.0
9321.894,341.0
9325.622,345.0
9329.353,339.0
9333.084,338.0
9336.817,337.0
9340.552,325.0
9344.288,325.0
9348.025,330.0
9351.765,327.0
9355.505,309.0
9359.247,285.0
9362.991,312.0
9366.736,276.0
9370.483,295.0
9374.231,273.0
9377.981,275.0
9381.732,280.0
9385.485,287.0
9389.239,283.0
9392.995,298.0
9396.752,290.0
9400.511,286.0
9404.2705,270.0
9408.032,293.0
9411.796,273.0
9415.561,294.0
9419.327,273.0
9423.095,299.0
9426.864,303.0
9430.635,270.0
9434.407,269.0
9438.181,253.0
9441.956,335.0
9445.732,309.0
9449.511,295.0
9453.291,259.0
9457.072,254.0
9460.855,362.0
9464.64,327.0
9468.426,258.0
9472.213,266.0
9476.002,256.0
9479.792,220.0
9483.584,236.0
9487.377,298.0
9491.172,278.0
9494.969,245.0
9498.767,211.0
9502.566,266.0
9506.367,299.0
9510.17,270.0
9513.974,254.0
9517.779,241.0
9521.586,223.0
9525.395,210.0
9529.205,273.0
9533.017,271.0
9536.83,218.0
9540.645,200.0
9544.461,257.0
9548.278,255.0
9552.098,251.0
9555.919,220.0
9559.741,210.0
9563.565,207.0
9567.391,197.0
9571.218,245.0
9575.046,217.0
9578.876,173.0
9582.708,175.0
9586.541,169.0
9590.376,208.0
9594.212,209.0
9598.05,185.0
9601.889,159.0
9605.7295,196.0
9609.572,173.0
9613.416,195.0
9617.262,190.0
9621.108,203.0
9624.957,194.0
9628.807,172.0
9632.658,201.0
9636.512,178.0
9640.366,187.0
9644.223,168.0
9648.08,181.0
9651.939,161.0
9655.8,171.0
9659.662,189.0
9663.526,172.0
9667.392,162.0
9671.259,180.0
9675.127,169.0
9678.997,171.0
9682.869,173.0
9686.742,164.0
9690.617,180.0
9694.493,183.0
9698.371,184.0
9702.25,153.0
9706.131,178.0
9710.014,167.0
9713.897,142.0
9717.783,177.0
9721.67,173.0
9725.559,168.0
9729.449,162.0
9733.341,180.0
9737.234,152.0
9741.129,169.0
9745.025,166.0
9748.924,175.0
9752.823,157.0
9756.725,165.0
9760.627,153.0
9764.531,171.0
9768.4375,172.0
9772.345,163.0
9776.254,163.0
9780.164,170.0
9784.076,154.0
9787.99,168.0
9791.905,176.0
9795.822,171.0
9799.74,164.0
9803.66,187.0
9807.582,173.0
9811.505,171.0
9815.43,168.0
9819.355,169.0
9823.283,167.0
9827.213,187.0
9831.144,193.0
9835.076,150.0
9839.01,182.0
9842.945,188.0
9846.883,228.0
9850.821,218.0
9854.762,162.0
9858.704,191.0
9862.647,164.0
9866.593,157.0
9870.539,187.0
9874.487,173.0
9878.4375,156.0
9882.389,157.0
9886.342,155.0
9890.296,177.0
9894.252,186.0
9898.21,168.0
9902.169,152.0
9906.13,165.0
9910.093,170.0
9914.057,157.0
9918.022,182.0
9921.989,179.0
9925.958,180.0
9929.929,158.0
9933.9,161.0
9937.874,144.0
9941.85,145.0
9945.826,171.0
9949.805,173.0
9953.784,157.0
9957.766,167.0
9961.749,165.0
9965.733,157.0
9969.72,172.0
9973.708,156.0
9977.697,181.0
9981.688,166.0
9985.681,182.0
9989.675,134.0
9993.671,169.0
9997.668,152.0
10001.667,170.0
10005.668,175.0
10009.67,160.0
10013.674,170.0
10017.68,159.0
10021.687,163.0
10025.695,185.0
10029.706,177.0
10033.718,159.0
10037.731,163.0
10041.746,173.0
10045.763,171.0
10049.781,171.0
10053.801,154.0
10057.822,158.0
10061.846,180.0
10065.87,164.0
10069.896,156.0
10073.925,163.0
10077.954,159.0
10081.985,184.0
10086.019,160.0
10090.053,165.0
10094.089,172.0
10098.127,178.0
10102.166,175.0
10106.207,179.0
10110.25,164.0
10114.294,155.0
10118.34,153.0
10122.387,172.0
10126.436,158.0
10130.486,186.0
10134.538,195.0
10138.592,180.0
10142.647,186.0
10146.704,156.0
10150.763,170.0
10154.823,190.0
10158.885,170.0
10162.948,198.0
10167.014,193.0
10171.08,194.0
10175.148,186.0
10179.219,170.0
10183.29,186.0
10187.363,171.0
10191.438,178.0
10195.515,185.0
10199.593,174.0
10203.673,188.0
10207.754,188.0
10211.837,178.0
10215.922,180.0
10220.008,179.0
10224.096,193.0
10228.186,181.0
10232.276,191.0
10236.369,167.0
10240.464,196.0
10244.56,191.0
10248.657,186.0
10252.757,182.0
10256.858,179.0
10260.961,178.0
10265.065,167.0
10269.172,169.0
10273.279,179.0
10277.389,192.0
10281.5,165.0
10285.612,183.0
10289.727,163.0
10293.843,193.0
10297.96,152.0
10302.079,194.0
10306.2,180.0
10310.322,178.0
10314.446,185.0
10318.572,176.0
10322.699,178.0
10326.828,218.0
10330.959,211.0
10335.092,205.0
10339.226,209.0
10343.361,206.0
10347.499,216.0
10351.638,187.0
10355.778,207.0
10359.921,220.0
10364.064,204.0
10368.21,223.0
10372.357,235.0
10376.507,191.0
10380.657,204.0
10384.81,216.0
10388.964,192.0
10393.119,214.0
10397.276,197.0
10401.436,182.0
10405.596,214.0
10409.758,180.0
10413.922,170.0
10418.088,189.0
10422.255,200.0
10426.424,195.0
10430.595,183.0
10434.767,185.0
10438.94,188.0
10443.116,198.0
10447.294,171.0
10451.473,213.0
10455.653,172.0
10459.836,145.0
10464.02,201.0
10468.205,182.0
10472.393,202.0
10476.581,188.0
10480.771,180.0
10484.964,185.0
10489.158,181.0
10493.354,189.0
10497.551,202.0
10501.75,199.0
10505.951,207.0
10510.153,183.0
10514.357,188.0
10518.563,215.0
10522.7705,195.0
10526.9795,213.0
10531.19,166.0
10535.403,192.0
10539.617,192.0
10543.833,206.0
10548.051,191.0
10552.27,173.0
10556.49,186.0
10560.713,183.0
10564.9375,199.0
10569.163,195.0
10573.391,190.0
10577.62,186.0
10581.852,183.0
10586.084,176.0
10590.318,175.0
10594.555,187.0
10598.793,185.0
10603.032,205.0
10607.273,184.0
10611.517,199.0
10615.761,227.0
10620.007,198.0
10624.255,172.0
10628.505,183.0
10632.756,205.0
10637.009,177.0
10641.264,218.0
10645.5205,190.0
10649.778,198.0
10654.038,200.0
10658.3,196.0
10662.563,193.0
10666.828,198.0
10671.095,198.0
10675.363,200.0
10679.634,197.0
10683.905,189.0
10688.179,201.0
10692.454,193.0
10696.731,171.0
10701.01,211.0
10705.29,220.0
10709.572,203.0
10713.856,212.0
10718.142,191.0
10722.429,228.0
10726.718,223.0
10731.009,191.0
10735.301,251.0
10739.595,232.0
10743.891,232.0
10748.188,212.0
10752.487,246.0
10756.788,234.0
10761.091,232.0
10765.3955,217.0
10769.702,206.0
10774.01,239.0
10778.319,189.0
10782.631,212.0
10786.944,196.0
10791.259,216.0
10795.575,189.0
10799.894,200.0
10804.214,191.0
10808.535,196.0
10812.858,196.0
10817.184,187.0
10821.511,190.0
10825.839,233.0
10830.169,186.0
10834.501,208.0
10838.835,208.0
10843.171,182.0
10847.508,207.0
10851.847,176.0
10856.1875,212.0
10860.53,214.0
10864.874,209.0
10869.22,246.0
10873.567,213.0
10877.917,224.0
10882.269,223.0
10886.621,225.0
10890.976,200.0
10895.332,200.0
10899.69,216.0
10904.051,213.0
10908.412,191.0
10912.775,209.0
10917.141,190.0
10921.508,211.0
10925.876,208.0
10930.246,209.0
10934.618,203.0
10938.992,230.0
10943.368,251.0
10947.745,192.0
10952.124,240.0
10956.505,208.0
10960.888,204.0
10965.272,230.0
10969.658,203.0
10974.046,208.0
10978.436,250.0
10982.827,243.0
10987.221,244.0
10991.615,226.0
10996.012,220.0
11000.41,245.0
11004.811,234.0
11009.213,205.0
11013.616,222.0
11018.021,214.0
11022.429,257.0
11026.838,234.0
11031.249,229.0
11035.661,252.0
11040.075,244.0
11044.491,229.0
11048.909,233.0
11053.329,233.0
11057.75,231.0
11062.173,224.0
11066.598,244.0
11071.024,232.0
11075.453,231.0
11079.884,220.0
11084.315,247.0
11088.749,236.0
11093.185,246.0
11097.622,243.0
11102.062,276.0
11106.502,268.0
11110.944,242.0
11115.389,245.0
11119.835,236.0
11124.283,270.0
11128.733,277.0
11133.185,286.0
11137.638,274.0
11142.093,243.0
11146.55,239.0
11151.009,263.0
11155.469,266.0
11159.931,254.0
11164.395,264.0
11168.86,270.0
11173.328,286.0
11177.798,260.0
11182.269,273.0
11186.741,253.0
11191.216,249.0
11195.692,293.0
11200.171,278.0
11204.651,247.0
11209.133,292.0
11213.616,275.0
11218.102,253.0
11222.589,275.0
11227.078,274.0
11231.569,310.0
11236.062,269.0
11240.556,264.0
11245.052,321.0
11249.55,305.0
11254.05,280.0
11258.552,300.0
11263.056,328.0
11267.561,320.0
11272.067,324.0
11276.576,319.0
11281.087,329.0
11285.6,322.0
11290.114,328.0
11294.63,320.0
11299.147,313.0
11303.667,346.0
11308.188,361.0
11312.712,370.0
11317.237,329.0
11321.765,336.0
11326.293,357.0
11330.823,369.0
11335.355,336.0
11339.89,375.0
11344.426,405.0
11348.964,435.0
11353.504,394.0
11358.045,423.0
11362.588,424.0
11367.133,440.0
11371.68,428.0
11376.229,468.0
11380.779,412.0
11385.332,452.0
11389.886,473.0
11394.441,480.0
11398.999,487.0
11403.559,500.0
11408.12,452.0
11412.684,544.0
11417.249,526.0
11421.816,538.0
11426.385,575.0
11430.955,578.0
11435.527,571.0
11440.102,561.0
11444.678,623.0
11449.256,639.0
11453.836,637.0
11458.417,592.0
11463.0,705.0
11467.585,640.0
11472.172,673.0
11476.761,708.0
11481.352,674.0
11485.944,715.0
11490.539,704.0
11495.136,751.0
11499.733,789.0
11504.333,784.0
11508.935,791.0
11513.538,869.0
11518.144,807.0
11522.751,803.0
11527.36,866.0
11531.972,858.0
11536.584,824.0
11541.198,833.0
11545.814,916.0
11550.433,892.0
11555.053,832.0
11559.675,895.0
11564.299,940.0
11568.925,908.0
11573.553,977.0
11578.183,976.0
11582.813,1051.0
11587.446,885.0
11592.081,1014.0
11596.718,1018.0
11601.356,950.0
11605.997,981.0
11610.64,1052.0
11615.284,1001.0
11619.931,894.0
11624.579,1002.0
11629.229,1055.0
11633.88,911.0
11638.533,890.0
11643.188,1104.0
11647.846,967.0
11652.505,760.0
11657.166,1008.0
11661.829,1091.0
11666.494,806.0
11671.161,880.0
11675.83,1239.0
11680.5,1177.0
11685.172,831.0
11689.846,841.0
11694.521,903.0
11699.199,746.0
11703.879,649.0
11708.561,667.0
11713.244,633.0
11717.93,550.0
11722.617,548.0
11727.307,541.0
11731.998,502.0
11736.69,478.0
11741.385,489.0
11746.081,450.0
11750.779,426.0
11755.4795,456.0
11760.182,398.0
11764.886,416.0
11769.592,395.0
11774.3,412.0
11779.01,364.0
11783.722,389.0
11788.436,387.0
11793.151,361.0
11797.868,341.0
11802.587,380.0
11807.308,375.0
11812.03,351.0
11816.755,324.0
11821.481,378.0
11826.21,379.0
11830.94,318.0
11835.673,312.0
11840.407,342.0
11845.144,335.0
11849.882,268.0
11854.622,297.0
11859.364,268.0
11864.108,323.0
11868.8545,272.0
11873.602,286.0
11878.351,259.0
11883.102,233.0
11887.8545,249.0
11892.609,243.0
11897.366,232.0
11902.125,259.0
11906.886,225.0
11911.648,208.0
11916.413,233.0
11921.18,236.0
11925.948,234.0
11930.719,203.0
11935.491,214.0
11940.266,208.0
11945.042,218.0
11949.82,226.0
11954.601,214.0
11959.383,246.0
11964.167,249.0
11968.953,201.0
11973.74,228.0
11978.529,207.0
11983.32,206.0
11988.113,220.0
11992.908,206.0
