M/Z,Intensity
800.0,107.0
800.32,151.0
800.64014,43.0
800.9604,130.0
801.28076,312.0
801.60126,84.0
801.9219,88.0
802.2426,157.0
802.56354,95.0
802.8846,219.0
803.20575,197.0
803.52704,70.0
803.84845,99.0
804.17,158.0
804.49164,71.0
804.8134,59.0
805.1353,126.0
805.4574,97.0
805.7796,47.0
806.1019,97.0
806.4244,118.0
806.74695,42.0
807.06964,94.0
807.39246,110.0
807.7154,50.0
808.03845,80.0
808.3617,117.0
808.68506,43.0
809.00854,89.0
809.33215,154.0
809.6559,35.0
809.97974,62.0
810.3037,146.0
810.6278,51.0
810.9521,68.0
811.2765,126.0
811.601,55.0
811.92566,60.0
812.2504,147.0
812.5753,52.0
812.9003,74.0
813.22546,140.0
813.5508,56.0
813.8762,52.0
814.2018,115.0
814.52747,77.0
814.8533,69.0
815.1792,124.0
815.50525,79.0
815.8314,52.0
816.1578,111.0
816.48425,81.0
816.81085,106.0
817.1376,164.0
817.4644,102.0
817.7914,56.0
818.11847,145.0
818.44574,109.0
818.77313,58.0
819.10065,138.0
819.4283,104.0
819.75604,54.0
820.0839,95.0
820.412,90.0
820.7402,64.0
821.0685,120.0
821.3969,121.0
821.72546,53.0
822.05414,80.0
822.38293,113.0
822.7119,50.0
823.041,185.0
823.37024,93.0
823.6996,55.0
824.02905,151.0
824.35864,119.0
824.6884,196.0
825.0183,2321.0
825.3483,192.0
825.67847,132.0
826.0087,1024.0
826.3391,139.0
826.6696,51.0
827.0003,340.0
827.3311,125.0
827.66205,56.0
827.9931,117.0
828.3243,126.0
828.65564,50.0
828.9871,64.0
829.3187,134.0
829.65045,43.0
829.9823,75.0
830.3143,115.0
830.6464,51.0
830.9787,72.0
831.3111,134.0
831.6436,36.0
831.97626,71.0
832.309,117.0
832.64197,46.0
832.97504,91.0
833.3082,131.0
833.64154,51.0
833.975,84.0
834.3086,107.0
834.64233,46.0
834.9762,61.0
835.3102,118.0
835.6443,43.0
835.9785,70.0
836.3129,121.0
836.64746,65.0
836.9821,136.0
837.3169,136.0
837.6518,38.0
837.9869,103.0
838.3221,114.0
838.6574,85.0
838.99286,329.0
839.3284,131.0
839.6642,68.0
840.00006,211.0
840.33606,103.0
840.6722,93.0
841.0084,481.0
841.34485,142.0
841.6814,65.0
842.01807,268.0
842.35486,128.0
842.6918,67.0
843.0289,162.0
843.3661,120.0
843.7034,53.0
844.0409,120.0
844.37854,119.0
844.7163,93.0
845.0542,351.0
845.3922,250.0
845.73035,78.0
846.06866,200.0
846.4071,187.0
846.74567,70.0
847.08435,151.0
847.42316,113.0
847.76215,61.0
848.10126,118.0
848.4405,78.0
848.77985,56.0
849.1194,105.0
849.45905,91.0
849.7988,44.0
850.13873,105.0
850.47876,80.0
850.819,64.0
851.1593,93.0
851.49976,76.0
851.84033,50.0
852.1811,122.0
852.522,72.0
852.863,53.0
853.2041,124.0
853.5454,80.0
853.88684,60.0
854.2284,115.0
854.57007,77.0
854.9119,292.0
855.2539,144.0
855.596,57.0
855.93823,163.0
856.2806,119.0
856.6231,52.0
856.96576,161.0
857.30853,115.0
857.6514,54.0
857.9945,103.0
858.3377,114.0
858.681,52.0
859.0245,123.0
859.3681,140.0
859.71185,47.0
860.0557,105.0
860.3997,106.0
860.7439,346.0
861.0882,636.0
861.4326,150.0
861.77716,296.0
862.1219,311.0
862.46674,111.0
862.8117,165.0
863.15686,147.0
863.50214,97.0
863.84753,97.0
864.19305,105.0
864.53876,70.0
864.8846,84.0
865.2305,131.0
865.5766,76.0
865.92285,70.0
866.2692,109.0
866.6157,58.0
866.96234,157.0
867.30914,138.0
867.65607,50.0
868.0031,97.0
868.35034,89.0
868.6977,40.0
869.04517,88.0
869.39276,94.0
869.74054,42.0
870.08844,70.0
870.43646,87.0
870.7846,56.0
871.13293,72.0
871.4814,76.0
871.82996,37.0
872.1787,94.0
872.5276,78.0
872.8766,76.0
873.2257,118.0
873.575,67.0
873.92444,95.0
874.274,126.0
874.6237,49.0
874.9736,75.0
875.32355,120.0
875.6737,48.0
876.024,78.0
876.3744,159.0
876.7249,120.0
877.0756,198.0
877.42645,150.0
877.7774,106.0
878.12854,135.0
878.4798,98.0
878.8312,101.0
879.18274,104.0
879.5344,73.0
879.8862,73.0
880.23816,114.0
880.5903,66.0
880.9425,88.0
881.29486,112.0
881.6474,52.0
882.00006,67.0
882.35284,99.0
882.7058,67.0
883.0589,119.0
883.4121,120.0
883.7655,85.0
884.119,92.0
884.47266,113.0
884.8264,54.0
885.18036,117.0
885.5344,84.0
885.8886,48.0
886.243,96.0
886.5975,48.0
886.9521,75.0
887.3069,123.0
887.6618,53.0
888.01685,67.0
888.3721,107.0
888.7274,60.0
889.0829,94.0
889.43854,179.0
889.7943,63.0
890.1502,95.0
890.5063,123.0
890.8625,42.0
891.2188,108.0
891.5753,92.0
891.93195,42.0
892.2887,115.0
892.6456,61.0
893.0027,60.0
893.35986,111.0
893.7172,47.0
894.0747,94.0
894.4323,166.0
894.7901,76.0
895.148,103.0
895.50604,90.0
895.86426,60.0
896.2226,89.0
896.58105,72.0
896.9397,55.0
897.29846,121.0
897.6574,42.0
898.0165,71.0
898.3757,115.0
898.73505,43.0
899.09454,80.0
899.45416,101.0
899.81396,57.0
900.1739,89.0
900.53394,75.0
900.89417,53.0
901.2545,98.0
901.615,51.0
901.97565,47.0
902.3364,107.0
902.6974,48.0
903.0585,76.0
903.4197,145.0
903.78107,55.0
904.1426,111.0
904.5042,91.0
904.866,75.0
905.22797,120.0
905.5901,61.0
905.95233,53.0
906.3147,144.0
906.67725,53.0
907.0399,60.0
907.4027,119.0
907.7657,50.0
908.1288,98.0
908.49207,95.0
908.85547,40.0
909.219,101.0
909.5827,58.0
909.94653,59.0
910.3105,97.0
910.6746,45.0
911.0389,71.0
911.4033,109.0
911.7679,44.0
912.13257,90.0
912.49744,77.0
912.8624,41.0
913.2276,91.0
913.5929,76.0
913.9583,55.0
914.3239,121.0
914.68964,58.0
915.05554,84.0
915.4216,106.0
915.7877,40.0
916.15405,93.0
916.5205,90.0
916.88715,57.0
917.2539,124.0
917.6208,48.0
917.98785,52.0
918.35504,124.0
918.7224,44.0
919.0899,80.0
919.4575,92.0
919.8253,51.0
920.19324,133.0
920.56134,50.0
920.92957,62.0
921.2979,125.0
921.66644,52.0
922.0351,70.0
922.40393,106.0
922.7729,46.0
923.14197,94.0
923.5112,86.0
923.8806,59.0
924.2502,77.0
924.6199,47.0
924.98975,71.0
925.35974,94.0
925.72986,44.0
926.10016,95.0
926.4706,76.0
926.8412,40.0
927.2119,109.0
927.5828,54.0
927.95386,72.0
928.325,98.0
928.69635,50.0
929.0678,81.0
929.43945,121.0
929.8112,46.0
930.18317,86.0
930.55524,88.0
930.9274,52.0
931.2998,108.0
931.6723,53.0
932.045,63.0
932.4178,85.0
932.7908,40.0
933.1639,82.0
933.5372,148.0
933.9106,50.0
934.2841,120.0
934.65784,40.0
935.0317,67.0
935.4057,101.0
935.77985,40.0
936.1542,73.0
936.5286,71.0
936.90326,53.0
937.278,131.0
937.65295,38.0
938.028,70.0
938.4032,100.0
938.77856,39.0
939.15405,88.0
939.5297,78.0
939.9055,58.0
940.2815,100.0
940.6576,55.0
941.0339,71.0
941.4103,94.0
941.78687,46.0
942.1636,96.0
942.54047,80.0
942.9175,63.0
943.2947,96.0
943.672,45.0
944.04944,72.0
944.42706,94.0
944.8048,46.0
945.18274,95.0
945.5608,64.0
945.939,66.0
946.3174,111.0
946.6959,43.0
947.0746,74.0
947.4534,79.0
947.8324,58.0
948.21155,99.0
948.5908,70.0
948.9703,56.0
949.34985,99.0
949.7296,40.0
950.1095,77.0
950.48956,86.0
950.86975,55.0
951.2501,84.0
951.6306,70.0
952.0113,55.0
952.3921,91.0
952.7731,35.0
953.1542,97.0
953.53546,74.0
953.9169,51.0
954.29846,88.0
954.6802,61.0
955.0621,68.0
955.4441,121.0
955.8263,49.0
956.2086,97.0
956.5911,56.0
956.97375,54.0
957.35657,96.0
957.7395,40.0
958.1226,68.0
958.50586,81.0
958.8893,51.0
959.2728,86.0
959.65656,52.0
960.0404,65.0
960.42444,74.0
960.8086,38.0
961.19293,89.0
961.5774,73.0
961.96204,52.0
962.3468,107.0
962.73175,49.0
963.1168,78.0
963.5021,96.0
963.88745,64.0
964.273,95.0
964.6587,51.0
965.04456,87.0
965.4306,113.0
965.8168,53.0
966.2031,84.0
966.5896,68.0
966.97626,71.0
967.36304,112.0
967.75,55.0
968.1371,87.0
968.52435,75.0
968.91174,60.0
969.2993,108.0
969.687,55.0
970.0749,118.0
970.4629,93.0
970.8511,67.0
971.23944,95.0
971.6279,41.0
972.0166,60.0
972.4054,110.0
972.7944,40.0
973.1835,87.0
973.57275,75.0
973.96216,50.0
974.35175,106.0
974.7415,59.0
975.1314,68.0
975.5215,82.0
975.9117,52.0
976.30206,109.0
976.69257,51.0
977.08325,64.0
977.47406,142.0
977.86505,58.0
978.2562,101.0
978.6475,69.0
979.039,70.0
979.4306,109.0
979.8224,58.0
980.2143,103.0
980.6064,68.0
980.99866,51.0
981.39105,107.0
981.7836,34.0
982.17633,87.0
982.5692,72.0
982.9622,65.0
983.3554,89.0
983.7488,56.0
984.1423,117.0
984.53595,63.0
984.92975,64.0
985.3237,91.0
985.71783,63.0
986.1121,87.0
986.5066,77.0
986.9012,73.0
987.29596,109.0
987.69086,61.0
988.08594,86.0
988.4812,86.0
988.8766,46.0
989.27216,97.0
989.66785,54.0
990.0637,89.0
990.4597,94.0
990.8559,47.0
991.25226,76.0
991.64874,46.0
992.0454,103.0
992.4422,108.0
992.8392,68.0
993.2363,102.0
993.6336,69.0
994.03107,108.0
994.42865,101.0
994.8264,58.0
995.22437,106.0
995.62244,71.0
996.0207,85.0
996.4191,92.0
996.8177,55.0
997.21643,103.0
997.6153,54.0
998.01434,62.0
998.4136,75.0
998.8129,49.0
999.21246,98.0
999.6121,57.0
1000.01196,72.0
1000.412,97.0
1000.81213,41.0
1001.21246,95.0
1001.613,58.0
1002.0136,72.0
1002.4144,117.0
1002.81537,55.0
1003.2165,88.0
1003.6178,55.0
1004.0192,62.0
1004.42084,115.0
1004.82263,57.0
1005.22455,88.0
1005.62665,74.0
1006.0289,103.0
1006.4313,86.0
1006.83386,73.0
1007.2366,110.0
1007.63947,68.0
1008.04254,128.0
1008.44574,91.0
1008.8491,89.0
1009.2527,101.0
1009.6564,65.0
1010.06024,100.0
1010.4643,107.0
1010.86847,43.0
1011.2728,94.0
1011.6773,59.0
1012.082,88.0
1012.4868,104.0
1012.8918,60.0
1013.29694,90.0
1013.7023,83.0
1014.1077,207.0
1014.51337,86.0
1014.9192,135.0
1015.32513,107.0
1015.73126,76.0
1016.1376,109.0
1016.544,77.0
1016.9506,77.0
1017.3574,120.0
1017.76434,62.0
1018.17145,76.0
1018.57874,68.0
1018.98615,57.0
1019.39374,96.0
1019.8015,41.0
1020.2094,100.0
1020.6175,68.0
1021.02576,64.0
1021.43414,146.0
1021.8427,63.0
1022.25146,103.0
1022.66034,62.0
1023.0694,69.0
1023.47864,92.0
1023.888,69.0
1024.2976,105.0
1024.7073,45.0
1025.1172,77.0
1025.5272,87.0
1025.9374,57.0
1026.3478,111.0
1026.7583,53.0
1027.169,66.0
1027.5798,83.0
1027.9908,95.0
1028.4021,104.0
1028.8135,84.0
1029.225,83.0
1029.6367,81.0
1030.0486,210.0
1030.4606,111.0
1030.8728,129.0
1031.2852,96.0
1031.6976,74.0
1032.1104,101.0
1032.5232,90.0
1032.9362,65.0
1033.3494,105.0
1033.7627,81.0
1034.1761,108.0
1034.5898,68.0
1035.0037,104.0
1035.4177,98.0
1035.8319,86.0
1036.2462,82.0
1036.6608,67.0
1037.0754,72.0
1037.4902,98.0
1037.9053,72.0
1038.3204,103.0
1038.7357,55.0
1039.1512,80.0
1039.5669,85.0
1039.9827,48.0
1040.3987,97.0
1040.8148,54.0
1041.2312,78.0
1041.6477,80.0
1042.0643,59.0
1042.4812,70.0
1042.8982,54.0
1043.3153,145.0
1043.7327,77.0
1044.1501,88.0
1044.5677,87.0
1044.9856,73.0
1045.4036,96.0
1045.8218,74.0
1046.2401,116.0
1046.6586,81.0
1047.0773,81.0
1047.4961,90.0
1047.915,64.0
1048.3342,92.0
1048.7535,51.0
1049.1731,84.0
1049.5928,105.0
1050.0126,255.0
1050.4326,84.0
1050.8528,150.0
1051.2731,66.0
1051.6936,88.0
1052.1143,146.0
1052.5352,85.0
1052.9562,71.0
1053.3773,106.0
1053.7987,101.0
1054.2202,103.0
1054.6418,79.0
1055.0637,89.0
1055.4857,97.0
1055.908,92.0
1056.3303,95.0
1056.7528,80.0
1057.1755,93.0
1057.5984,91.0
1058.0215,55.0
1058.4447,103.0
1058.868,48.0
1059.2916,98.0
1059.7153,66.0
1060.1392,130.0
1060.5632,171.0
1060.9874,74.0
1061.4119,156.0
1061.8364,47.0
1062.2611,101.0
1062.686,65.0
1063.1111,74.0
1063.5364,90.0
1063.9618,76.0
1064.3873,105.0
1064.8131,62.0
1065.239,86.0
1065.6652,150.0
1066.0914,212.0
1066.5178,107.0
1066.9445,161.0
1067.3712,106.0
1067.7982,117.0
1068.2253,85.0
1068.6526,101.0
1069.0801,89.0
1069.5077,84.0
1069.9355,75.0
1070.3635,95.0
1070.7916,76.0
1071.22,88.0
1071.6484,99.0
1072.0771,150.0
1072.506,95.0
1072.9349,112.0
1073.3641,133.0
1073.7935,83.0
1074.223,112.0
1074.6527,89.0
1075.0825,77.0
1075.5126,98.0
1075.9427,67.0
1076.3732,106.0
1076.8037,52.0
1077.2344,103.0
1077.6653,68.0
1078.0963,114.0
1078.5276,91.0
1078.959,75.0
1079.3906,84.0
1079.8224,80.0
1080.2543,84.0
1080.6864,52.0
1081.1187,79.0
1081.5511,70.0
1081.9838,99.0
1082.4165,91.0
1082.8495,66.0
1083.2826,90.0
1083.716,83.0
1084.1494,62.0
1084.5831,80.0
1085.017,76.0
1085.4509,103.0
1085.8851,57.0
1086.3195,84.0
1086.754,54.0
1087.1887,62.0
1087.6235,82.0
1088.0586,93.0
1088.4938,94.0
1088.9292,73.0
1089.3647,95.0
1089.8005,80.0
1090.2365,146.0
1090.6725,101.0
1091.1088,86.0
1091.5452,148.0
1091.9818,66.0
1092.4186,114.0
1092.8556,56.0
1093.2927,94.0
1093.7301,55.0
1094.1676,89.0
1094.6052,68.0
1095.0431,88.0
1095.4811,95.0
1095.9193,66.0
1096.3577,92.0
1096.7963,57.0
1097.235,93.0
1097.6738,70.0
1098.1129,75.0
1098.5521,93.0
1098.9916,62.0
1099.4312,88.0
1099.871,69.0
1100.3109,102.0
1100.751,51.0
1101.1913,64.0
1101.6317,61.0
1102.0724,70.0
1102.5132,83.0
1102.9542,57.0
1103.3954,80.0
1103.8368,60.0
1104.2783,90.0
1104.72,71.0
1105.1619,69.0
1105.6039,89.0
1106.0461,61.0
1106.4885,92.0
1106.9312,70.0
1107.3739,113.0
1107.8169,55.0
1108.26,104.0
1108.7034,66.0
1109.1469,97.0
1109.5905,101.0
1110.0343,64.0
1110.4783,110.0
1110.9225,52.0
1111.3668,106.0
1111.8114,40.0
1112.2561,94.0
1112.701,61.0
1113.1461,83.0
1113.5914,71.0
1114.0369,50.0
1114.4824,103.0
1114.9282,58.0
1115.3741,65.0
1115.8203,62.0
1116.2666,68.0
1116.7131,65.0
1117.1598,56.0
1117.6067,79.0
1118.0537,71.0
1118.501,96.0
1118.9484,57.0
1119.396,102.0
1119.8438,54.0
1120.2917,97.0
1120.7399,54.0
1121.1881,83.0
1121.6366,65.0
1122.0852,58.0
1122.534,78.0
1122.983,59.0
1123.4323,93.0
1123.8816,57.0
1124.3312,96.0
1124.7809,49.0
1125.2308,85.0
1125.6809,79.0
1126.1312,76.0
1126.5817,107.0
1127.0323,66.0
1127.4832,77.0
1127.9342,48.0
1128.3854,88.0
1128.8367,43.0
1129.2882,93.0
1129.7399,48.0
1130.1918,67.0
1130.6438,72.0
1131.0961,82.0
1131.5485,96.0
1132.0011,55.0
1132.4539,105.0
1132.9069,48.0
1133.36,95.0
1133.8134,69.0
1134.2668,85.0
1134.7206,60.0
1135.1744,82.0
1135.6285,66.0
1136.0828,56.0
1136.5372,86.0
1136.9918,52.0
1137.4467,132.0
1137.9016,58.0
1138.3568,106.0
1138.8121,48.0
1139.2677,71.0
1139.7234,64.0
1140.1793,71.0
1140.6354,70.0
1141.0917,60.0
1141.5481,122.0
1142.0048,53.0
1142.4615,86.0
1142.9186,58.0
1143.3757,76.0
1143.8331,65.0
1144.2906,81.0
1144.7484,53.0
1145.2063,84.0
1145.6644,57.0
1146.1227,65.0
1146.5812,75.0
1147.0398,64.0
1147.4987,89.0
1147.9576,68.0
1148.4169,118.0
1148.8762,73.0
1149.3358,112.0
1149.7955,60.0
1150.2555,79.0
1150.7156,68.0
1151.1759,86.0
1151.6364,85.0
1152.097,71.0
1152.5579,91.0
1153.0189,76.0
1153.4801,81.0
1153.9415,57.0
1154.4031,90.0
1154.8649,48.0
1155.3268,107.0
1155.789,43.0
1156.2512,87.0
1156.7137,51.0
1157.1764,83.0
1157.6393,84.0
1158.1023,41.0
1158.5656,88.0
1159.0289,63.0
1159.4926,79.0
1159.9563,59.0
1160.4203,91.0
1160.8844,60.0
1161.3488,103.0
1161.8134,52.0
1162.2781,73.0
1162.743,59.0
1163.2081,82.0
1163.6735,59.0
1164.1389,63.0
1164.6046,104.0
1165.0704,65.0
1165.5365,72.0
1166.0027,53.0
1166.4691,99.0
1166.9357,63.0
1167.4025,98.0
1167.8694,50.0
1168.3365,89.0
1168.8038,66.0
1169.2714,86.0
1169.739,68.0
1170.2069,78.0
1170.675,80.0
1171.1433,83.0
1171.6118,74.0
1172.0804,67.0
1172.5493,84.0
1173.0183,51.0
1173.4875,113.0
1173.9569,69.0
1174.4265,89.0
1174.8962,58.0
1175.3662,104.0
1175.8363,55.0
1176.3066,100.0
1176.7772,57.0
1177.2479,63.0
1177.7189,69.0
1178.19,72.0
1178.6613,67.0
1179.1327,67.0
1179.6044,86.0
1180.0762,64.0
1180.5482,101.0
1181.0204,78.0
1181.4928,89.0
1181.9655,58.0
1182.4382,88.0
1182.9113,68.0
1183.3844,98.0
1183.8578,73.0
1184.3313,83.0
1184.805,59.0
1185.2789,111.0
1185.753,88.0
1186.2273,78.0
1186.7018,79.0
1187.1765,80.0
1187.6514,81.0
1188.1265,57.0
1188.6017,80.0
1189.0771,63.0
1189.5527,88.0
1190.0286,53.0
1190.5045,96.0
1190.9807,46.0
1191.4572,97.0
1191.9337,45.0
1192.4105,89.0
1192.8875,67.0
1193.3646,83.0
1193.8419,45.0
1194.3195,67.0
1194.7972,66.0
1195.2751,76.0
1195.7533,80.0
1196.2316,71.0
1196.7101,62.0
1197.1887,87.0
1197.6676,78.0
1198.1467,71.0
1198.626,91.0
1199.1055,74.0
1199.5851,87.0
1200.065,56.0
1200.5449,96.0
1201.0251,63.0
1201.5056,88.0
1201.9862,54.0
1202.467,93.0
1202.948,65.0
1203.4292,80.0
1203.9105,46.0
1204.3921,87.0
1204.8739,39.0
1205.3558,74.0
1205.838,59.0
1206.3203,82.0
1206.8029,52.0
1207.2855,94.0
1207.7684,51.0
1208.2516,79.0
1208.7349,80.0
1209.2184,72.0
1209.702,65.0
1210.1859,73.0
1210.67,70.0
1211.1543,70.0
1211.6388,67.0
1212.1234,67.0
1212.6083,78.0
1213.0933,64.0
1213.5785,78.0
1214.064,51.0
1214.5496,83.0
1215.0354,76.0
1215.5214,78.0
1216.0076,84.0
1216.494,86.0
1216.9806,57.0
1217.4674,81.0
1217.9543,53.0
1218.4415,104.0
1218.929,82.0
1219.4165,100.0
1219.9043,70.0
1220.3922,81.0
1220.8804,71.0
1221.3688,103.0
1221.8573,51.0
1222.3461,95.0
1222.835,53.0
1223.3241,100.0
1223.8135,67.0
1224.303,95.0
1224.7927,59.0
1225.2826,79.0
1225.7727,60.0
1226.2631,71.0
1226.7535,67.0
1227.2443,79.0
1227.7351,70.0
1228.2262,76.0
1228.7175,57.0
1229.209,80.0
1229.7007,74.0
1230.1925,79.0
1230.6846,79.0
1231.1769,60.0
1231.6693,80.0
1232.162,71.0
1232.6549,67.0
1233.148,75.0
1233.6412,80.0
1234.1346,60.0
1234.6283,75.0
1235.1222,86.0
1235.6162,69.0
1236.1105,69.0
1236.6049,96.0
1237.0995,69.0
1237.5944,81.0
1238.0894,77.0
1238.5846,82.0
1239.0801,88.0
1239.5757,78.0
1240.0715,77.0
1240.5675,104.0
1241.0637,79.0
1241.5602,83.0
1242.0568,68.0
1242.5536,87.0
1243.0507,76.0
1243.5479,106.0
1244.0453,70.0
1244.5428,88.0
1245.0406,55.0
1245.5387,84.0
1246.0369,71.0
1246.5353,112.0
1247.0339,81.0
1247.5327,102.0
1248.0317,81.0
1248.531,84.0
1249.0304,88.0
1249.53,101.0
1250.0298,55.0
1250.5298,87.0
1251.03,54.0
1251.5304,84.0
1252.031,60.0
1252.5319,94.0
1253.0328,56.0
1253.534,78.0
1254.0355,60.0
1254.5371,72.0
1255.039,70.0
1255.541,67.0
1256.0432,60.0
1256.5457,73.0
1257.0482,73.0
1257.551,61.0
1258.0541,61.0
1258.5573,71.0
1259.0607,46.0
1259.5643,72.0
1260.0681,59.0
1260.5721,97.0
1261.0764,90.0
1261.5808,75.0
1262.0854,81.0
1262.5903,97.0
1263.0953,106.0
1263.6006,97.0
1264.1061,91.0
1264.6117,112.0
1265.1176,79.0
1265.6237,86.0
1266.1299,91.0
1266.6364,87.0
1267.1431,76.0
1267.6499,90.0
1268.157,68.0
1268.6642,77.0
1269.1716,62.0
1269.6793,87.0
1270.1871,70.0
1270.6952,78.0
1271.2035,59.0
1271.7119,64.0
1272.2206,74.0
1272.7295,67.0
1273.2385,67.0
1273.7478,89.0
1274.2573,83.0
1274.767,76.0
1275.2769,81.0
1275.787,64.0
1276.2972,74.0
1276.8077,98.0
1277.3185,85.0
1277.8295,96.0
1278.3406,76.0
1278.8519,74.0
1279.3635,91.0
1279.8752,75.0
1280.3872,73.0
1280.8994,82.0
1281.4117,69.0
1281.9243,58.0
1282.4371,117.0
1282.9501,91.0
1283.4633,86.0
1283.9767,75.0
1284.4902,100.0
1285.004,90.0
1285.5181,86.0
1286.0322,59.0
1286.5466,86.0
1287.0613,61.0
1287.576,95.0
1288.0911,63.0
1288.6063,93.0
1289.1218,68.0
1289.6375,93.0
1290.1533,70.0
1290.6694,72.0
1291.1857,66.0
1291.7021,68.0
1292.2189,83.0
1292.7357,59.0
1293.2528,73.0
1293.7701,91.0
1294.2876,66.0
1294.8053,56.0
1295.3232,84.0
1295.8414,60.0
1296.3597,82.0
1296.8783,63.0
1297.3971,87.0
1297.916,68.0
1298.4352,83.0
1298.9546,66.0
1299.4741,101.0
1299.9939,71.0
1300.5139,89.0
1301.0342,55.0
1301.5546,97.0
1302.0752,68.0
1302.5961,98.0
1303.1171,64.0
1303.6383,89.0
1304.1598,65.0
1304.6814,80.0
1305.2032,67.0
1305.7253,76.0
1306.2477,67.0
1306.7701,69.0
1307.2928,73.0
1307.8158,55.0
1308.3389,77.0
1308.8622,62.0
1309.3857,83.0
1309.9095,54.0
1310.4335,87.0
1310.9576,60.0
1311.482,76.0
1312.0066,61.0
1312.5314,89.0
1313.0564,65.0
1313.5817,84.0
1314.107,52.0
1314.6327,77.0
1315.1586,51.0
1315.6847,85.0
1316.2109,68.0
1316.7374,72.0
1317.2642,74.0
1317.791,85.0
1318.3181,78.0
1318.8455,60.0
1319.373,79.0
1319.9008,43.0
1320.4287,83.0
1320.9569,67.0
1321.4854,66.0
1322.0139,56.0
1322.5427,75.0
1323.0718,47.0
1323.601,113.0
1324.1304,64.0
1324.66,86.0
1325.19,61.0
1325.72,79.0
1326.2502,68.0
1326.7808,84.0
1327.3115,76.0
1327.8424,68.0
1328.3735,69.0
1328.9049,52.0
1329.4365,81.0
1329.9683,48.0
1330.5002,80.0
1331.0325,62.0
1331.565,79.0
1332.0975,60.0
1332.6304,89.0
1333.1635,69.0
1333.6968,106.0
1334.2302,73.0
1334.7639,61.0
1335.2979,73.0
1335.832,69.0
1336.3663,87.0
1336.9009,59.0
1337.4357,86.0
1337.9707,46.0
1338.5059,90.0
1339.0413,45.0
1339.5769,77.0
1340.1128,48.0
1340.6488,88.0
1341.185,64.0
1341.7216,75.0
1342.2583,60.0
1342.7952,68.0
1343.3323,86.0
1343.8696,65.0
1344.4072,85.0
1344.945,48.0
1345.4829,85.0
1346.0211,49.0
1346.5596,89.0
1347.0981,67.0
1347.637,71.0
1348.176,75.0
1348.7153,79.0
1349.2548,80.0
1349.7944,62.0
1350.3344,75.0
1350.8745,56.0
1351.4149,89.0
1351.9554,45.0
1352.4962,67.0
1353.0372,54.0
1353.5785,78.0
1354.1199,52.0
1354.6615,80.0
1355.2034,69.0
1355.7455,66.0
1356.2878,63.0
1356.8303,74.0
1357.373,102.0
1357.916,65.0
1358.4592,73.0
1359.0026,54.0
1359.5461,79.0
1360.09,58.0
1360.634,73.0
1361.1783,68.0
1361.7228,82.0
1362.2675,76.0
1362.8124,78.0
1363.3575,80.0
1363.9028,50.0
1364.4484,85.0
1364.9941,44.0
1365.5402,91.0
1366.0864,49.0
1366.6328,85.0
1367.1794,59.0
1367.7263,67.0
1368.2734,71.0
1368.8208,62.0
1369.3683,70.0
1369.916,58.0
1370.464,82.0
1371.0122,57.0
1371.5607,77.0
1372.1093,47.0
1372.6581,62.0
1373.2072,63.0
1373.7565,63.0
1374.306,81.0
1374.8557,62.0
1375.4056,87.0
1375.9558,59.0
1376.5062,92.0
1377.0569,70.0
1377.6077,93.0
1378.1587,65.0
1378.71,69.0
1379.2615,76.0
1379.8132,84.0
1380.3651,77.0
1380.9172,58.0
1381.4696,97.0
1382.0222,64.0
1382.5751,76.0
1383.128,58.0
1383.6813,112.0
1384.2347,77.0
1384.7885,92.0
1385.3424,86.0
1385.8965,66.0
1386.4508,88.0
1387.0054,55.0
1387.5602,89.0
1388.1152,53.0
1388.6705,101.0
1389.226,66.0
1389.7816,96.0
1390.3375,84.0
1390.8937,60.0
1391.4501,87.0
1392.0067,58.0
1392.5635,85.0
1393.1205,63.0
1393.6777,63.0
1394.2352,73.0
1394.793,70.0
1395.3508,68.0
1395.9089,57.0
1396.4673,86.0
1397.0259,65.0
1397.5847,99.0
1398.1438,70.0
1398.703,88.0
1399.2625,65.0
1399.8221,69.0
1400.3821,90.0
1400.9423,52.0
1401.5027,99.0
1402.0632,52.0
1402.624,71.0
1403.185,62.0
1403.7463,72.0
1404.3079,73.0
1404.8696,63.0
1405.4315,97.0
1405.9937,68.0
1406.556,89.0
1407.1187,70.0
1407.6815,109.0
1408.2446,82.0
1408.808,89.0
1409.3715,79.0
1409.9352,61.0
1410.4991,69.0
1411.0634,67.0
1411.6278,76.0
1412.1925,72.0
1412.7573,60.0
1413.3224,84.0
1413.8877,67.0
1414.4532,94.0
1415.019,66.0
1415.5851,80.0
1416.1514,69.0
1416.7178,77.0
1417.2844,62.0
1417.8513,86.0
1418.4185,87.0
1418.9858,52.0
1419.5535,93.0
1420.1213,68.0
1420.6893,83.0
1421.2576,76.0
1421.826,72.0
1422.3948,99.0
1422.9637,54.0
1423.533,91.0
1424.1024,54.0
1424.672,92.0
1425.2418,67.0
1425.8119,77.0
1426.3822,71.0
1426.9528,51.0
1427.5236,98.0
1428.0946,63.0
1428.6659,76.0
1429.2373,81.0
1429.809,78.0
1430.3809,80.0
1430.953,59.0
1431.5254,99.0
1432.098,64.0
1432.6709,77.0
1433.244,100.0
1433.8173,67.0
1434.3907,84.0
1434.9645,63.0
1435.5385,72.0
1436.1127,73.0
1436.6871,86.0
1437.2618,84.0
1437.8368,89.0
1438.412,74.0
1438.9873,69.0
1439.5629,86.0
1440.1387,63.0
1440.7147,69.0
1441.291,84.0
1441.8676,72.0
1442.4443,87.0
1443.0214,65.0
1443.5985,79.0
1444.1759,83.0
1444.7535,96.0
1445.3314,101.0
1445.9095,84.0
1446.4879,92.0
1447.0665,59.0
1447.6454,89.0
1448.2245,82.0
1448.8038,88.0
1449.3833,83.0
1449.963,54.0
1450.543,92.0
1451.1232,71.0
1451.7036,78.0
1452.2843,72.0
1452.8652,62.0
1453.4464,103.0
1454.0278,71.0
1454.6095,90.0
1455.1913,94.0
1455.7733,96.0
1456.3556,79.0
1456.9381,67.0
1457.5209,91.0
1458.1039,69.0
1458.6871,81.0
1459.2706,82.0
1459.8544,86.0
1460.4384,100.0
1461.0226,72.0
1461.6069,173.0
1462.1915,106.0
1462.7764,159.0
1463.3615,133.0
1463.9468,94.0
1464.5323,102.0
1465.1182,77.0
1465.7042,102.0
1466.2905,74.0
1466.8771,96.0
1467.4639,82.0
1468.0509,70.0
1468.6382,88.0
1469.2256,56.0
1469.8132,82.0
1470.4011,99.0
1470.9893,72.0
1471.5776,102.0
1472.1663,89.0
1472.7551,86.0
1473.3442,79.0
1473.9336,64.0
1474.5232,84.0
1475.113,56.0
1475.7031,76.0
1476.2935,80.0
1476.884,83.0
1477.4747,94.0
1478.0657,64.0
1478.6569,101.0
1479.2483,82.0
1479.84,73.0
1480.4319,80.0
1481.024,55.0
1481.6165,89.0
1482.2091,96.0
1482.802,66.0
1483.3951,69.0
1483.9885,79.0
1484.5822,103.0
1485.176,63.0
1485.7701,103.0
1486.3645,84.0
1486.9591,63.0
1487.5538,103.0
1488.1488,58.0
1488.744,92.0
1489.3395,74.0
1489.9352,64.0
1490.5311,99.0
1491.1273,61.0
1491.7238,80.0
1492.3204,86.0
1492.9174,64.0
1493.5145,82.0
1494.1119,63.0
1494.7096,92.0
1495.3075,69.0
1495.9056,85.0
1496.504,97.0
1497.1027,66.0
1497.7015,77.0
1498.3007,78.0
1498.9,73.0
1499.4996,83.0
1500.0995,62.0
1500.6996,76.0
1501.2998,80.0
1501.9003,62.0
1502.501,72.0
1503.1019,53.0
1503.7031,92.0
1504.3046,69.0
1504.9062,92.0
1505.5082,89.0
1506.1104,56.0
1506.7128,86.0
1507.3154,82.0
1507.9183,75.0
1508.5215,90.0
1509.1249,64.0
1509.7285,86.0
1510.3324,67.0
1510.9365,60.0
1511.5409,75.0
1512.1455,72.0
1512.7504,274.0
1513.3555,154.0
1513.9608,138.0
1514.5664,160.0
1515.1722,59.0
1515.7783,91.0
1516.3846,71.0
1516.9912,72.0
1517.598,94.0
1518.2051,63.0
1518.8124,82.0
1519.4199,81.0
1520.0277,70.0
1520.6357,86.0
1521.244,72.0
1521.8525,55.0
1522.4613,80.0
1523.0703,68.0
1523.6796,73.0
1524.2891,76.0
1524.8988,66.0
1525.5088,97.0
1526.119,53.0
1526.7295,92.0
1527.3402,77.0
1527.9512,57.0
1528.5624,98.0
1529.1738,70.0
1529.7855,80.0
1530.3975,87.0
1531.0096,72.0
1531.6221,76.0
1532.2347,71.0
1532.8477,54.0
1533.4608,74.0
1534.0742,58.0
1534.6879,81.0
1535.3018,73.0
1535.9159,62.0
1536.5303,77.0
1537.1449,59.0
1537.7598,84.0
1538.3749,75.0
1538.9902,57.0
1539.6058,95.0
1540.2217,57.0
1540.8378,69.0
1541.4541,82.0
1542.0707,59.0
1542.6875,103.0
1543.3046,74.0
1543.9219,74.0
1544.5394,91.0
1545.1572,53.0
1545.7753,82.0
1546.3936,76.0
1547.0121,77.0
1547.6309,76.0
1548.2499,55.0
1548.8691,61.0
1549.4886,77.0
1550.1084,61.0
1550.7284,78.0
1551.3486,75.0
1551.9691,73.0
1552.5898,100.0
1553.2109,54.0
1553.8323,68.0
1554.4539,82.0
1555.0757,59.0
1555.6978,66.0
1556.3201,75.0
1556.9426,67.0
1557.5654,87.0
1558.1885,59.0
1558.8118,87.0
1559.4353,77.0
1560.0591,68.0
1560.6831,76.0
1561.3074,75.0
1561.9319,78.0
1562.5566,105.0
1563.1816,54.0
1563.8069,81.0
1564.4324,74.0
1565.0581,64.0
1565.6841,76.0
1566.3103,74.0
1566.9368,62.0
1567.5636,78.0
1568.1907,59.0
1568.818,85.0
1569.4456,74.0
1570.0734,63.0
1570.7014,81.0
1571.3297,75.0
1571.9583,61.0
1572.587,79.0
1573.2161,68.0
1573.8453,84.0
1574.4749,90.0
1575.1046,45.0
1575.7346,77.0
1576.3649,77.0
1576.9954,70.0
1577.6261,65.0
1578.2572,52.0
1578.8885,58.0
1579.5201,72.0
1580.152,47.0
1580.784,61.0
1581.4164,95.0
1582.049,63.0
1582.6818,63.0
1583.3148,71.0
1583.9481,69.0
1584.5817,80.0
1585.2155,51.0
1585.8495,60.0
1586.4839,102.0
1587.1185,54.0
1587.7534,79.0
1588.3885,79.0
1589.0239,60.0
1589.6595,65.0
1590.2954,67.0
1590.9315,68.0
1591.5679,77.0
1592.2045,49.0
1592.8413,58.0
1593.4784,77.0
1594.1158,59.0
1594.7535,72.0
1595.3915,87.0
1596.0297,68.0
1596.6681,97.0
1597.3068,90.0
1597.9457,69.0
1598.5848,98.0
1599.2242,65.0
1599.8639,66.0
1600.5038,76.0
1601.144,56.0
1601.7845,80.0
1602.4253,76.0
1603.0663,68.0
1603.7075,87.0
1604.349,62.0
1604.9907,71.0
1605.6327,88.0
1606.2749,62.0
1606.9174,61.0
1607.5602,74.0
1608.2032,58.0
1608.8466,84.0
1609.4901,61.0
1610.1339,66.0
1610.778,74.0
1611.4222,95.0
1612.0668,64.0
1612.7115,83.0
1613.3567,91.0
1614.0021,60.0
1614.6477,101.0
1615.2936,63.0
1615.9397,76.0
1616.586,83.0
1617.2327,69.0
1617.8795,88.0
1618.5266,81.0
1619.1741,57.0
1619.8218,83.0
1620.4697,75.0
1621.1179,68.0
1621.7664,77.0
1622.415,99.0
1623.064,60.0
1623.7131,90.0
1624.3627,91.0
1625.0125,71.0
1625.6625,76.0
1626.3127,79.0
1626.9633,89.0
1627.614,95.0
1628.265,80.0
1628.9163,86.0
1629.5679,100.0
1630.2197,77.0
1630.8718,70.0
1631.5242,71.0
1632.1768,94.0
1632.8296,83.0
1633.4827,82.0
1634.1361,71.0
1634.7898,73.0
1635.4437,89.0
1636.0979,66.0
1636.7523,69.0
1637.407,86.0
1638.0619,73.0
1638.7172,75.0
1639.3727,93.0
1640.0284,64.0
1640.6844,166.0
1641.3407,99.0
1641.9972,79.0
1642.6539,103.0
1643.311,78.0
1643.9684,90.0
1644.626,155.0
1645.2838,166.0
1645.9419,110.0
1646.6002,119.0
1647.2589,64.0
1647.9178,93.0
1648.577,94.0
1649.2365,78.0
1649.8961,71.0
1650.556,81.0
1651.2163,72.0
1651.8768,61.0
1652.5376,89.0
1653.1986,65.0
1653.8599,72.0
1654.5214,69.0
1655.1832,58.0
1655.8453,83.0
1656.5077,80.0
1657.1703,57.0
1657.8331,70.0
1658.4962,84.0
1659.1597,69.0
1659.8234,62.0
1660.4873,105.0
1661.1515,74.0
1661.8159,75.0
1662.4806,103.0
1663.1456,77.0
1663.8109,92.0
1664.4764,89.0
1665.1422,70.0
1665.8082,88.0
1666.4746,86.0
1667.1412,61.0
1667.8081,81.0
1668.4752,74.0
1669.1426,62.0
1669.8102,87.0
1670.4781,75.0
1671.1464,59.0
1671.8148,77.0
1672.4835,71.0
1673.1525,55.0
1673.8218,76.0
1674.4913,83.0
1675.1611,59.0
1675.8312,82.0
1676.5015,77.0
1677.1721,76.0
1677.843,82.0
1678.5142,79.0
1679.1855,67.0
1679.8572,54.0
1680.5292,87.0
1681.2014,66.0
1681.8739,59.0
1682.5466,104.0
1683.2196,64.0
1683.893,72.0
1684.5665,92.0
1685.2404,84.0
1685.9144,78.0
1686.5887,83.0
1687.2634,68.0
1687.9384,66.0
1688.6135,109.0
1689.289,66.0
1689.9646,66.0
1690.6406,61.0
1691.3169,66.0
1691.9934,62.0
1692.6702,74.0
1693.3473,59.0
1694.0247,78.0
1694.7023,74.0
1695.3801,80.0
1696.0582,57.0
1696.7367,70.0
1697.4154,67.0
1698.0944,53.0
1698.7736,99.0
1699.4531,70.0
1700.1329,73.0
1700.813,79.0
1701.4933,91.0
1702.1738,56.0
1702.8547,89.0
1703.5359,68.0
1704.2173,72.0
1704.8989,83.0
1705.5809,77.0
1706.2632,70.0
1706.9457,67.0
1707.6284,90.0
1708.3115,79.0
1708.9949,65.0
1709.6785,75.0
1710.3623,81.0
1711.0465,61.0
1711.731,80.0
1712.4156,77.0
1713.1006,69.0
1713.7858,69.0
1714.4713,62.0
1715.1571,50.0
1715.8431,71.0
1716.5294,65.0
1717.2161,58.0
1717.903,76.0
1718.5901,79.0
1719.2775,68.0
1719.9652,71.0
1720.6532,62.0
1721.3414,44.0
1722.0299,75.0
1722.7188,99.0
1723.4078,84.0
1724.0972,61.0
1724.7869,68.0
1725.4768,76.0
1726.167,54.0
1726.8574,67.0
1727.5482,86.0
1728.2393,68.0
1728.9305,77.0
1729.6221,93.0
1730.314,84.0
1731.0061,55.0
1731.6985,79.0
1732.3911,88.0
1733.0841,58.0
1733.7773,69.0
1734.4708,61.0
1735.1647,57.0
1735.8588,81.0
1736.5531,74.0
1737.2477,58.0
1737.9426,69.0
1738.6378,89.0
1739.3333,56.0
1740.0289,67.0
1740.725,71.0
1741.4213,72.0
1742.1178,59.0
1742.8147,76.0
1743.5118,79.0
1744.2092,64.0
1744.9069,67.0
1745.6049,58.0
1746.3031,75.0
1747.0016,68.0
1747.7004,75.0
1748.3995,71.0
1749.0989,62.0
1749.7985,68.0
1750.4984,64.0
1751.1986,57.0
1751.899,70.0
1752.5999,72.0
1753.3009,53.0
1754.0022,75.0
1754.7039,72.0
1755.4058,83.0
1756.1079,56.0
1756.8103,67.0
1757.5131,85.0
1758.2161,57.0
1758.9193,69.0
1759.6229,70.0
1760.3268,69.0
1761.0309,56.0
1761.7354,73.0
1762.4401,70.0
1763.145,64.0
1763.8502,78.0
1764.5558,80.0
1765.2616,67.0
1765.9677,54.0
1766.6741,67.0
1767.3807,66.0
1768.0876,69.0
1768.7949,68.0
1769.5024,81.0
1770.2102,58.0
1770.9183,66.0
1771.6267,74.0
1772.3353,63.0
1773.0443,65.0
1773.7535,72.0
1774.463,64.0
1775.1729,62.0
1775.8829,79.0
1776.5933,79.0
1777.304,57.0
1778.0149,63.0
1778.7261,63.0
1779.4376,69.0
1780.1494,65.0
1780.8615,64.0
1781.5739,80.0
1782.2865,56.0
1782.9994,78.0
1783.7126,79.0
1784.4261,70.0
1785.1399,63.0
1785.854,65.0
1786.5684,77.0
1787.283,60.0
1787.9979,69.0
1788.7131,111.0
1789.4286,93.0
1790.1444,72.0
1790.8605,70.0
1791.5768,87.0
1792.2935,71.0
1793.0104,73.0
1793.7275,87.0
1794.4451,60.0
1795.1628,66.0
1795.8809,58.0
1796.5992,70.0
1797.3179,79.0
1798.0367,80.0
1798.756,81.0
1799.4755,74.0
1800.1953,58.0
1800.9154,66.0
1801.6357,81.0
1802.3564,57.0
1803.0774,61.0
1803.7986,65.0
1804.5201,81.0
1805.242,85.0
1805.964,198.0
1806.6864,226.0
1807.409,139.0
1808.1321,80.0
1808.8553,100.0
1809.5789,106.0
1810.3027,78.0
1811.0269,83.0
1811.7512,96.0
1812.476,93.0
1813.2009,63.0
1813.9261,57.0
1814.6517,71.0
1815.3776,85.0
1816.1038,79.0
1816.8302,77.0
1817.5569,70.0
1818.2839,68.0
1819.0112,67.0
1819.7389,70.0
1820.4668,70.0
1821.195,52.0
1821.9235,73.0
1822.6522,76.0
1823.3812,56.0
1824.1106,66.0
1824.8402,68.0
1825.5702,71.0
1826.3004,66.0
1827.0309,76.0
1827.7617,90.0
1828.4928,88.0
1829.2242,69.0
1829.9559,76.0
1830.6879,66.0
1831.4202,72.0
1832.1527,62.0
1832.8856,74.0
1833.6188,54.0
1834.3522,68.0
1835.0859,49.0
1835.82,53.0
1836.5543,72.0
1837.289,55.0
1838.0238,73.0
1838.759,79.0
1839.4945,75.0
1840.2303,52.0
1840.9664,86.0
1841.7028,80.0
1842.4395,74.0
1843.1764,47.0
1843.9137,79.0
1844.6512,66.0
1845.3892,79.0
1846.1273,60.0
1846.8657,57.0
1847.6045,80.0
1848.3435,62.0
1849.0829,57.0
1849.8225,67.0
1850.5624,89.0
1851.3026,66.0
1852.0431,57.0
1852.7839,74.0
1853.525,61.0
1854.2665,52.0
1855.0082,78.0
1855.7501,87.0
1856.4924,76.0
1857.235,65.0
1857.9779,119.0
1858.7211,132.0
1859.4646,93.0
1860.2084,65.0
1860.9525,74.0
1861.6969,70.0
1862.4415,57.0
1863.1865,51.0
1863.9318,55.0
1864.6774,72.0
1865.4232,51.0
1866.1694,56.0
1866.9159,69.0
1867.6627,67.0
1868.4098,53.0
1869.1571,48.0
1869.9048,84.0
1870.6527,82.0
1871.401,63.0
1872.1495,72.0
1872.8984,71.0
1873.6476,82.0
1874.3971,80.0
1875.1469,69.0
1875.8969,79.0
1876.6472,112.0
1877.3978,88.0
1878.1488,77.0
1878.9,81.0
1879.6516,71.0
1880.4034,61.0
1881.1556,49.0
1881.9081,83.0
1882.6609,76.0
1883.414,70.0
1884.1674,92.0
1884.921,141.0
1885.675,165.0
1886.4293,113.0
1887.1838,87.0
1887.9387,94.0
1888.6938,78.0
1889.4493,57.0
1890.2051,79.0
1890.9612,86.0
1891.7175,64.0
1892.4742,76.0
1893.2312,54.0
1893.9885,68.0
1894.7461,72.0
1895.504,96.0
1896.2622,61.0
1897.0208,95.0
1897.7795,86.0
1898.5387,75.0
1899.2981,68.0
1900.0579,76.0
1900.8179,79.0
1901.5782,93.0
1902.3389,52.0
1903.0999,65.0
1903.8611,66.0
1904.6227,66.0
1905.3845,63.0
1906.1467,58.0
1906.9092,74.0
1907.672,80.0
1908.435,58.0
1909.1985,45.0
1909.9622,56.0
1910.7262,84.0
1911.4905,93.0
1912.2551,87.0
1913.02,79.0
1913.7853,264.0
1914.5508,227.0
1915.3167,175.0
1916.0828,168.0
1916.8492,121.0
1917.616,78.0
1918.383,54.0
1919.1504,63.0
1919.9181,70.0
1920.686,51.0
1921.4543,56.0
1922.2229,64.0
1922.9918,63.0
1923.761,70.0
1924.5305,79.0
1925.3003,61.0
1926.0704,75.0
1926.8408,55.0
1927.6116,81.0
1928.3826,77.0
1929.1539,61.0
1929.9255,82.0
1930.6975,69.0
1931.4698,60.0
1932.2424,51.0
1933.0154,45.0
1933.7886,63.0
1934.5621,67.0
1935.3359,60.0
1936.1101,56.0
1936.8845,90.0
1937.6593,88.0
1938.4343,70.0
1939.2097,58.0
1939.9854,65.0
1940.7614,74.0
1941.5376,80.0
1942.3142,83.0
1943.0912,55.0
1943.8684,74.0
1944.646,78.0
1945.4238,61.0
1946.202,51.0
1946.9805,52.0
1947.7593,66.0
1948.5383,65.0
1949.3177,70.0
1950.0975,72.0
1950.8776,65.0
1951.658,92.0
1952.4386,69.0
1953.2196,63.0
1954.0009,69.0
1954.7825,79.0
1955.5643,98.0
1956.3466,70.0
1957.1292,74.0
1957.912,73.0
1958.6952,49.0
1959.4786,65.0
1960.2625,54.0
1961.0465,52.0
1961.8309,75.0
1962.6157,74.0
1963.4008,54.0
1964.1862,50.0
1964.9718,67.0
1965.7578,80.0
1966.5441,55.0
1967.3307,73.0
1968.1177,63.0
1968.9049,79.0
1969.6925,69.0
1970.4803,136.0
1971.2686,105.0
1972.057,111.0
1972.8458,108.0
1973.635,100.0
1974.4244,79.0
1975.2142,73.0
1976.0043,83.0
1976.7947,53.0
1977.5854,88.0
1978.3765,70.0
1979.1678,46.0
1979.9595,65.0
1980.7515,67.0
1981.5438,54.0
1982.3364,59.0
1983.1294,69.0
1983.9226,88.0
1984.7162,78.0
1985.5101,71.0
1986.3043,59.0
1987.0989,57.0
1987.8937,80.0
1988.6888,65.0
1989.4844,71.0
1990.2802,63.0
1991.0763,63.0
1991.8727,69.0
1992.6694,67.0
1993.4666,98.0
1994.2639,72.0
1995.0616,82.0
1995.8596,79.0
1996.658,72.0
1997.4567,73.0
1998.2556,67.0
1999.0549,50.0
1999.8546,60.0
2000.6545,69.0
2001.4548,50.0
2002.2554,55.0
2003.0563,48.0
2003.8575,53.0
2004.659,74.0
2005.4609,70.0
2006.2631,52.0
2007.0656,58.0
2007.8684,75.0
2008.6715,82.0
2009.475,87.0
2010.2788,73.0
2011.0829,102.0
2011.8873,133.0
2012.6921,120.0
2013.4972,92.0
2014.3026,79.0
2015.1083,83.0
2015.9143,76.0
2016.7207,64.0
2017.5273,75.0
2018.3344,67.0
2019.1417,45.0
2019.9493,61.0
2020.7573,56.0
2021.5657,59.0
2022.3743,70.0
2023.1832,61.0
2023.9926,58.0
2024.8021,73.0
2025.612,94.0
2026.4224,97.0
2027.2329,83.0
2028.0438,77.0
2028.855,88.0
2029.6665,97.0
2030.4784,73.0
2031.2905,62.0
2032.103,58.0
2032.9159,63.0
2033.729,79.0
2034.5425,95.0
2035.3563,72.0
2036.1704,69.0
2036.9849,85.0
2037.7997,77.0
2038.6147,72.0
2039.4302,63.0
2040.246,63.0
2041.062,60.0
2041.8784,73.0
2042.6952,79.0
2043.5123,73.0
2044.3297,76.0
2045.1475,62.0
2045.9656,66.0
2046.7839,68.0
2047.6027,84.0
2048.4216,67.0
2049.241,64.0
2050.0605,62.0
2050.8806,84.0
2051.701,88.0
2052.5217,100.0
2053.3428,64.0
2054.164,74.0
2054.9858,66.0
2055.8079,84.0
2056.6301,73.0
2057.453,58.0
2058.276,60.0
2059.099,62.0
2059.9229,63.0
2060.7468,65.0
2061.571,72.0
2062.3958,60.0
2063.2207,56.0
2064.046,61.0
2064.8716,72.0
2065.6975,84.0
2066.5237,70.0
2067.3503,63.0
2068.1772,74.0
2069.0046,57.0
2069.8323,69.0
2070.6602,58.0
2071.4885,61.0
2072.3171,64.0
2073.146,67.0
2073.9753,52.0
2074.805,76.0
2075.6348,60.0
2076.465,55.0
2077.2957,55.0
2078.1265,50.0
2078.9578,64.0
2079.7893,54.0
2080.6213,71.0
2081.4536,67.0
2082.2861,74.0
2083.1191,92.0
2083.9524,106.0
2084.786,96.0
2085.6199,83.0
2086.454,64.0
2087.2886,73.0
2088.1235,56.0
2088.9587,64.0
2089.7944,60.0
2090.6304,50.0
2091.4666,48.0
2092.3032,61.0
2093.1401,45.0
2093.9773,66.0
2094.815,74.0
2095.6528,51.0
2096.4912,69.0
2097.3298,71.0
2098.1687,68.0
2099.008,63.0
2099.8477,74.0
2100.6875,63.0
2101.5278,62.0
2102.3684,64.0
2103.2095,56.0
2104.0508,66.0
2104.8923,69.0
2105.7344,59.0
2106.5767,82.0
2107.4192,48.0
2108.2622,60.0
2109.1055,80.0
2109.9492,54.0
2110.7932,70.0
2111.6375,72.0
2112.4822,81.0
2113.3271,55.0
2114.1724,61.0
2115.018,62.0
2115.864,61.0
2116.7104,64.0
2117.5571,69.0
2118.404,62.0
2119.2515,53.0
2120.099,56.0
2120.9473,64.0
2121.7957,87.0
2122.6443,52.0
2123.4934,58.0
2124.3428,59.0
2125.1926,66.0
2126.0427,65.0
2126.893,58.0
2127.744,59.0
2128.595,72.0
2129.4463,51.0
2130.298,63.0
2131.1501,61.0
2132.0027,52.0
2132.8555,69.0
2133.7085,73.0
2134.562,60.0
2135.4158,62.0
2136.27,61.0
2137.1245,62.0
2137.9792,67.0
2138.8345,67.0
2139.69,61.0
2140.546,77.0
2141.402,83.0
2142.2585,84.0
2143.1155,120.0
2143.9727,87.0
2144.8303,87.0
2145.6882,72.0
2146.5464,63.0
2147.405,62.0
2148.264,56.0
2149.1233,61.0
2149.983,69.0
2150.843,66.0
2151.7034,78.0
2152.564,73.0
2153.425,75.0
2154.2864,62.0
2155.1482,59.0
2156.0103,74.0
2156.8726,64.0
2157.7354,57.0
2158.5984,59.0
2159.462,84.0
2160.3257,66.0
2161.1897,63.0
2162.0542,79.0
2162.919,67.0
2163.7842,69.0
2164.6497,69.0
2165.5156,60.0
2166.3818,63.0
2167.2483,71.0
2168.1152,82.0
2168.9824,84.0
2169.85,78.0
2170.718,81.0
2171.5864,63.0
2172.455,56.0
2173.324,62.0
2174.1934,65.0
2175.063,65.0
2175.933,67.0
2176.8035,60.0
2177.674,59.0
2178.5452,76.0
2179.4165,77.0
2180.2883,64.0
2181.1604,68.0
2182.033,69.0
2182.9058,52.0
2183.7788,64.0
2184.6523,76.0
2185.5261,54.0
2186.4004,59.0
2187.275,55.0
2188.15,71.0
2189.0251,56.0
2189.9006,72.0
2190.7766,64.0
2191.6528,61.0
2192.5295,87.0
2193.4065,74.0
2194.284,101.0
2195.1616,90.0
2196.0398,76.0
2196.9182,79.0
2197.7969,89.0
2198.676,73.0
2199.5554,68.0
2200.4353,82.0
2201.3154,58.0
2202.196,65.0
2203.077,57.0
2203.9583,73.0
2204.8398,51.0
2205.7217,72.0
2206.604,67.0
2207.4866,52.0
2208.3696,70.0
2209.253,55.0
2210.1367,52.0
2211.0208,57.0
2211.9053,65.0
2212.79,76.0
2213.675,74.0
2214.5605,93.0
2215.4463,79.0
2216.3325,80.0
2217.219,79.0
2218.106,63.0
2218.9932,70.0
2219.8809,83.0
2220.7688,56.0
2221.6572,67.0
2222.546,62.0
2223.4348,64.0
2224.3242,49.0
2225.2139,58.0
2226.104,70.0
2226.9944,71.0
2227.8853,64.0
2228.7764,58.0
2229.668,78.0
2230.5598,79.0
2231.4521,66.0
2232.3447,72.0
2233.2375,85.0
2234.1309,63.0
2235.0244,95.0
2235.9185,80.0
2236.8127,75.0
2237.7075,70.0
2238.6025,80.0
2239.498,72.0
2240.3938,62.0
2241.29,65.0
2242.1865,64.0
2243.0835,80.0
2243.9807,68.0
2244.8784,77.0
2245.7764,61.0
2246.6746,70.0
2247.5732,65.0
2248.4722,60.0
2249.3716,53.0
2250.2712,65.0
2251.1714,73.0
2252.0718,67.0
2252.9727,57.0
2253.8738,71.0
2254.7754,63.0
2255.6772,73.0
2256.5796,83.0
2257.4822,75.0
2258.3853,68.0
2259.2886,83.0
2260.1924,82.0
2261.0964,83.0
2262.001,84.0
2262.9058,76.0
2263.811,70.0
2264.7166,82.0
2265.6226,64.0
2266.5288,70.0
2267.4353,67.0
2268.3423,67.0
2269.2495,66.0
2270.1572,70.0
2271.0652,69.0
2271.9736,62.0
2272.8823,66.0
2273.7915,77.0
2274.701,74.0
2275.6108,84.0
2276.521,92.0
2277.4316,87.0
2278.3425,81.0
2279.254,68.0
2280.1655,68.0
2281.0776,73.0
2281.99,81.0
2282.9028,70.0
2283.816,83.0
2284.7295,72.0
2285.6433,77.0
2286.5576,69.0
2287.4722,64.0
2288.3872,55.0
2289.3025,64.0
2290.2183,65.0
2291.1343,75.0
2292.0508,78.0
2292.9675,68.0
2293.8848,75.0
2294.8022,70.0
2295.7202,76.0
2296.6384,68.0
2297.5571,66.0
2298.476,82.0
2299.3955,61.0
2300.3152,69.0
2301.2354,72.0
2302.1558,75.0
2303.0767,77.0
2303.9978,94.0
2304.9194,79.0
2305.8413,79.0
2306.7637,72.0
2307.6863,73.0
2308.6094,78.0
2309.5327,66.0
2310.4565,53.0
2311.3806,60.0
2312.3052,51.0
2313.23,91.0
2314.1553,65.0
2315.081,78.0
2316.007,85.0
2316.9336,73.0
2317.8604,75.0
2318.7876,108.0
2319.715,77.0
2320.643,88.0
2321.5713,100.0
2322.5,74.0
2323.429,66.0
2324.3584,84.0
2325.288,84.0
2326.2183,87.0
2327.1487,90.0
2328.0796,100.0
2329.0107,89.0
2329.9424,73.0
2330.8743,74.0
2331.8066,72.0
2332.7393,73.0
2333.6724,69.0
2334.6057,64.0
2335.5396,66.0
2336.4739,69.0
2337.4084,66.0
2338.3435,70.0
2339.2788,61.0
2340.2146,81.0
2341.1506,86.0
2342.0872,67.0
2343.024,63.0
2343.9612,78.0
2344.8987,83.0
2345.8367,110.0
2346.775,107.0
2347.7136,82.0
2348.6526,75.0
2349.592,84.0
2350.532,59.0
2351.4722,72.0
2352.4128,80.0
2353.3538,67.0
2354.2952,77.0
2355.2368,70.0
2356.179,75.0
2357.1213,68.0
2358.0642,74.0
2359.0073,74.0
2359.951,66.0
2360.895,62.0
2361.8394,68.0
2362.7842,91.0
2363.7292,89.0
2364.6748,70.0
2365.6206,93.0
2366.567,90.0
2367.5134,83.0
2368.4604,52.0
2369.4077,76.0
2370.3555,69.0
2371.3037,68.0
2372.2522,86.0
2373.2012,63.0
2374.1504,79.0
2375.1,65.0
2376.05,73.0
2377.0005,75.0
2377.9512,66.0
2378.9023,66.0
2379.854,81.0
2380.806,89.0
2381.7583,90.0
2382.711,84.0
2383.664,71.0
2384.6174,79.0
2385.5713,74.0
2386.5256,66.0
2387.4802,93.0
2388.4353,109.0
2389.3906,106.0
2390.3464,93.0
2391.3025,90.0
2392.259,70.0
2393.2158,90.0
2394.173,69.0
2395.1309,80.0
2396.0889,76.0
2397.0474,78.0
2398.006,82.0
2398.9653,76.0
2399.9248,68.0
2400.8848,77.0
2401.8452,60.0
2402.806,62.0
2403.767,71.0
2404.7285,87.0
2405.6904,70.0
2406.6526,79.0
2407.6152,65.0
2408.5784,61.0
2409.5417,77.0
2410.5056,79.0
2411.4697,70.0
2412.4343,63.0
2413.3994,81.0
2414.3647,84.0
2415.3306,77.0
2416.2966,68.0
2417.2632,78.0
2418.23,62.0
2419.1973,75.0
2420.165,67.0
2421.133,82.0
2422.1016,77.0
2423.0703,93.0
2424.0396,73.0
2425.0093,72.0
2425.9792,78.0
2426.9497,72.0
2427.9204,61.0
2428.8916,78.0
2429.863,65.0
2430.835,84.0
2431.8074,76.0
2432.78,81.0
2433.7532,88.0
2434.7266,73.0
2435.7004,87.0
2436.6748,75.0
2437.6494,83.0
2438.6245,57.0
2439.5999,72.0
2440.5757,79.0
2441.552,85.0
2442.5286,59.0
2443.5056,59.0
2444.483,68.0
2445.4607,59.0
2446.439,70.0
2447.4175,74.0
2448.3965,77.0
2449.3757,69.0
2450.3555,78.0
2451.3357,73.0
2452.3162,71.0
2453.297,74.0
2454.2783,64.0
2455.26,63.0
2456.2422,67.0
2457.2246,75.0
2458.2075,69.0
2459.191,75.0
2460.1746,66.0
2461.1587,75.0
2462.143,76.0
2463.128,71.0
2464.1133,73.0
2465.0989,91.0
2466.085,70.0
2467.0713,85.0
2468.058,81.0
2469.0454,78.0
2470.033,74.0
2471.021,63.0
2472.0095,83.0
2472.9983,68.0
2473.9875,72.0
2474.977,74.0
2475.967,76.0
2476.9575,59.0
2477.9482,80.0
2478.9395,84.0
2479.931,63.0
2480.9229,73.0
2481.9153,77.0
2482.908,64.0
2483.9011,64.0
2484.8948,65.0
2485.8887,75.0
2486.883,72.0
2487.878,86.0
2488.873,60.0
2489.8687,79.0
2490.8645,74.0
2491.8608,81.0
2492.8577,70.0
2493.8547,75.0
2494.8523,58.0
2495.8503,74.0
2496.8486,73.0
2497.8474,78.0
2498.8464,82.0
2499.846,87.0
2500.846,78.0
2501.8462,55.0
2502.847,70.0
2503.8481,67.0
2504.8496,72.0
2505.8516,66.0
2506.854,62.0
2507.8567,76.0
2508.8599,61.0
2509.8635,81.0
2510.8674,63.0
2511.8718,54.0
2512.8765,80.0
2513.8816,64.0
2514.8872,64.0
2515.893,76.0
2516.8994,64.0
2517.9062,65.0
2518.9133,72.0
2519.921,66.0
2520.929,68.0
2521.9373,58.0
2522.946,82.0
2523.9553,80.0
2524.9648,72.0
2525.9749,69.0
2526.9854,65.0
2527.996,62.0
2529.0073,69.0
2530.019,79.0
2531.031,75.0
2532.0435,79.0
2533.0562,82.0
2534.0693,83.0
2535.083,66.0
2536.097,83.0
2537.1113,83.0
2538.1262,79.0
2539.1414,58.0
2540.157,69.0
2541.173,71.0
2542.1895,79.0
2543.2063,73.0
2544.2236,66.0
2545.2412,65.0
2546.2593,72.0
2547.2778,79.0
2548.2966,75.0
2549.316,58.0
2550.3357,80.0
2551.3557,85.0
2552.3762,60.0
2553.3972,75.0
2554.4185,68.0
2555.4402,61.0
2556.4624,68.0
2557.485,63.0
2558.508,82.0
2559.5315,67.0
2560.5554,57.0
2561.5796,77.0
2562.6042,88.0
2563.6294,93.0
2564.6548,89.0
2565.6807,64.0
2566.707,99.0
2567.7336,82.0
2568.7607,76.0
2569.7883,75.0
2570.8162,73.0
2571.8445,69.0
2572.8733,80.0
2573.9023,70.0
2574.932,75.0
2575.962,66.0
2576.9922,77.0
2578.023,89.0
2579.0542,74.0
2580.086,95.0
2581.118,89.0
2582.1504,84.0
2583.1833,71.0
2584.2166,64.0
2585.2502,69.0
2586.2844,107.0
2587.3188,83.0
2588.3538,74.0
2589.3892,62.0
2590.4248,86.0
2591.461,67.0
2592.4976,95.0
2593.5347,100.0
2594.572,99.0
2595.6099,86.0
2596.6482,79.0
2597.6868,54.0
2598.7258,64.0
2599.7654,85.0
2600.8052,70.0
2601.8455,77.0
2602.8862,87.0
2603.9275,76.0
2604.969,92.0
2606.011,71.0
2607.0535,85.0
2608.0962,78.0
2609.1394,81.0
2610.183,72.0
2611.2273,77.0
2612.2717,73.0
2613.3167,84.0
2614.362,63.0
2615.4077,77.0
2616.4539,62.0
2617.5005,71.0
2618.5476,74.0
2619.595,74.0
2620.6428,95.0
2621.6912,83.0
2622.7397,84.0
2623.7888,91.0
2624.8384,84.0
2625.8884,83.0
2626.9387,92.0
2627.9895,80.0
2629.0408,77.0
2630.0923,84.0
2631.1443,76.0
2632.1968,67.0
2633.2498,61.0
2634.303,81.0
2635.3567,76.0
2636.411,87.0
2637.4653,71.0
2638.5203,81.0
2639.5757,76.0
2640.6316,88.0
2641.6877,68.0
2642.7444,73.0
2643.8015,82.0
2644.8591,90.0
2645.917,68.0
2646.9753,91.0
2648.0342,88.0
2649.0935,81.0
2650.153,72.0
2651.2131,80.0
2652.2737,77.0
2653.3345,82.0
2654.3958,81.0
2655.4575,63.0
2656.5198,76.0
2657.5823,72.0
2658.6453,83.0
2659.7087,68.0
2660.7727,85.0
2661.837,71.0
2662.9016,88.0
2663.9668,105.0
2665.0325,118.0
2666.0984,111.0
2667.1648,116.0
2668.2317,93.0
2669.299,89.0
2670.3667,88.0
2671.4348,81.0
2672.5034,64.0
2673.5725,71.0
2674.6418,76.0
2675.7117,92.0
2676.782,70.0
2677.8528,75.0
2678.9238,80.0
2679.9954,96.0
2681.0674,90.0
2682.14,88.0
2683.2126,85.0
2684.286,73.0
2685.3596,75.0
2686.4338,66.0
2687.5083,103.0
2688.5833,96.0
2689.6587,79.0
2690.7346,78.0
2691.8108,72.0
2692.8875,76.0
2693.9646,80.0
2695.0422,69.0
2696.1204,96.0
2697.1987,73.0
2698.2776,79.0
2699.357,96.0
2700.4368,103.0
2701.5168,64.0
2702.5974,82.0
2703.6785,81.0
2704.76,84.0
2705.8418,78.0
2706.924,80.0
2708.0068,76.0
2709.09,94.0
2710.1738,81.0
2711.2578,81.0
2712.3423,78.0
2713.4272,84.0
2714.5127,78.0
2715.5984,62.0
2716.6846,69.0
2717.7712,72.0
2718.8584,67.0
2719.946,78.0
2721.034,76.0
2722.1223,109.0
2723.2112,95.0
2724.3005,92.0
2725.3901,88.0
2726.4802,90.0
2727.5708,95.0
2728.6619,83.0
2729.7534,80.0
2730.8452,95.0
2731.9375,99.0
2733.0303,82.0
2734.1235,78.0
2735.2173,123.0
2736.3113,145.0
2737.4058,99.0
2738.5007,91.0
2739.5962,65.0
2740.6921,96.0
2741.7883,75.0
2742.885,81.0
2743.9822,82.0
2745.0798,98.0
2746.178,85.0
2747.2764,93.0
2748.3752,80.0
2749.4746,87.0
2750.5745,83.0
2751.6748,70.0
2752.7754,85.0
2753.8765,80.0
2754.978,71.0
2756.08,73.0
2757.1826,72.0
2758.2854,68.0
2759.3887,91.0
2760.4924,78.0
2761.5967,89.0
2762.7014,92.0
2763.8064,57.0
2764.9119,88.0
2766.0178,67.0
2767.1243,61.0
2768.2312,81.0
2769.3384,100.0
2770.446,65.0
2771.5542,71.0
2772.6628,90.0
2773.772,64.0
2774.8816,86.0
2775.9915,83.0
2777.1018,91.0
2778.2126,100.0
2779.324,81.0
2780.4358,92.0
2781.5479,89.0
2782.6604,89.0
2783.7734,92.0
2784.887,79.0
2786.001,65.0
2787.1155,63.0
2788.2302,69.0
2789.3455,80.0
2790.4612,97.0
2791.5774,98.0
2792.694,122.0
2793.8113,196.0
2794.9287,157.0
2796.0466,191.0
2797.165,146.0
2798.284,141.0
2799.4033,129.0
2800.5232,134.0
2801.6433,104.0
2802.764,120.0
2803.885,126.0
2805.0066,98.0
2806.1287,109.0
2807.2512,150.0
2808.374,146.0
2809.4973,143.0
2810.621,115.0
2811.7454,126.0
2812.87,133.0
2813.9954,124.0
2815.1208,129.0
2816.2468,131.0
2817.3733,142.0
2818.5002,123.0
2819.6277,119.0
2820.7556,103.0
2821.884,118.0
2823.0127,104.0
2824.1418,119.0
2825.2715,115.0
2826.4016,105.0
2827.5322,130.0
2828.6633,142.0
2829.7947,119.0
2830.9265,113.0
2832.0588,112.0
2833.1917,126.0
2834.325,98.0
2835.4587,123.0
2836.593,137.0
2837.7275,116.0
2838.8625,109.0
2839.998,131.0
2841.134,131.0
2842.2705,110.0
2843.4075,115.0
2844.545,136.0
2845.6829,114.0
2846.821,133.0
2847.9597,114.0
2849.0989,123.0
2850.2385,118.0
2851.3787,121.0
2852.5193,122.0
2853.6604,133.0
2854.8018,117.0
2855.9436,133.0
2857.086,125.0
2858.2288,152.0
2859.372,113.0
2860.5159,131.0
2861.6602,126.0
2862.805,147.0
2863.95,146.0
2865.0955,156.0
2866.2415,155.0
2867.388,161.0
2868.535,142.0
2869.6824,131.0
2870.8303,167.0
2871.9788,153.0
2873.1274,123.0
2874.2766,118.0
2875.4263,127.0
2876.5764,123.0
2877.727,123.0
2878.8782,136.0
2880.0298,142.0
2881.182,141.0
2882.3345,141.0
2883.4873,136.0
2884.6406,130.0
2885.7944,100.0
2886.9487,163.0
2888.1035,184.0
2889.2588,194.0
2890.4146,200.0
2891.5708,164.0
2892.7275,162.0
2893.8845,162.0
2895.042,131.0
2896.2,117.0
2897.3584,121.0
2898.5173,129.0
2899.6768,105.0
2900.8367,113.0
2901.997,115.0
2903.158,116.0
2904.3193,172.0
2905.481,191.0
2906.643,204.0
2907.8057,214.0
2908.9688,218.0
2910.1323,178.0
2911.2964,195.0
2912.461,151.0
2913.626,124.0
2914.7915,111.0
2915.9575,103.0
2917.124,112.0
2918.2908,117.0
2919.458,114.0
2920.6257,164.0
2921.794,330.0
2922.9626,438.0
2924.1318,370.0
2925.3015,279.0
2926.4717,223.0
2927.6423,160.0
2928.8135,155.0
2929.985,113.0
2931.157,121.0
2932.3293,141.0
2933.5022,142.0
2934.6755,123.0
2935.8494,108.0
2937.0237,105.0
2938.1985,126.0
2939.3738,178.0
2940.5496,121.0
2941.7258,137.0
2942.9026,110.0
2944.0798,124.0
2945.2576,141.0
2946.4358,130.0
2947.6143,152.0
2948.7932,144.0
2949.9727,136.0
2951.1526,139.0
2952.333,132.0
2953.514,112.0
2954.6953,134.0
2955.8772,102.0
2957.0596,74.0
2958.2424,127.0
2959.4258,128.0
2960.6096,146.0
2961.794,111.0
2962.9788,111.0
2964.164,103.0
2965.3496,131.0
2966.5356,101.0
2967.7222,115.0
2968.9092,112.0
2970.0967,106.0
2971.2847,104.0
2972.4731,115.0
2973.662,116.0
2974.8516,118.0
2976.0415,132.0
2977.232,120.0
2978.4229,103.0
2979.6143,142.0
2980.8062,124.0
2981.9985,112.0
2983.1914,103.0
2984.3848,130.0
2985.5786,128.0
2986.773,112.0
2987.9678,123.0
2989.1628,115.0
2990.3584,112.0
2991.5544,109.0
2992.751,101.0
2993.948,121.0
2995.1455,123.0
2996.3435,101.0
2997.542,98.0
2998.741,109.0
2999.9404,126.0
3001.1404,119.0
3002.3408,122.0
3003.5417,126.0
3004.7432,111.0
3005.945,123.0
3007.1475,103.0
3008.3503,124.0
3009.5537,116.0
3010.7576,131.0
3011.962,113.0
3013.1667,112.0
3014.372,128.0
3015.578,124.0
3016.7842,113.0
3017.991,107.0
3019.1982,105.0
3020.406,140.0
3021.6143,150.0
3022.823,148.0
3024.0322,113.0
3025.242,121.0
3026.4521,106.0
3027.6628,125.0
3028.874,103.0
3030.0857,112.0
3031.2976,140.0
3032.51,129.0
3033.723,100.0
3034.9363,110.0
3036.1501,99.0
3037.3645,114.0
3038.5793,113.0
3039.7947,105.0
3041.0105,111.0
3042.2268,132.0
3043.4436,116.0
3044.661,127.0
3045.8787,118.0
3047.097,122.0
3048.3157,115.0
3049.535,103.0
3050.7546,122.0
3051.9749,103.0
3053.1956,118.0
3054.4167,137.0
3055.6384,146.0
3056.8606,135.0
3058.0833,118.0
3059.3064,127.0
3060.53,130.0
3061.7542,102.0
3062.9788,127.0
3064.2039,104.0
3065.4294,141.0
3066.6555,108.0
3067.882,130.0
3069.1091,124.0
3070.3367,128.0
3071.5647,101.0
3072.7932,107.0
3074.0222,95.0
3075.2517,131.0
3076.4817,131.0
3077.7124,145.0
3078.9436,159.0
3080.1753,119.0
3081.4075,128.0
3082.6401,121.0
3083.8733,103.0
3085.107,101.0
3086.341,134.0
3087.5757,134.0
3088.8108,129.0
3090.0464,125.0
3091.2825,114.0
3092.519,109.0
3093.756,112.0
3094.9937,109.0
3096.2317,118.0
3097.4702,124.0
3098.7092,114.0
3099.9487,138.0
3101.1887,98.0
3102.4292,106.0
3103.6702,122.0
3104.9116,103.0
3106.1536,114.0
3107.396,121.0
3108.639,103.0
3109.8823,108.0
3111.1262,131.0
3112.3706,152.0
3113.6155,129.0
3114.8608,102.0
3116.1067,92.0
3117.353,123.0
3118.5999,119.0
3119.8474,96.0
3121.0955,127.0
3122.344,105.0
3123.593,131.0
3124.8425,114.0
3126.0925,116.0
3127.343,132.0
3128.594,87.0
3129.8455,112.0
3131.0974,96.0
3132.3499,120.0
3133.6028,124.0
3134.8562,120.0
3136.11,112.0
3137.3645,128.0
3138.6194,123.0
3139.8748,111.0
3141.1306,113.0
3142.387,130.0
3143.6438,113.0
3144.9014,121.0
3146.1594,133.0
3147.418,144.0
3148.677,116.0
3149.9365,109.0
3151.1965,111.0
3152.457,125.0
3153.718,107.0
3154.9795,131.0
3156.2415,120.0
3157.504,126.0
3158.7668,123.0
3160.0303,102.0
3161.2942,108.0
3162.5586,106.0
3163.8237,114.0
3165.0894,113.0
3166.3555,108.0
3167.622,105.0
3168.8892,116.0
3170.1567,127.0
3171.4248,118.0
3172.6934,134.0
3173.9624,101.0
3175.232,102.0
3176.502,109.0
3177.7725,109.0
3179.0435,108.0
3180.3152,137.0
3181.5874,136.0
3182.86,105.0
3184.1333,123.0
3185.407,113.0
3186.6812,140.0
3187.9558,136.0
3189.231,114.0
3190.5066,134.0
3191.7827,117.0
3193.0593,122.0
3194.3367,131.0
3195.6145,131.0
3196.8928,134.0
3198.1716,136.0
3199.451,123.0
3200.7307,124.0
3202.011,106.0
3203.2917,137.0
3204.573,110.0
3205.8547,125.0
3207.137,98.0
3208.42,113.0
3209.7034,122.0
3210.9873,136.0
3212.2717,114.0
3213.5566,125.0
3214.842,115.0
3216.128,129.0
3217.4143,135.0
3218.7012,109.0
3219.9888,102.0
3221.2769,102.0
3222.5654,128.0
3223.8545,130.0
3225.144,126.0
3226.434,97.0
3227.7246,122.0
3229.0156,114.0
3230.3071,83.0
3231.5994,128.0
3232.892,102.0
3234.1853,113.0
3235.479,101.0
3236.7732,123.0
3238.0679,117.0
3239.363,124.0
3240.6587,112.0
3241.9548,104.0
3243.2517,122.0
3244.549,132.0
3245.847,88.0
3247.1453,118.0
3248.444,98.0
3249.7434,126.0
3251.0432,85.0
3252.3438,123.0
3253.6448,110.0
3254.9463,137.0
3256.2483,118.0
3257.5508,116.0
3258.8538,117.0
3260.1572,96.0
3261.4612,128.0
3262.7659,97.0
3264.071,106.0
3265.3767,111.0
3266.6829,113.0
3267.9895,111.0
3269.2966,115.0
3270.6042,152.0
3271.9126,130.0
3273.2214,114.0
3274.5308,104.0
3275.8406,120.0
3277.151,110.0
3278.4617,132.0
3279.773,131.0
3281.085,105.0
3282.3975,95.0
3283.7104,112.0
3285.024,89.0
3286.338,125.0
3287.6523,131.0
3288.9673,141.0
3290.283,119.0
3291.599,120.0
3292.9158,114.0
3294.233,108.0
3295.5505,115.0
3296.8687,126.0
3298.1875,102.0
3299.5068,131.0
3300.8267,102.0
3302.147,118.0
3303.4678,106.0
3304.789,107.0
3306.111,112.0
3307.4336,142.0
3308.7566,132.0
3310.08,116.0
3311.404,82.0
3312.7285,117.0
3314.0537,103.0
3315.3794,118.0
3316.7056,115.0
3318.0322,103.0
3319.3594,120.0
3320.687,102.0
3322.0154,108.0
3323.3442,112.0
3324.6736,99.0
3326.0034,107.0
3327.3337,120.0
3328.6648,126.0
3329.9963,135.0
3331.3284,110.0
3332.661,107.0
3333.994,115.0
3335.3274,111.0
3336.6616,141.0
3337.9963,125.0
3339.3315,104.0
3340.6672,143.0
3342.0034,133.0
3343.3403,99.0
3344.6777,113.0
3346.0156,115.0
3347.354,97.0
3348.6929,113.0
3350.0322,133.0
3351.3723,119.0
3352.713,131.0
3354.054,120.0
3355.3955,129.0
3356.7375,119.0
3358.0803,115.0
3359.4236,128.0
3360.7673,144.0
3362.1116,119.0
3363.4563,134.0
3364.8018,137.0
3366.1477,141.0
3367.4941,129.0
3368.841,129.0
3370.1887,120.0
3371.5369,135.0
3372.8855,148.0
3374.2346,130.0
3375.5842,120.0
3376.9346,117.0
3378.2854,102.0
3379.6367,125.0
3380.9885,120.0
3382.3408,134.0
3383.6938,118.0
3385.0474,137.0
3386.4014,115.0
3387.7559,129.0
3389.1108,126.0
3390.4666,135.0
3391.8228,116.0
3393.1794,123.0
3394.5366,133.0
3395.8945,119.0
3397.253,131.0
3398.6118,112.0
3399.9712,123.0
3401.3313,112.0
3402.692,155.0
3404.053,149.0
3405.4146,141.0
3406.7766,147.0
3408.1394,128.0
3409.5027,121.0
3410.8665,128.0
3412.2307,116.0
3413.5957,155.0
3414.9612,146.0
3416.3271,122.0
3417.6936,151.0
3419.0608,128.0
3420.4285,130.0
3421.7966,131.0
3423.1653,139.0
3424.5347,136.0
3425.9045,112.0
3427.275,130.0
3428.6458,138.0
3430.017,125.0
3431.3892,141.0
3432.7617,120.0
3434.1348,111.0
3435.5083,122.0
3436.8826,102.0
3438.2573,119.0
3439.6326,125.0
3441.0083,118.0
3442.3848,97.0
3443.7617,126.0
3445.1392,122.0
3446.5173,119.0
3447.896,127.0
3449.2751,103.0
3450.6548,134.0
3452.0352,149.0
3453.416,137.0
3454.7974,130.0
3456.1792,130.0
3457.5618,142.0
3458.9448,101.0
3460.3284,119.0
3461.7124,116.0
3463.0972,138.0
3464.4824,101.0
3465.8682,142.0
3467.2544,126.0
3468.6414,124.0
3470.0288,117.0
3471.4167,116.0
3472.8054,141.0
3474.1946,144.0
3475.5842,145.0
3476.9744,147.0
3478.3652,121.0
3479.7566,153.0
3481.1484,133.0
3482.541,114.0
3483.934,113.0
3485.3276,145.0
3486.7217,129.0
3488.1165,120.0
3489.5117,144.0
3490.9075,137.0
3492.304,125.0
3493.701,138.0
3495.0984,103.0
3496.4963,129.0
3497.895,120.0
3499.2942,130.0
3500.6938,146.0
3502.0942,136.0
3503.495,113.0
3504.8965,124.0
3506.2983,151.0
3507.701,129.0
3509.104,134.0
3510.5076,152.0
3511.9119,138.0
3513.3167,130.0
3514.722,148.0
3516.128,144.0
3517.5344,126.0
3518.9414,116.0
3520.3489,132.0
3521.757,178.0
3523.1658,171.0
3524.575,155.0
3525.9849,137.0
3527.3953,141.0
3528.8062,139.0
3530.2178,210.0
3531.63,196.0
3533.0425,157.0
3534.4558,145.0
3535.8696,126.0
3537.284,140.0
3538.6987,129.0
3540.1143,137.0
3541.5303,148.0
3542.9468,156.0
3544.364,124.0
3545.7817,141.0
3547.2,142.0
3548.619,122.0
3550.0383,147.0
3551.4583,137.0
3552.879,136.0
3554.3,137.0
3555.7217,126.0
3557.144,128.0
3558.567,163.0
3559.9902,135.0
3561.4143,146.0
3562.8389,141.0
3564.264,152.0
3565.6897,151.0
3567.116,154.0
3568.5427,125.0
3569.9702,141.0
3571.3982,158.0
3572.8267,170.0
3574.2559,125.0
3575.6855,145.0
3577.1157,148.0
3578.5466,179.0
3579.978,189.0
3581.41,147.0
3582.8425,161.0
3584.2756,162.0
3585.7092,161.0
3587.1436,166.0
3588.5784,160.0
3590.014,149.0
3591.45,160.0
3592.8865,146.0
3594.3237,167.0
3595.7615,174.0
3597.1997,186.0
3598.6387,185.0
3600.0781,174.0
3601.518,170.0
3602.9587,159.0
3604.4,137.0
3605.8416,144.0
3607.284,192.0
3608.7268,186.0
3610.1704,162.0
3611.6145,176.0
3613.059,147.0
3614.5044,144.0
3615.9502,263.0
3617.3965,291.0
3618.8435,220.0
3620.291,179.0
3621.739,177.0
3623.1877,168.0
3624.637,155.0
3626.087,149.0
3627.5374,193.0
3628.9883,175.0
3630.44,154.0
3631.892,163.0
3633.3447,147.0
3634.798,165.0
3636.252,135.0
3637.7065,156.0
3639.1616,142.0
3640.6172,134.0
3642.0735,150.0
3643.5303,172.0
3644.9878,172.0
3646.4458,157.0
3647.9043,173.0
3649.3635,141.0
3650.8232,147.0
3652.2837,161.0
3653.7446,150.0
3655.206,135.0
3656.6682,163.0
3658.1309,133.0
3659.594,173.0
3661.0579,151.0
3662.5222,136.0
3663.9873,156.0
3665.453,186.0
3666.919,199.0
3668.3857,140.0
3669.853,154.0
3671.321,157.0
3672.7896,175.0
3674.2585,162.0
3675.7283,174.0
3677.1985,181.0
3678.6694,172.0
3680.1409,190.0
3681.613,151.0
3683.0857,137.0
3684.5588,154.0
3686.0327,127.0
3687.507,150.0
3688.9822,146.0
3690.4578,151.0
3691.9338,159.0
3693.4106,158.0
3694.888,161.0
3696.366,158.0
3697.8445,164.0
3699.3237,183.0
3700.8035,187.0
3702.2837,135.0
3703.7646,172.0
3705.246,148.0
3706.7283,170.0
3708.211,199.0
3709.6943,224.0
3711.1782,230.0
3712.6626,166.0
3714.1477,181.0
3715.6333,160.0
3717.1196,165.0
3718.6064,199.0
3720.094,186.0
3721.582,145.0
3723.0706,203.0
3724.5598,160.0
3726.0496,161.0
3727.54,157.0
3729.031,166.0
3730.5227,174.0
3732.015,176.0
3733.5078,215.0
3735.0012,276.0
3736.495,219.0
3737.9897,167.0
3739.4849,183.0
3740.9807,170.0
3742.477,174.0
3743.974,200.0
3745.4717,187.0
3746.97,154.0
3748.4688,180.0
3749.968,371.0
3751.468,655.0
3752.9685,769.0
3754.4697,475.0
3755.9714,350.0
3757.4739,240.0
3758.9768,210.0
3760.4805,190.0
3761.9846,174.0
3763.4895,184.0
3764.9949,185.0
3766.501,237.0
3768.0076,236.0
3769.515,230.0
3771.0227,207.0
3772.531,182.0
3774.04,231.0
3775.5496,224.0
3777.0598,184.0
3778.5706,202.0
3780.082,166.0
3781.594,230.0
3783.1067,310.0
3784.6199,315.0
3786.1338,255.0
3787.6482,228.0
3789.1633,161.0
3790.679,205.0
3792.1953,185.0
3793.7122,176.0
3795.2297,163.0
3796.7478,223.0
3798.2666,186.0
3799.786,211.0
3801.306,189.0
3802.8264,185.0
3804.3477,146.0
3805.8694,197.0
3807.3918,179.0
3808.9148,189.0
3810.4385,190.0
3811.9626,187.0
3813.4875,214.0
3815.013,235.0
3816.539,204.0
3818.0657,227.0
3819.593,182.0
3821.1208,174.0
3822.6494,173.0
3824.1785,171.0
3825.7083,159.0
3827.2385,157.0
3828.7695,199.0
3830.301,189.0
3831.8333,198.0
3833.366,206.0
3834.8994,186.0
3836.4333,162.0
3837.968,174.0
3839.5032,186.0
3841.039,182.0
3842.5754,202.0
3844.1125,152.0
3845.6501,193.0
3847.1885,246.0
3848.7273,263.0
3850.2668,266.0
3851.807,224.0
3853.3477,187.0
3854.889,189.0
3856.431,172.0
3857.9734,193.0
3859.5166,163.0
3861.0603,165.0
3862.6047,185.0
3864.1497,181.0
3865.6953,185.0
3867.2417,227.0
3868.7886,193.0
3870.3362,195.0
3871.8843,181.0
3873.433,177.0
3874.9824,207.0
3876.5325,200.0
3878.083,193.0
3879.6343,214.0
3881.186,203.0
3882.7385,211.0
3884.2915,208.0
3885.8452,209.0
3887.3997,208.0
3888.9546,208.0
3890.5103,192.0
3892.0664,183.0
3893.6233,217.0
3895.1807,204.0
3896.7388,191.0
3898.2974,214.0
3899.8567,234.0
3901.4167,259.0
3902.9773,227.0
3904.5386,181.0
3906.1003,216.0
3907.6628,201.0
3909.2258,201.0
3910.7896,196.0
3912.3538,182.0
3913.9187,212.0
3915.4844,196.0
3917.0505,219.0
3918.6174,176.0
3920.1848,187.0
3921.753,173.0
3923.3215,208.0
3924.8909,191.0
3926.461,161.0
3928.0315,159.0
3929.6028,180.0
3931.1746,184.0
3932.747,193.0
3934.32,190.0
3935.8938,178.0
3937.4683,153.0
3939.0432,147.0
3940.619,179.0
3942.195,192.0
3943.772,197.0
3945.3494,155.0
3946.9275,182.0
3948.5063,179.0
3950.0857,202.0
3951.6658,175.0
3953.2463,174.0
3954.8276,173.0
3956.4097,164.0
3957.9922,184.0
3959.5754,185.0
3961.1592,196.0
3962.7437,173.0
3964.3289,164.0
3965.9146,171.0
3967.501,170.0
3969.088,149.0
3970.6755,152.0
3972.264,164.0
3973.8528,177.0
3975.4424,171.0
3977.0325,188.0
3978.6233,174.0
3980.2148,158.0
3981.807,187.0
3983.3997,155.0
3984.993,194.0
3986.587,197.0
3988.1816,203.0
3989.7769,153.0
3991.3728,185.0
3992.9692,184.0
3994.5664,201.0
3996.1643,182.0
3997.7627,160.0
3999.3618,151.0
4000.9617,179.0
4002.562,180.0
4004.163,204.0
4005.7646,172.0
4007.367,182.0
4008.97,191.0
4010.5735,173.0
4012.1777,174.0
4013.7827,200.0
4015.3882,183.0
4016.9944,193.0
4018.601,197.0
4020.2085,208.0
4021.8167,199.0
4023.4253,200.0
4025.0347,190.0
4026.6448,225.0
4028.2554,222.0
4029.8667,198.0
4031.4788,221.0
4033.0913,204.0
4034.7046,203.0
4036.3184,234.0
4037.9329,256.0
4039.548,249.0
4041.1638,209.0
4042.7803,253.0
4044.3975,243.0
4046.0151,249.0
4047.6335,239.0
4049.2527,266.0
4050.8723,339.0
4052.4927,382.0
4054.1138,320.0
4055.7354,283.0
4057.3577,222.0
4058.9807,405.0
4060.6042,462.0
4062.2285,367.0
4063.8535,348.0
4065.479,327.0
4067.1052,289.0
4068.7322,314.0
4070.3596,405.0
4071.9878,506.0
4073.6167,467.0
4075.246,371.0
4076.8762,402.0
4078.507,356.0
4080.1384,453.0
4081.7705,554.0
4083.4033,515.0
4085.0366,662.0
4086.6707,695.0
4088.3054,527.0
4089.9407,398.0
4091.5767,382.0
4093.2134,858.0
4094.8506,1405.0
4096.489,870.0
4098.1274,388.0
4099.7666,346.0
4101.4067,974.0
4103.0474,2735.0
4104.6885,2092.0
4106.3306,854.0
4107.973,431.0
4109.616,338.0
4111.2603,374.0
4112.905,381.0
4114.55,547.0
4116.196,423.0
4117.8423,329.0
4119.4893,232.0
4121.137,270.0
4122.7856,259.0
4124.4346,241.0
4126.0845,225.0
4127.735,227.0
4129.3857,190.0
4131.0376,188.0
4132.69,222.0
4134.343,188.0
4135.9966,230.0
4137.651,200.0
4139.306,191.0
4140.962,172.0
4142.618,189.0
4144.2754,211.0
4145.933,205.0
4147.5913,221.0
4149.2505,184.0
4150.91,195.0
4152.5703,210.0
4154.2314,230.0
4155.893,218.0
4157.5557,176.0
4159.2188,205.0
4160.8823,198.0
4162.547,178.0
4164.212,193.0
4165.8774,231.0
4167.544,241.0
4169.211,206.0
4170.8784,219.0
4172.547,217.0
4174.216,260.0
4175.8857,253.0
4177.556,259.0
4179.227,221.0
4180.899,213.0
4182.5713,211.0
4184.244,216.0
4185.918,208.0
4187.5923,222.0
4189.267,233.0
4190.943,218.0
4192.619,189.0
4194.2964,214.0
4195.974,272.0
4197.6523,267.0
4199.3315,240.0
4201.011,200.0
4202.6914,192.0
4204.3726,203.0
4206.054,231.0
4207.737,217.0
4209.42,194.0
4211.1035,197.0
4212.788,200.0
4214.473,174.0
4216.1587,237.0
4217.845,225.0
4219.532,205.0
4221.22,210.0
4222.9087,193.0
4224.5977,221.0
4226.2876,202.0
4227.978,207.0
4229.6694,225.0
4231.3613,216.0
4233.0537,211.0
4234.747,232.0
4236.441,220.0
4238.1353,202.0
4239.8306,230.0
4241.5264,202.0
4243.223,225.0
4244.9204,221.0
4246.618,223.0
4248.317,226.0
4250.016,245.0
4251.7163,243.0
4253.417,242.0
4255.118,235.0
4256.8203,240.0
4258.523,198.0
4260.2266,251.0
4261.9307,249.0
4263.6353,262.0
4265.341,280.0
4267.047,273.0
4268.754,315.0
4270.4614,321.0
4272.1694,241.0
4273.8784,248.0
4275.588,307.0
4277.2983,424.0
4279.0093,376.0
4280.7207,276.0
4282.433,245.0
4284.146,402.0
4285.86,634.0
4287.574,548.0
4289.289,302.0
4291.005,264.0
4292.721,237.0
4294.4385,216.0
4296.1562,255.0
4297.8745,328.0
4299.5938,288.0
4301.3135,249.0
4303.034,255.0
4304.7554,207.0
4306.477,215.0
4308.1997,206.0
4309.923,194.0
4311.647,202.0
4313.3716,220.0
4315.097,220.0
4316.823,185.0
4318.55,183.0
4320.2773,201.0
4322.0054,189.0
4323.7344,220.0
4325.464,178.0
4327.194,205.0
4328.925,195.0
4330.6562,211.0
4332.3887,205.0
4334.1216,183.0
4335.8555,193.0
4337.59,203.0
4339.3247,219.0
4341.0605,225.0
4342.797,183.0
4344.534,198.0
4346.272,183.0
4348.0103,202.0
4349.7495,174.0
4351.4893,185.0
4353.23,194.0
4354.971,215.0
4356.7134,231.0
4358.456,222.0
4360.199,193.0
4361.9434,224.0
4363.688,196.0
4365.4336,196.0
4367.1797,215.0
4368.927,189.0
4370.6743,213.0
4372.4224,220.0
4374.1714,199.0
4375.921,211.0
4377.6714,203.0
4379.4224,232.0
4381.1743,212.0
4382.927,195.0
4384.6797,224.0
4386.4336,238.0
4388.188,248.0
4389.9434,211.0
4391.699,210.0
4393.456,233.0
4395.2134,209.0
4396.9717,237.0
4398.7305,219.0
4400.4897,255.0
4402.25,253.0
4404.0107,226.0
4405.7725,242.0
4407.5347,296.0
4409.298,290.0
4411.0615,254.0
4412.826,217.0
4414.5913,205.0
4416.357,301.0
4418.1235,384.0
4419.8906,273.0
4421.6587,273.0
4423.4272,272.0
4425.197,205.0
4426.967,219.0
4428.738,293.0
4430.5093,320.0
4432.2812,265.0
4434.054,232.0
4435.8276,241.0
4437.602,334.0
4439.377,382.0
4441.153,298.0
4442.929,246.0
4444.7065,256.0
4446.4844,240.0
4448.263,280.0
4450.0425,277.0
4451.8223,286.0
4453.603,260.0
4455.3843,274.0
4457.1665,254.0
4458.949,282.0
4460.733,302.0
4462.517,276.0
4464.3022,259.0
4466.088,302.0
4467.8745,328.0
4469.6616,345.0
4471.4497,270.0
4473.2383,307.0
4475.0273,289.0
4476.8174,275.0
4478.608,277.0
4480.3994,280.0
4482.1914,314.0
4483.9844,293.0
4485.778,244.0
4487.5723,270.0
4489.367,283.0
4491.163,272.0
4492.9595,274.0
4494.757,279.0
4496.5547,273.0
4498.3535,314.0
4500.153,341.0
4501.953,278.0
4503.754,295.0
4505.555,306.0
4507.3574,278.0
4509.16,278.0
4510.964,273.0
4512.768,267.0
4514.573,338.0
4516.379,306.0
4518.1855,248.0
4519.9927,251.0
4521.801,307.0
4523.6094,302.0
4525.419,261.0
4527.229,250.0
4529.04,284.0
4530.8516,378.0
4532.664,381.0
4534.477,265.0
4536.291,247.0
4538.1055,273.0
4539.921,293.0
4541.737,256.0
4543.5537,253.0
4545.371,240.0
4547.1895,273.0
4549.0083,265.0
4550.828,233.0
4552.6484,239.0
4554.4697,204.0
4556.2915,204.0
4558.1143,246.0
4559.9375,246.0
4561.7617,233.0
4563.5864,261.0
4565.4116,219.0
4567.238,238.0
4569.0645,232.0
4570.892,256.0
4572.72,230.0
4574.5493,205.0
4576.379,224.0
4578.2095,199.0
4580.0405,206.0
4581.8726,217.0
4583.705,224.0
4585.5386,210.0
4587.3726,226.0
4589.2075,194.0
4591.043,252.0
4592.8794,280.0
4594.7163,258.0
4596.554,219.0
4598.3926,250.0
4600.232,241.0
4602.0723,234.0
4603.913,228.0
4605.755,217.0
4607.597,227.0
4609.4404,200.0
4611.284,210.0
4613.129,232.0
4614.974,238.0
4616.8203,252.0
4618.667,223.0
4620.5146,238.0
4622.363,245.0
4624.212,230.0
4626.0615,196.0
4627.912,225.0
4629.763,211.0
4631.615,230.0
4633.468,223.0
4635.3213,228.0
4637.1753,217.0
4639.0303,204.0
4640.8857,214.0
4642.742,216.0
4644.599,237.0
4646.457,190.0
4648.3154,194.0
4650.175,211.0
4652.0347,201.0
4653.8955,205.0
4655.757,196.0
4657.619,220.0
4659.4824,221.0
4661.346,220.0
4663.211,241.0
4665.076,236.0
4666.9424,194.0
4668.809,197.0
4670.677,210.0
4672.545,226.0
4674.414,216.0
4676.2837,223.0
4678.1543,240.0
4680.0254,238.0
4681.8975,223.0
4683.77,199.0
4685.6436,243.0
4687.5176,217.0
4689.3926,234.0
4691.2686,211.0
4693.145,239.0
4695.0225,231.0
4696.9004,238.0
4698.7793,222.0
4700.6587,228.0
4702.539,234.0
4704.42,231.0
4706.302,227.0
4708.184,218.0
4710.0674,225.0
4711.951,229.0
4713.836,222.0
4715.7217,220.0
4717.608,193.0
4719.495,212.0
4721.383,236.0
4723.2715,194.0
4725.1606,216.0
4727.051,229.0
4728.9414,209.0
4730.833,251.0
4732.725,197.0
4734.618,235.0
4736.512,231.0
4738.4067,207.0
4740.3022,215.0
4742.198,214.0
4744.095,215.0
4745.9927,239.0
4747.891,203.0
4749.79,216.0
4751.69,235.0
4753.591,193.0
4755.492,205.0
4757.3945,171.0
4759.2974,209.0
4761.201,210.0
4763.1055,216.0
4765.0107,210.0
4766.9165,195.0
4768.823,207.0
4770.731,199.0
4772.639,178.0
4774.5483,180.0
4776.458,177.0
4778.3687,206.0
4780.28,182.0
4782.192,207.0
4784.105,215.0
4786.0186,186.0
4787.933,197.0
4789.848,197.0
4791.764,172.0
4793.6807,189.0
4795.598,206.0
4797.5166,196.0
4799.4355,193.0
4801.3555,165.0
4803.276,167.0
4805.1973,198.0
4807.119,195.0
4809.042,183.0
4810.966,163.0
4812.89,201.0
4814.8154,168.0
4816.741,179.0
4818.668,177.0
4820.595,186.0
4822.5234,175.0
4824.4526,187.0
4826.3823,177.0
4828.313,200.0
4830.244,181.0
4832.1763,201.0
4834.1094,196.0
4836.043,174.0
4837.9775,193.0
4839.9126,177.0
4841.8486,208.0
4843.785,170.0
4845.7227,182.0
4847.661,176.0
4849.6,167.0
4851.54,163.0
4853.4805,168.0
4855.422,167.0
4857.3643,197.0
4859.307,169.0
4861.251,182.0
4863.1953,178.0
4865.1406,189.0
4867.087,190.0
4869.0337,199.0
4870.9814,202.0
4872.9297,188.0
4874.879,174.0
4876.829,209.0
4878.78,177.0
4880.7314,188.0
4882.6836,171.0
4884.6367,186.0
4886.5903,183.0
4888.545,179.0
4890.5005,161.0
4892.4565,168.0
4894.4136,169.0
4896.3716,162.0
4898.33,172.0
4900.2896,192.0
4902.2495,210.0
4904.2104,168.0
4906.1724,195.0
4908.135,177.0
4910.098,175.0
4912.062,164.0
4914.027,194.0
4915.9927,185.0
4917.959,194.0
4919.9263,200.0
4921.894,197.0
4923.863,191.0
4925.8325,187.0
4927.8027,191.0
4929.774,196.0
4931.7456,170.0
4933.7183,191.0
4935.692,174.0
4937.666,181.0
4939.641,181.0
4941.617,193.0
4943.5938,184.0
4945.5713,200.0
4947.5493,189.0
4949.5283,183.0
4951.5083,194.0
4953.489,202.0
4955.47,169.0
4957.4526,196.0
4959.4355,165.0
4961.4194,183.0
4963.404,193.0
4965.389,205.0
4967.3755,195.0
4969.3623,188.0
4971.35,199.0
4973.339,210.0
4975.328,215.0
4977.3184,239.0
4979.309,196.0
4981.301,179.0
4983.2935,213.0
4985.2866,225.0
4987.281,193.0
4989.276,227.0
4991.2715,219.0
4993.268,203.0
4995.265,201.0
4997.263,196.0
4999.262,202.0
5001.2617,214.0
5003.262,209.0
5005.2637,219.0
5007.2656,235.0
5009.2686,213.0
5011.2725,216.0
5013.277,181.0
5015.282,199.0
5017.2886,202.0
5019.2954,222.0
5021.303,203.0
5023.3115,227.0
5025.321,221.0
5027.331,206.0
5029.342,192.0
5031.3535,207.0
5033.366,196.0
5035.3794,209.0
5037.3936,214.0
5039.4087,218.0
5041.4243,236.0
5043.441,202.0
5045.4585,222.0
5047.4766,170.0
5049.4956,231.0
5051.5156,230.0
5053.536,204.0
5055.5576,211.0
5057.58,231.0
5059.603,228.0
5061.627,199.0
5063.6514,206.0
5065.677,191.0
5067.703,238.0
5069.73,204.0
5071.758,179.0
5073.7866,225.0
5075.816,219.0
5077.846,179.0
5079.8774,185.0
5081.909,202.0
5083.942,215.0
5085.9756,202.0
5088.01,213.0
5090.045,235.0
5092.081,210.0
5094.1177,215.0
5096.1553,224.0
5098.194,209.0
5100.233,222.0
5102.273,237.0
5104.314,199.0
5106.3555,230.0
5108.398,243.0
5110.4414,202.0
5112.4854,186.0
5114.5303,199.0
5116.576,210.0
5118.6226,230.0
5120.67,209.0
5122.7183,198.0
5124.7676,209.0
5126.8174,237.0
5128.868,229.0
5130.92,252.0
5132.972,242.0
5135.0254,233.0
5137.0796,188.0
5139.1343,258.0
5141.19,253.0
5143.2466,188.0
5145.3037,271.0
5147.362,236.0
5149.421,241.0
5151.4805,231.0
5153.541,166.0
5155.6025,217.0
5157.6646,204.0
5159.7275,206.0
5161.7915,220.0
5163.8564,193.0
5165.922,207.0
5167.9883,241.0
5170.0557,244.0
5172.1235,177.0
5174.1924,217.0
5176.262,205.0
5178.3325,220.0
5180.404,216.0
5182.476,217.0
5184.549,176.0
5186.6226,228.0
5188.6973,209.0
5190.773,219.0
5192.849,210.0
5194.9263,198.0
5197.0044,198.0
5199.083,226.0
5201.1626,224.0
5203.243,244.0
5205.324,247.0
5207.4062,199.0
5209.4893,219.0
5211.573,211.0
5213.6577,212.0
5215.743,222.0
5217.8296,227.0
5219.9165,251.0
5222.0044,257.0
5224.0933,271.0
5226.183,237.0
5228.2734,207.0
5230.3647,243.0
5232.457,208.0
5234.55,225.0
5236.6436,227.0
5238.7383,232.0
5240.834,227.0
5242.93,236.0
5245.0273,223.0
5247.1255,207.0
5249.224,261.0
5251.3237,260.0
5253.4243,235.0
5255.526,242.0
5257.628,270.0
5259.731,227.0
5261.835,234.0
5263.9395,239.0
5266.045,230.0
5268.1514,235.0
5270.259,221.0
5272.3667,220.0
5274.4756,256.0
5276.5854,237.0
5278.6963,235.0
5280.8076,258.0
5282.92,239.0
5285.033,280.0
5287.147,224.0
5289.2617,218.0
5291.3774,216.0
5293.494,200.0
5295.6113,212.0
5297.7295,216.0
5299.8486,235.0
5301.9688,272.0
5304.0894,260.0
5306.211,226.0
5308.3335,224.0
5310.457,239.0
5312.581,214.0
5314.706,218.0
5316.832,281.0
5318.959,299.0
5321.0864,268.0
5323.215,244.0
5325.344,225.0
5327.4746,203.0
5329.6055,225.0
5331.7373,235.0
5333.87,192.0
5336.004,234.0
5338.138,251.0
5340.2734,214.0
5342.4097,247.0
5344.547,235.0
5346.6846,259.0
5348.823,233.0
5350.963,238.0
5353.1035,243.0
5355.2446,230.0
5357.3867,260.0
5359.53,258.0
5361.674,222.0
5363.8184,249.0
5365.964,246.0
5368.1104,238.0
5370.258,242.0
5372.406,244.0
5374.5547,273.0
5376.7046,258.0
5378.8555,259.0
5381.007,247.0
5383.159,245.0
5385.3125,238.0
5387.467,268.0
5389.6216,248.0
5391.7773,246.0
5393.934,226.0
5396.092,272.0
5398.25,241.0
5400.409,271.0
5402.5693,222.0
5404.7305,244.0
5406.8926,301.0
5409.055,266.0
5411.2188,260.0
5413.3833,261.0
5415.549,267.0
5417.715,247.0
5419.882,256.0
5422.05,272.0
5424.2188,242.0
5426.3887,277.0
5428.559,246.0
5430.7305,246.0
5432.903,250.0
5435.076,248.0
5437.25,269.0
5439.425,209.0
5441.6006,281.0
5443.7773,264.0
5445.955,227.0
5448.1333,228.0
5450.3125,262.0
5452.4927,242.0
5454.674,251.0
5456.8555,238.0
5459.038,252.0
5461.2217,262.0
5463.4062,242.0
5465.592,227.0
5467.778,261.0
5469.965,251.0
5472.153,260.0
5474.342,288.0
5476.5317,263.0
5478.722,267.0
5480.9136,240.0
5483.106,248.0
5485.2993,228.0
5487.4937,245.0
5489.6885,287.0
5491.8843,249.0
5494.081,261.0
5496.279,245.0
5498.4775,237.0
5500.677,251.0
5502.877,272.0
5505.078,269.0
5507.2803,271.0
5509.4834,283.0
5511.687,301.0
5513.8916,234.0
5516.097,301.0
5518.3037,266.0
5520.511,279.0
5522.719,286.0
5524.928,263.0
5527.138,284.0
5529.349,267.0
5531.561,244.0
5533.7734,253.0
5535.987,289.0
5538.201,288.0
5540.4165,252.0
5542.633,280.0
5544.85,254.0
5547.068,311.0
5549.2866,264.0
5551.5063,269.0
5553.727,271.0
5555.9487,302.0
5558.171,289.0
5560.394,286.0
5562.618,269.0
5564.8433,286.0
5567.0693,270.0
5569.2964,253.0
5571.524,251.0
5573.7524,240.0
5575.982,249.0
5578.2124,227.0
5580.444,291.0
5582.676,287.0
5584.9087,260.0
5587.1426,263.0
5589.3774,239.0
5591.6133,251.0
5593.85,229.0
5596.0874,275.0
5598.3257,266.0
5600.565,286.0
5602.805,268.0
5605.0464,250.0
5607.2886,252.0
5609.5312,250.0
5611.775,279.0
5614.0195,285.0
5616.265,279.0
5618.5117,227.0
5620.7593,248.0
5623.008,249.0
5625.257,244.0
5627.507,211.0
5629.758,273.0
5632.01,278.0
5634.2627,262.0
5636.5166,243.0
5638.771,251.0
5641.0264,269.0
5643.2827,257.0
5645.54,279.0
5647.7983,272.0
5650.0576,238.0
5652.318,251.0
5654.5786,250.0
5656.8403,260.0
5659.103,294.0
5661.3667,257.0
5663.6313,246.0
5665.897,273.0
5668.1636,235.0
5670.4307,236.0
5672.6987,284.0
5674.968,286.0
5677.238,294.0
5679.509,251.0
5681.781,264.0
5684.0537,298.0
5686.327,256.0
5688.6016,261.0
5690.877,258.0
5693.1533,251.0
5695.4307,281.0
5697.709,265.0
5699.9883,265.0
5702.268,300.0
5704.549,290.0
5706.8306,298.0
5709.1133,279.0
5711.397,289.0
5713.6816,266.0
5715.9673,251.0
5718.254,291.0
5720.541,284.0
5722.829,334.0
5725.118,300.0
5727.408,278.0
5729.699,284.0
5731.991,307.0
5734.284,291.0
5736.578,312.0
5738.8726,337.0
5741.168,323.0
5743.4644,294.0
5745.7617,274.0
5748.06,308.0
5750.3594,294.0
5752.6597,323.0
5754.961,331.0
5757.2627,346.0
5759.5654,318.0
5761.869,327.0
5764.174,278.0
5766.4795,306.0
5768.786,283.0
5771.0938,393.0
5773.4023,352.0
5775.712,340.0
5778.022,312.0
5780.333,321.0
5782.645,337.0
5784.958,354.0
5787.272,323.0
5789.587,339.0
5791.903,361.0
5794.2197,354.0
5796.5376,359.0
5798.8564,393.0
5801.176,340.0
5803.496,411.0
5805.8174,404.0
5808.1396,343.0
5810.463,360.0
5812.787,395.0
5815.1123,416.0
5817.4385,405.0
5819.7656,434.0
5822.0938,387.0
5824.4224,402.0
5826.752,398.0
5829.0825,440.0
5831.414,457.0
5833.7466,417.0
5836.08,386.0
5838.4146,467.0
5840.75,478.0
5843.0864,406.0
5845.424,446.0
5847.762,438.0
5850.101,389.0
5852.441,371.0
5854.7817,377.0
5857.1235,390.0
5859.4663,372.0
5861.81,348.0
5864.155,372.0
5866.5005,321.0
5868.847,369.0
5871.195,361.0
5873.5435,374.0
5875.893,395.0
5878.2437,345.0
5880.5947,354.0
5882.947,356.0
5885.3,362.0
5887.654,358.0
5890.009,394.0
5892.3647,385.0
5894.7217,393.0
5897.0796,401.0
5899.4385,350.0
5901.7983,364.0
5904.159,417.0
5906.521,373.0
5908.884,381.0
5911.2476,399.0
5913.612,376.0
5915.977,382.0
5918.3433,402.0
5920.7104,405.0
5923.0786,355.0
5925.4478,380.0
5927.818,371.0
5930.189,422.0
5932.561,394.0
5934.934,370.0
5937.308,389.0
5939.683,376.0
5942.059,397.0
5944.436,434.0
5946.814,384.0
5949.193,426.0
5951.5728,410.0
5953.9536,380.0
5956.335,433.0
5958.7173,416.0
5961.1006,440.0
5963.485,410.0
5965.87,372.0
5968.2563,407.0
5970.6436,460.0
5973.0317,418.0
5975.421,426.0
5977.811,469.0
5980.202,420.0
5982.594,393.0
5984.9873,406.0
5987.3813,405.0
5989.7764,408.0
5992.1724,418.0
5994.5693,499.0
5996.9673,460.0
5999.366,440.0
6001.766,540.0
6004.167,464.0
6006.569,437.0
6008.9717,462.0
6011.3755,483.0
6013.7803,460.0
6016.1855,426.0
6018.592,464.0
6020.999,458.0
6023.407,371.0
6025.8164,381.0
6028.2266,418.0
6030.6377,385.0
6033.05,419.0
6035.463,448.0
6037.877,486.0
6040.292,410.0
6042.708,386.0
6045.125,400.0
6047.543,436.0
6049.962,401.0
6052.382,366.0
6054.8027,401.0
6057.2246,332.0
6059.6475,403.0
6062.0713,475.0
6064.496,514.0
6066.922,384.0
6069.3486,391.0
6071.7764,387.0
6074.205,435.0
6076.635,351.0
6079.0654,392.0
6081.497,401.0
6083.9297,426.0
6086.3633,415.0
6088.798,427.0
6091.2334,416.0
6093.67,381.0
6096.1074,374.0
6098.546,388.0
6100.9854,439.0
6103.426,402.0
6105.867,395.0
6108.3096,400.0
6110.753,396.0
6113.1973,441.0
6115.6426,431.0
6118.089,445.0
6120.536,404.0
6122.9844,437.0
6125.4336,418.0
6127.884,432.0
6130.335,499.0
6132.787,607.0
6135.24,461.0
6137.6943,472.0
6140.1494,465.0
6142.6055,442.0
6145.0625,470.0
6147.5205,557.0
6149.9795,612.0
6152.4395,505.0
6154.9004,530.0
6157.3623,542.0
6159.825,616.0
6162.289,497.0
6164.754,478.0
6167.2197,441.0
6169.6865,485.0
6172.1543,561.0
6174.623,724.0
6177.093,772.0
6179.5635,614.0
6182.035,514.0
6184.508,509.0
6186.9814,590.0
6189.456,583.0
6191.9316,841.0
6194.408,897.0
6196.8857,713.0
6199.3643,667.0
6201.844,573.0
6204.325,565.0
6206.807,534.0
6209.29,508.0
6211.774,547.0
6214.259,632.0
6216.7446,649.0
6219.2314,615.0
6221.719,519.0
6224.208,487.0
6226.6978,499.0
6229.1885,589.0
6231.68,681.0
6234.173,705.0
6236.6665,608.0
6239.161,543.0
6241.6567,530.0
6244.1533,551.0
6246.651,608.0
6249.1494,700.0
6251.649,685.0
6254.1494,623.0
6256.651,698.0
6259.1533,703.0
6261.6567,566.0
6264.1616,538.0
6266.6675,492.0
6269.1743,441.0
6271.682,812.0
6274.191,1043.0
6276.7007,808.0
6279.2114,570.0
6281.723,507.0
6284.236,483.0
6286.7495,477.0
6289.264,1047.0
6291.78,1470.0
6294.2964,1081.0
6296.814,670.0
6299.3325,551.0
6301.852,484.0
6304.3726,464.0
6306.8945,502.0
6309.4175,481.0
6311.9414,531.0
6314.4663,471.0
6316.992,508.0
6319.519,452.0
6322.047,432.0
6324.5757,438.0
6327.1055,435.0
6329.636,421.0
6332.168,413.0
6334.7007,424.0
6337.2344,433.0
6339.769,412.0
6342.305,411.0
6344.8423,447.0
6347.3804,439.0
6349.9194,397.0
6352.4595,434.0
6355.0005,447.0
6357.5425,409.0
6360.0854,424.0
6362.6294,429.0
6365.1743,411.0
6367.72,437.0
6370.267,481.0
6372.8154,439.0
6375.3647,452.0
6377.915,404.0
6380.4663,440.0
6383.0186,450.0
6385.572,450.0
6388.126,461.0
6390.681,443.0
6393.2373,437.0
6395.7944,405.0
6398.3525,432.0
6400.912,452.0
6403.4727,514.0
6406.034,526.0
6408.5967,439.0
6411.16,445.0
6413.7246,447.0
6416.29,407.0
6418.8564,457.0
6421.424,459.0
6423.992,418.0
6426.562,464.0
6429.133,478.0
6431.7046,456.0
6434.2773,428.0
6436.851,402.0
6439.426,486.0
6442.0015,432.0
6444.578,457.0
6447.156,478.0
6449.735,510.0
6452.315,423.0
6454.896,450.0
6457.478,446.0
6460.061,426.0
6462.645,427.0
6465.23,447.0
6467.816,416.0
6470.403,438.0
6472.991,415.0
6475.5806,411.0
6478.171,432.0
6480.762,469.0
6483.3545,429.0
6485.9478,447.0
6488.542,459.0
6491.137,468.0
6493.734,432.0
6496.3315,443.0
6498.93,478.0
6501.53,437.0
6504.1304,466.0
6506.732,469.0
6509.3345,449.0
6511.938,503.0
6514.543,497.0
6517.149,456.0
6519.756,435.0
6522.364,467.0
6524.9727,480.0
6527.5825,544.0
6530.1934,520.0
6532.8057,521.0
6535.419,480.0
6538.033,524.0
6540.6484,607.0
6543.2646,597.0
6545.882,495.0
6548.5,538.0
6551.1196,520.0
6553.74,472.0
6556.362,572.0
6558.9844,599.0
6561.608,567.0
6564.2324,499.0
6566.858,520.0
6569.485,513.0
6572.113,525.0
6574.7417,565.0
6577.3716,573.0
6580.0024,557.0
6582.6343,513.0
6585.267,526.0
6587.9014,578.0
6590.5366,542.0
6593.173,631.0
6595.81,584.0
6598.448,524.0
6601.0874,521.0
6603.728,535.0
6606.3696,548.0
6609.012,538.0
6611.656,546.0
6614.3003,499.0
6616.946,489.0
6619.593,549.0
6622.2407,558.0
6624.8896,538.0
6627.5396,508.0
6630.1904,524.0
6632.8423,539.0
6635.4956,534.0
6638.15,612.0
6640.805,653.0
6643.4614,580.0
6646.1187,527.0
6648.7773,540.0
6651.437,503.0
6654.0977,597.0
6656.7593,638.0
6659.422,594.0
6662.0854,541.0
6664.7505,534.0
6667.4165,471.0
6670.0835,470.0
6672.7515,503.0
6675.4204,480.0
6678.091,502.0
6680.762,496.0
6683.4346,551.0
6686.108,488.0
6688.782,481.0
6691.4575,457.0
6694.1343,522.0
6696.812,548.0
6699.4907,577.0
6702.1704,508.0
6704.851,482.0
6707.533,509.0
6710.2163,481.0
6712.9004,554.0
6715.5854,524.0
6718.2715,541.0
6720.959,534.0
6723.6475,523.0
6726.337,583.0
6729.0273,531.0
6731.7188,511.0
6734.4116,516.0
6737.1055,566.0
6739.8003,617.0
6742.496,643.0
6745.193,581.0
6747.891,565.0
6750.5903,570.0
6753.2905,515.0
6755.9917,603.0
6758.6943,727.0
6761.398,659.0
6764.1025,651.0
6766.808,570.0
6769.5146,575.0
6772.2227,529.0
6774.9316,589.0
6777.6416,605.0
6780.3525,651.0
6783.0645,642.0
6785.778,622.0
6788.492,634.0
6791.2075,653.0
6793.924,637.0
6796.6416,587.0
6799.3604,584.0
6802.08,633.0
6804.801,597.0
6807.5225,671.0
6810.2456,730.0
6812.9697,630.0
6815.695,562.0
6818.421,497.0
6821.1484,564.0
6823.877,669.0
6826.6064,831.0
6829.337,633.0
6832.069,516.0
6834.802,455.0
6837.5356,493.0
6840.2705,677.0
6843.007,848.0
6845.744,769.0
6848.4824,605.0
6851.2217,513.0
6853.9624,527.0
6856.704,585.0
6859.447,615.0
6862.1904,615.0
6864.9355,518.0
6867.6816,566.0
6870.4287,540.0
6873.177,502.0
6875.9263,527.0
6878.677,522.0
6881.428,490.0
6884.1807,501.0
6886.9346,524.0
6889.6895,530.0
6892.4453,485.0
6895.202,565.0
6897.9604,496.0
6900.7197,529.0
6903.48,570.0
6906.241,534.0
6909.004,511.0
6911.7676,585.0
6914.532,578.0
6917.298,547.0
6920.065,578.0
6922.833,563.0
6925.602,540.0
6928.372,545.0
6931.1436,523.0
6933.916,478.0
6936.6895,508.0
6939.4644,519.0
6942.24,571.0
6945.017,587.0
6947.795,610.0
6950.574,554.0
6953.3545,554.0
6956.1357,574.0
6958.918,618.0
6961.7017,539.0
6964.4863,567.0
6967.272,514.0
6970.059,506.0
6972.847,541.0
6975.636,596.0
6978.4263,575.0
6981.218,589.0
6984.0103,604.0
6986.8037,585.0
6989.5986,579.0
6992.3945,612.0
6995.1914,576.0
6997.9893,710.0
7000.7886,732.0
7003.589,717.0
7006.39,625.0
7009.193,665.0
7011.9966,598.0
7014.8013,652.0
7017.6074,747.0
7020.4146,719.0
7023.2227,746.0
7026.0317,803.0
7028.8423,777.0
7031.654,594.0
7034.4663,575.0
7037.2803,594.0
7040.095,736.0
7042.911,992.0
7045.7285,906.0
7048.547,708.0
7051.366,614.0
7054.1865,606.0
7057.0083,820.0
7059.831,1391.0
7062.655,1289.0
7065.48,877.0
7068.306,684.0
7071.1333,581.0
7073.962,593.0
7076.7915,633.0
7079.622,590.0
7082.454,623.0
7085.287,648.0
7088.121,588.0
7090.9565,601.0
7093.793,642.0
7096.6304,699.0
7099.469,672.0
7102.309,578.0
7105.15,618.0
7107.992,722.0
7110.8354,710.0
7113.6797,741.0
7116.5254,746.0
7119.372,703.0
7122.2197,822.0
7125.069,815.0
7127.919,808.0
7130.77,820.0
7133.6226,746.0
7136.476,701.0
7139.3306,902.0
7142.1865,991.0
7145.0435,850.0
7147.9014,817.0
7150.7607,816.0
7153.621,880.0
7156.4824,1142.0
7159.345,1209.0
7162.209,932.0
7165.0737,891.0
7167.94,927.0
7170.807,970.0
7173.6753,1016.0
7176.545,956.0
7179.4155,941.0
7182.287,937.0
7185.16,814.0
7188.034,1002.0
7190.909,1013.0
7193.7856,859.0
7196.663,1206.0
7199.542,1217.0
7202.422,938.0
7205.3027,746.0
7208.185,645.0
7211.0684,845.0
7213.9526,1528.0
7216.8384,1471.0
7219.725,957.0
7222.613,722.0
7225.502,626.0
7228.392,929.0
7231.283,2095.0
7234.176,2159.0
7237.0693,1278.0
7239.9644,777.0
7242.8604,699.0
7245.7573,643.0
7248.656,646.0
7251.555,691.0
7254.4556,699.0
7257.3574,648.0
7260.2603,669.0
7263.1646,536.0
7266.07,555.0
7268.976,674.0
7271.884,557.0
7274.7925,568.0
7277.7026,556.0
7280.614,585.0
7283.526,599.0
7286.4395,668.0
7289.354,620.0
7292.2695,598.0
7295.1865,660.0
7298.1045,663.0
7301.024,659.0
7303.9443,584.0
7306.8657,522.0
7309.7886,592.0
7312.7124,843.0
7315.6377,734.0
7318.564,629.0
7321.491,509.0
7324.42,472.0
7327.3496,691.0
7330.281,944.0
7333.213,847.0
7336.146,627.0
7339.0806,585.0
7342.016,528.0
7344.953,546.0
7347.891,715.0
7350.83,617.0
7353.7705,645.0
7356.712,592.0
7359.655,565.0
7362.5986,522.0
7365.5435,499.0
7368.4897,513.0
7371.437,529.0
7374.3857,596.0
7377.3354,578.0
7380.2866,550.0
7383.239,533.0
7386.192,538.0
7389.1465,505.0
7392.102,510.0
7395.059,490.0
7398.017,564.0
7400.976,609.0
7403.9365,614.0
7406.898,478.0
7409.861,482.0
7412.8247,517.0
7415.79,536.0
7418.7563,645.0
7421.7236,568.0
7424.6924,540.0
7427.662,486.0
7430.6333,512.0
7433.6055,627.0
7436.579,661.0
7439.5537,551.0
7442.5293,574.0
7445.5063,473.0
7448.4844,447.0
7451.464,460.0
7454.4443,467.0
7457.4263,466.0
7460.409,436.0
7463.3936,396.0
7466.379,451.0
7469.365,473.0
7472.353,466.0
7475.342,407.0
7478.332,381.0
7481.323,448.0
7484.316,531.0
7487.3096,620.0
7490.3047,489.0
7493.301,433.0
7496.2983,421.0
7499.297,442.0
7502.2964,452.0
7505.2974,460.0
7508.2993,415.0
7511.3027,437.0
7514.307,455.0
7517.313,402.0
7520.32,405.0
7523.328,444.0
7526.3374,414.0
7529.348,486.0
7532.36,403.0
7535.373,421.0
7538.387,410.0
7541.4023,398.0
7544.419,451.0
7547.4365,515.0
7550.4556,495.0
7553.4756,405.0
7556.497,402.0
7559.5195,403.0
7562.5435,537.0
7565.5684,524.0
7568.5947,450.0
7571.622,392.0
7574.651,423.0
7577.6807,432.0
7580.712,405.0
7583.744,401.0
7586.778,421.0
7589.8125,410.0
7592.8486,371.0
7595.8857,398.0
7598.9243,471.0
7601.964,433.0
7605.005,411.0
7608.047,398.0
7611.0903,363.0
7614.135,473.0
7617.18,472.0
7620.227,453.0
7623.275,392.0
7626.324,402.0
7629.3745,359.0
7632.4263,413.0
7635.479,397.0
7638.533,410.0
7641.5884,376.0
7644.645,376.0
7647.7026,381.0
7650.7617,357.0
7653.8223,384.0
7656.884,405.0
7659.947,429.0
7663.0107,403.0
7666.076,412.0
7669.1426,427.0
7672.2104,410.0
7675.2793,446.0
7678.3496,374.0
7681.421,378.0
7684.4937,442.0
7687.5674,457.0
7690.6426,482.0
7693.7188,459.0
7696.7964,456.0
7699.875,426.0
7702.955,448.0
7706.036,478.0
7709.1187,432.0
7712.202,486.0
7715.287,428.0
7718.373,494.0
7721.4604,502.0
7724.549,444.0
7727.6387,545.0
7730.7295,540.0
7733.822,504.0
7736.9155,510.0
7740.0103,522.0
7743.1064,566.0
7746.2036,600.0
7749.3022,578.0
7752.402,536.0
7755.503,553.0
7758.605,589.0
7761.7085,573.0
7764.813,560.0
7767.919,587.0
7771.026,672.0
7774.1343,626.0
7777.244,557.0
7780.355,528.0
7783.4673,578.0
7786.5806,635.0
7789.6953,745.0
7792.811,684.0
7795.928,599.0
7799.0464,638.0
7802.166,589.0
7805.287,585.0
7808.409,658.0
7811.5327,777.0
7814.657,686.0
7817.783,599.0
7820.91,553.0
7824.0386,608.0
7827.168,806.0
7830.299,838.0
7833.431,709.0
7836.5645,587.0
7839.699,583.0
7842.835,677.0
7845.972,779.0
7849.1104,807.0
7852.25,681.0
7855.391,659.0
7858.533,659.0
7861.677,646.0
7864.8213,654.0
7867.9673,648.0
7871.1143,661.0
7874.2627,687.0
7877.4126,626.0
7880.5635,716.0
7883.716,775.0
7886.869,665.0
7890.024,622.0
7893.18,617.0
7896.3374,666.0
7899.496,836.0
7902.656,822.0
7905.817,696.0
7908.979,664.0
7912.1426,705.0
7915.3076,880.0
7918.4736,1082.0
7921.641,887.0
7924.8096,793.0
7927.9795,745.0
7931.151,693.0
7934.323,740.0
7937.497,806.0
7940.672,793.0
7943.848,815.0
7947.026,854.0
7950.2046,798.0
7953.385,837.0
7956.566,878.0
7959.7485,855.0
7962.9326,881.0
7966.1177,894.0
7969.304,1041.0
7972.4917,1092.0
7975.6807,1000.0
7978.871,974.0
7982.0625,1101.0
7985.2554,1216.0
7988.4497,1202.0
7991.645,1150.0
7994.842,1088.0
7998.0396,1127.0
8001.239,1164.0
8004.4395,1415.0
8007.641,1449.0
8010.844,1282.0
8014.0483,1290.0
8017.254,1382.0
8020.461,1370.0
8023.669,1404.0
8026.8784,1365.0
8030.0894,1448.0
8033.3013,1461.0
8036.5146,1624.0
8039.7295,1872.0
8042.9453,1738.0
8046.1626,1674.0
8049.381,1636.0
8052.6006,1927.0
8055.822,2243.0
8059.044,2263.0
8062.2676,2067.0
8065.4927,2272.0
8068.7188,2348.0
8071.9463,2599.0
8075.1753,2625.0
8078.4053,2686.0
8081.6367,3116.0
8084.869,3325.0
8088.103,3143.0
8091.3384,2819.0
8094.5747,2536.0
8097.8125,3505.0
8101.052,4781.0
8104.292,4455.0
8107.5337,3968.0
8110.777,3494.0
8114.021,3350.0
8117.2666,4976.0
8120.5137,5910.0
8123.7617,5591.0
8127.011,5449.0
8130.262,4504.0
8133.514,4391.0
8136.7676,4832.0
8140.0225,5811.0
8143.2783,7722.0
8146.5356,7094.0
8149.7944,5552.0
8153.054,6539.0
8156.3154,6311.0
8159.578,6975.0
8162.842,8099.0
8166.107,7790.0
8169.3735,11634.0
8172.641,10955.0
8175.91,6784.0
8179.1807,4007.0
8182.452,5001.0
8185.725,17358.0
8188.9995,22003.0
8192.275,10406.0
8195.553,4894.0
8198.831,4210.0
8202.11,17001.0
8205.392,39879.0
8208.674,25204.0
8211.957,9172.0
8215.242,4063.0
8218.528,3305.0
8221.815,3079.0
8225.1045,4206.0
8228.395,5312.0
8231.686,3825.0
8234.979,2300.0
8238.272,1691.0
8241.567,1796.0
8244.864,2019.0
8248.162,1877.0
8251.461,1603.0
8254.762,1450.0
8258.063,1271.0
8261.367,1320.0
8264.672,1338.0
8267.978,1420.0
8271.285,1356.0
8274.594,1158.0
8277.903,1126.0
8281.215,1106.0
8284.527,1157.0
8287.841,1321.0
8291.156,1275.0
8294.473,1166.0
8297.79,1087.0
8301.109,1099.0
8304.43,1256.0
8307.751,1316.0
8311.074,1266.0
8314.398,1341.0
8317.725,1272.0
8321.052,1118.0
8324.38,1089.0
8327.71,1234.0
8331.041,1582.0
8334.373,1454.0
8337.707,1123.0
8341.042,1129.0
8344.378,1215.0
8347.716,1672.0
8351.055,1790.0
8354.3955,1373.0
8357.737,1429.0
8361.08,1325.0
8364.425,1064.0
8367.7705,1017.0
8371.117,1057.0
8374.466,1383.0
8377.815,1387.0
8381.167,1025.0
8384.52,865.0
8387.873,954.0
8391.229,1233.0
8394.585,1333.0
8397.942,1068.0
8401.302,900.0
8404.662,915.0
8408.024,974.0
8411.388,904.0
8414.752,852.0
8418.118,864.0
8421.485,749.0
8424.854,704.0
8428.224,769.0
8431.595,847.0
8434.968,832.0
8438.342,776.0
8441.717,810.0
8445.094,839.0
8448.472,875.0
8451.851,904.0
8455.231,801.0
8458.613,827.0
8461.997,870.0
8465.382,992.0
8468.768,931.0
8472.155,958.0
8475.544,1014.0
8478.935,929.0
8482.326,990.0
8485.719,1080.0
8489.113,1217.0
8492.509,1336.0
8495.906,1125.0
8499.305,1153.0
8502.704,1233.0
8506.105,1495.0
8509.508,1657.0
8512.911,1455.0
8516.316,1562.0
8519.723,1766.0
8523.131,1623.0
8526.54,1699.0
8529.95,1692.0
8533.362,2355.0
8536.775,2896.0
8540.19,2041.0
8543.606,1294.0
8547.023,1285.0
8550.442,2826.0
8553.862,4041.0
8557.284,2462.0
8560.707,1543.0
8564.131,1399.0
8567.557,3536.0
8570.983,6050.0
8574.412,4063.0
8577.842,2117.0
8581.272,1390.0
8584.705,1155.0
8588.139,1044.0
8591.574,1415.0
8595.011,1909.0
8598.449,1654.0
8601.889,1032.0
8605.329,839.0
8608.771,819.0
8612.215,767.0
8615.66,748.0
8619.106,792.0
8622.554,841.0
8626.003,707.0
8629.453,690.0
8632.905,692.0
8636.358,745.0
8639.8125,762.0
8643.269,703.0
8646.726,707.0
8650.185,661.0
8653.645,677.0
8657.106,746.0
8660.569,700.0
8664.033,691.0
8667.499,737.0
8670.966,756.0
8674.435,759.0
8677.904,831.0
8681.375,790.0
8684.848,783.0
8688.321,766.0
8691.797,793.0
8695.273,958.0
8698.752,868.0
8702.231,909.0
8705.712,853.0
8709.194,896.0
8712.678,1018.0
8716.163,1052.0
8719.649,997.0
8723.138,972.0
8726.627,993.0
8730.117,1013.0
8733.609,1049.0
8737.103,1079.0
8740.598,1144.0
8744.094,1085.0
8747.592,1057.0
8751.091,1186.0
8754.591,1311.0
8758.093,1326.0
8761.596,1187.0
8765.101,1250.0
8768.606,1373.0
8772.114,1603.0
8775.623,1549.0
8779.133,1426.0
8782.645,1572.0
8786.157,1494.0
8789.672,1595.0
8793.1875,1676.0
8796.705,2099.0
8800.224,2265.0
8803.744,1718.0
8807.266,1419.0
8810.788,1575.0
8814.3125,2775.0
8817.838,3035.0
8821.365,1945.0
8824.894,1658.0
8828.424,1724.0
8831.955,3149.0
8835.488,3436.0
8839.022,2444.0
8842.558,2034.0
8846.095,1730.0
8849.633,1531.0
8853.173,1588.0
8856.714,2305.0
8860.257,2576.0
8863.801,1992.0
8867.347,1684.0
8870.894,1648.0
8874.442,2528.0
8877.992,3151.0
8881.543,2554.0
8885.096,1963.0
8888.649,1765.0
8892.205,1703.0
8895.762,1766.0
8899.32,2175.0
8902.88,2226.0
8906.441,1735.0
8910.004,1650.0
8913.568,1679.0
8917.134,2394.0
8920.7,2279.0
8924.269,1877.0
8927.838,1737.0
8931.409,1915.0
8934.981,2703.0
8938.556,2396.0
8942.131,2032.0
8945.708,1877.0
8949.286,1701.0
8952.866,1520.0
8956.447,1658.0
8960.03,2039.0
8963.614,1911.0
8967.199,1588.0
8970.786,1428.0
8974.374,1596.0
8977.964,1773.0
8981.555,1770.0
8985.147,1476.0
8988.741,1424.0
8992.337,1670.0
8995.934,1768.0
8999.532,1622.0
9003.132,1452.0
9006.733,1510.0
9010.336,1645.0
9013.94,1519.0
9017.546,1463.0
9021.153,1450.0
9024.762,1729.0
9028.372,1731.0
9031.983,1438.0
9035.597,1217.0
9039.211,1362.0
9042.826,1806.0
9046.443,1551.0
9050.062,1218.0
9053.682,1069.0
9057.303,1540.0
9060.926,2119.0
9064.55,1754.0
9068.176,1126.0
9071.803,1030.0
9075.432,1395.0
9079.062,1541.0
9082.693,1255.0
9086.326,1110.0
9089.961,1056.0
9093.597,1091.0
9097.234,1183.0
9100.873,1078.0
9104.514,1038.0
9108.155,1022.0
9111.799,855.0
9115.443,829.0
9119.09,993.0
9122.737,1028.0
9126.387,945.0
9130.037,817.0
9133.689,814.0
9137.343,984.0
9140.998,1003.0
9144.654,965.0
9148.3125,870.0
9151.972,793.0
9155.633,718.0
9159.295,800.0
9162.959,941.0
9166.624,989.0
9170.291,819.0
9173.959,688.0
9177.629,831.0
9181.3,1154.0
9184.973,1169.0
9188.646,891.0
9192.322,715.0
9195.999,890.0
9199.678,1098.0
9203.357,914.0
9207.039,874.0
9210.722,760.0
9214.406,608.0
9218.092,588.0
9221.779,737.0
9225.468,860.0
9229.158,714.0
9232.85,541.0
9236.543,521.0
9240.237,732.0
9243.934,877.0
9247.631,600.0
9251.33,587.0
9255.03,487.0
9258.732,456.0
9262.436,444.0
9266.141,531.0
9269.847,492.0
9273.555,422.0
9277.264,356.0
9280.975,416.0
9284.687,496.0
9288.4,405.0
9292.116,416.0
9295.833,370.0
9299.552,396.0
9303.271,356.0
9306.993,368.0
9310.716,380.0
9314.44,360.0
9318.166,334.0
9321.894,340.0
9325.622,374.0
9329.353,370.0
9333.084,364.0
9336.817,342.0
9340.552,332.0
9344.288,380.0
9348.025,341.0
9351.765,353.0
9355.505,320.0
9359.247,306.0
9362.991,299.0
9366.736,320.0
9370.483,337.0
9374.231,321.0
9377.981,328.0
9381.732,332.0
9385.485,330.0
9389.239,325.0
9392.995,318.0
9396.752,312.0
9400.511,290.0
9404.2705,271.0
9408.032,286.0
9411.796,278.0
9415.561,305.0
9419.327,281.0
9423.095,284.0
9426.864,329.0
9430.635,323.0
9434.407,298.0
9438.181,269.0
9441.956,312.0
9445.732,340.0
9449.511,310.0
9453.291,297.0
9457.072,311.0
9460.855,321.0
9464.64,313.0
9468.426,261.0
9472.213,299.0
9476.002,245.0
9479.792,246.0
9483.584,236.0
9487.377,289.0
9491.172,306.0
9494.969,245.0
9498.767,264.0
9502.566,259.0
9506.367,346.0
9510.17,252.0
9513.974,254.0
9517.779,259.0
9521.586,257.0
9525.395,257.0
9529.205,262.0
9533.017,272.0
9536.83,222.0
9540.645,220.0
9544.461,217.0
9548.278,295.0
9552.098,291.0
9555.919,232.0
9559.741,215.0
9563.565,224.0
9567.391,212.0
9571.218,240.0
9575.046,225.0
9578.876,220.0
9582.708,204.0
9586.541,235.0
9590.376,230.0
9594.212,187.0
9598.05,200.0
9601.889,190.0
9605.7295,226.0
9609.572,214.0
9613.416,204.0
9617.262,163.0
9621.108,184.0
9624.957,200.0
9628.807,182.0
9632.658,201.0
9636.512,179.0
9640.366,214.0
9644.223,181.0
9648.08,201.0
9651.939,167.0
9655.8,170.0
9659.662,182.0
9663.526,183.0
9667.392,196.0
9671.259,170.0
9675.127,172.0
9678.997,192.0
9682.869,163.0
9686.742,191.0
9690.617,169.0
9694.493,175.0
9698.371,197.0
9702.25,198.0
9706.131,176.0
9710.014,192.0
9713.897,162.0
9717.783,196.0
9721.67,197.0
9725.559,184.0
9729.449,184.0
9733.341,169.0
9737.234,181.0
9741.129,178.0
9745.025,181.0
9748.924,210.0
9752.823,170.0
9756.725,195.0
9760.627,190.0
9764.531,185.0
9768.4375,176.0
9772.345,180.0
9776.254,186.0
9780.164,180.0
9784.076,193.0
9787.99,186.0
9791.905,176.0
9795.822,163.0
9799.74,186.0
9803.66,202.0
9807.582,210.0
9811.505,185.0
9815.43,201.0
9819.355,190.0
9823.283,179.0
9827.213,202.0
9831.144,242.0
9835.076,195.0
9839.01,180.0
9842.945,228.0
9846.883,199.0
9850.821,181.0
9854.762,187.0
9858.704,188.0
9862.647,203.0
9866.593,204.0
9870.539,198.0
9874.487,182.0
9878.4375,200.0
9882.389,204.0
9886.342,182.0
9890.296,181.0
9894.252,216.0
9898.21,209.0
9902.169,213.0
9906.13,204.0
9910.093,194.0
9914.057,213.0
9918.022,193.0
9921.989,172.0
9925.958,201.0
9929.929,196.0
9933.9,181.0
9937.874,184.0
9941.85,204.0
9945.826,200.0
9949.805,172.0
9953.784,180.0
9957.766,185.0
9961.749,182.0
9965.733,198.0
9969.72,157.0
9973.708,188.0
9977.697,179.0
9981.688,180.0
9985.681,179.0
9989.675,200.0
9993.671,214.0
9997.668,170.0
10001.667,208.0
10005.668,174.0
10009.67,169.0
10013.674,211.0
10017.68,190.0
10021.687,163.0
10025.695,190.0
10029.706,159.0
10033.718,190.0
10037.731,169.0
10041.746,203.0
10045.763,185.0
10049.781,153.0
10053.801,161.0
10057.822,184.0
10061.846,201.0
10065.87,200.0
10069.896,191.0
10073.925,171.0
10077.954,208.0
10081.985,197.0
10086.019,186.0
10090.053,211.0
10094.089,180.0
10098.127,187.0
10102.166,188.0
10106.207,184.0
10110.25,190.0
10114.294,219.0
10118.34,175.0
10122.387,150.0
10126.436,209.0
10130.486,184.0
10134.538,180.0
10138.592,199.0
10142.647,202.0
10146.704,185.0
10150.763,203.0
10154.823,175.0
10158.885,216.0
10162.948,200.0
10167.014,232.0
10171.08,179.0
10175.148,207.0
10179.219,189.0
10183.29,201.0
10187.363,196.0
10191.438,191.0
10195.515,209.0
10199.593,212.0
10203.673,164.0
10207.754,185.0
10211.837,191.0
10215.922,195.0
10220.008,218.0
10224.096,190.0
10228.186,193.0
10232.276,206.0
10236.369,200.0
10240.464,188.0
10244.56,189.0
10248.657,200.0
10252.757,220.0
10256.858,193.0
10260.961,194.0
10265.065,209.0
10269.172,198.0
10273.279,225.0
10277.389,243.0
10281.5,230.0
10285.612,196.0
10289.727,217.0
10293.843,210.0
10297.96,244.0
10302.079,183.0
10306.2,224.0
10310.322,221.0
10314.446,224.0
10318.572,238.0
10322.699,223.0
10326.828,212.0
10330.959,230.0
10335.092,213.0
10339.226,216.0
10343.361,219.0
10347.499,206.0
10351.638,198.0
10355.778,234.0
10359.921,232.0
10364.064,223.0
10368.21,205.0
10372.357,225.0
10376.507,226.0
10380.657,216.0
10384.81,201.0
10388.964,220.0
10393.119,217.0
10397.276,204.0
10401.436,216.0
10405.596,212.0
10409.758,216.0
10413.922,215.0
10418.088,194.0
10422.255,168.0
10426.424,180.0
10430.595,241.0
10434.767,222.0
10438.94,215.0
10443.116,207.0
10447.294,210.0
10451.473,213.0
10455.653,233.0
10459.836,216.0
10464.02,205.0
10468.205,210.0
10472.393,192.0
10476.581,219.0
10480.771,218.0
10484.964,209.0
10489.158,210.0
10493.354,193.0
10497.551,196.0
10501.75,205.0
10505.951,239.0
10510.153,202.0
10514.357,209.0
10518.563,209.0
10522.7705,189.0
10526.9795,242.0
10531.19,227.0
10535.403,193.0
10539.617,193.0
10543.833,193.0
10548.051,218.0
10552.27,201.0
10556.49,228.0
10560.713,209.0
10564.9375,196.0
10569.163,208.0
10573.391,221.0
10577.62,242.0
10581.852,207.0
10586.084,206.0
10590.318,227.0
10594.555,206.0
10598.793,198.0
10603.032,199.0
10607.273,198.0
10611.517,209.0
10615.761,215.0
10620.007,200.0
10624.255,234.0
10628.505,231.0
10632.756,197.0
10637.009,225.0
10641.264,200.0
10645.5205,198.0
10649.778,203.0
10654.038,239.0
10658.3,193.0
10662.563,232.0
10666.828,236.0
10671.095,248.0
10675.363,244.0
10679.634,248.0
10683.905,250.0
10688.179,207.0
10692.454,218.0
10696.731,246.0
10701.01,228.0
10705.29,252.0
10709.572,248.0
10713.856,273.0
10718.142,297.0
10722.429,254.0
10726.718,227.0
10731.009,225.0
10735.301,268.0
10739.595,271.0
10743.891,248.0
10748.188,225.0
10752.487,252.0
10756.788,284.0
10761.091,252.0
10765.3955,266.0
10769.702,222.0
10774.01,250.0
10778.319,257.0
10782.631,236.0
10786.944,235.0
10791.259,231.0
10795.575,241.0
10799.894,246.0
10804.214,206.0
10808.535,229.0
10812.858,216.0
10817.184,205.0
10821.511,244.0
10825.839,239.0
10830.169,221.0
10834.501,218.0
10838.835,242.0
10843.171,242.0
10847.508,249.0
10851.847,227.0
10856.1875,230.0
10860.53,238.0
10864.874,246.0
10869.22,256.0
10873.567,251.0
10877.917,249.0
10882.269,257.0
10886.621,274.0
10890.976,258.0
10895.332,236.0
10899.69,268.0
10904.051,265.0
10908.412,239.0
10912.775,262.0
10917.141,255.0
10921.508,242.0
10925.876,256.0
10930.246,210.0
10934.618,258.0
10938.992,239.0
10943.368,260.0
10947.745,262.0
10952.124,251.0
10956.505,209.0
10960.888,241.0
10965.272,253.0
10969.658,275.0
10974.046,269.0
10978.436,264.0
10982.827,270.0
10987.221,265.0
10991.615,251.0
10996.012,295.0
11000.41,306.0
11004.811,269.0
11009.213,264.0
11013.616,261.0
11018.021,289.0
11022.429,299.0
11026.838,260.0
11031.249,291.0
11035.661,280.0
11040.075,301.0
11044.491,330.0
11048.909,316.0
11053.329,301.0
11057.75,284.0
11062.173,254.0
11066.598,283.0
11071.024,277.0
11075.453,228.0
11079.884,295.0
11084.315,277.0
11088.749,278.0
11093.185,294.0
11097.622,298.0
11102.062,280.0
11106.502,304.0
11110.944,304.0
11115.389,291.0
11119.835,298.0
11124.283,293.0
11128.733,309.0
11133.185,298.0
11137.638,325.0
11142.093,300.0
11146.55,296.0
11151.009,321.0
11155.469,279.0
11159.931,316.0
11164.395,322.0
11168.86,294.0
11173.328,343.0
11177.798,311.0
11182.269,292.0
11186.741,295.0
11191.216,299.0
11195.692,354.0
11200.171,306.0
11204.651,316.0
11209.133,341.0
11213.616,321.0
11218.102,358.0
11222.589,343.0
11227.078,340.0
11231.569,347.0
11236.062,335.0
11240.556,340.0
11245.052,379.0
11249.55,374.0
11254.05,379.0
11258.552,374.0
11263.056,382.0
11267.561,363.0
11272.067,382.0
11276.576,353.0
11281.087,414.0
11285.6,416.0
11290.114,414.0
11294.63,375.0
11299.147,410.0
11303.667,384.0
11308.188,404.0
11312.712,427.0
11317.237,430.0
11321.765,419.0
11326.293,425.0
11330.823,430.0
11335.355,461.0
11339.89,454.0
11344.426,488.0
11348.964,534.0
11353.504,514.0
11358.045,527.0
11362.588,552.0
11367.133,512.0
11371.68,578.0
11376.229,601.0
11380.779,564.0
11385.332,619.0
11389.886,577.0
11394.441,586.0
11398.999,560.0
11403.559,598.0
11408.12,634.0
11412.684,660.0
11417.249,683.0
11421.816,659.0
11426.385,696.0
11430.955,713.0
11435.527,735.0
11440.102,755.0
11444.678,811.0
11449.256,769.0
11453.836,806.0
11458.417,806.0
11463.0,832.0
11467.585,863.0
11472.172,862.0
11476.761,942.0
11481.352,908.0
11485.944,885.0
11490.539,925.0
11495.136,999.0
11499.733,957.0
11504.333,924.0
11508.935,1074.0
11513.538,1088.0
11518.144,1039.0
11522.751,1073.0
11527.36,1113.0
11531.972,1129.0
11536.584,1048.0
11541.198,1093.0
11545.814,1242.0
11550.433,1219.0
11555.053,1113.0
11559.675,1228.0
11564.299,1222.0
11568.925,1163.0
11573.553,1209.0
11578.183,1289.0
11582.813,1221.0
11587.446,1090.0
11592.081,1313.0
11596.718,1327.0
11601.356,1275.0
11605.997,1224.0
11610.64,1345.0
11615.284,1349.0
11619.931,1181.0
11624.579,1330.0
11629.229,1487.0
11633.88,1199.0
11638.533,1246.0
11643.188,1556.0
11647.846,1292.0
11652.505,1078.0
11657.166,1269.0
11661.829,1460.0
11666.494,1052.0
11671.161,1102.0
11675.83,1644.0
11680.5,1476.0
11685.172,1022.0
11689.846,1003.0
11694.521,1149.0
11699.199,954.0
11703.879,837.0
11708.561,919.0
11713.244,815.0
11717.93,789.0
11722.617,743.0
11727.307,727.0
11731.998,659.0
11736.69,635.0
11741.385,615.0
11746.081,579.0
11750.779,545.0
11755.4795,550.0
11760.182,525.0
11764.886,487.0
11769.592,533.0
11774.3,507.0
11779.01,498.0
11783.722,470.0
11788.436,473.0
11793.151,470.0
11797.868,432.0
11802.587,450.0
11807.308,420.0
11812.03,421.0
11816.755,420.0
11821.481,470.0
11826.21,449.0
11830.94,408.0
11835.673,400.0
11840.407,433.0
11845.144,380.0
11849.882,386.0
11854.622,378.0
11859.364,365.0
11864.108,370.0
11868.8545,359.0
11873.602,286.0
11878.351,305.0
11883.102,312.0
11887.8545,298.0
11892.609,309.0
11897.366,300.0
11902.125,290.0
11906.886,293.0
11911.648,254.0
11916.413,244.0
11921.18,304.0
11925.948,274.0
11930.719,272.0
11935.491,257.0
11940.266,222.0
11945.042,276.0
11949.82,273.0
11954.601,265.0
11959.383,257.0
11964.167,255.0
11968.953,247.0
11973.74,239.0
11978.529,247.0
11983.32,243.0
11988.113,252.0
11992.908,215.0
