M/Z,Intensity
800.0,95.0
800.32,66.0
800.64014,26.0
800.9604,123.0
801.28076,142.0
801.60126,40.0
801.9219,80.0
802.2426,118.0
802.56354,29.0
802.8846,213.0
803.20575,144.0
803.52704,53.0
803.84845,83.0
804.17,147.0
804.49164,47.0
804.8134,45.0
805.1353,172.0
805.4574,47.0
805.7796,68.0
806.1019,157.0
806.4244,57.0
806.74695,48.0
807.06964,123.0
807.39246,67.0
807.7154,29.0
808.03845,113.0
808.3617,85.0
808.68506,33.0
809.00854,91.0
809.33215,94.0
809.6559,39.0
809.97974,82.0
810.3037,95.0
810.6278,37.0
810.9521,78.0
811.2765,97.0
811.601,43.0
811.92566,88.0
812.2504,99.0
812.5753,32.0
812.9003,72.0
813.22546,96.0
813.5508,41.0
813.8762,59.0
814.2018,99.0
814.52747,40.0
814.8533,53.0
815.1792,111.0
815.50525,56.0
815.8314,51.0
816.1578,124.0
816.48425,57.0
816.81085,144.0
817.1376,138.0
817.4644,47.0
817.7914,81.0
818.11847,148.0
818.44574,61.0
818.77313,66.0
819.10065,106.0
819.4283,53.0
819.75604,39.0
820.0839,95.0
820.412,74.0
820.7402,40.0
821.0685,118.0
821.3969,84.0
821.72546,43.0
822.05414,90.0
822.38293,76.0
822.7119,56.0
823.041,176.0
823.37024,83.0
823.6996,47.0
824.02905,128.0
824.35864,83.0
824.6884,142.0
825.0183,1015.0
825.3483,101.0
825.67847,63.0
826.0087,453.0
826.3391,84.0
826.6696,44.0
827.0003,219.0
827.3311,106.0
827.66205,39.0
827.9931,103.0
828.3243,90.0
828.65564,46.0
828.9871,82.0
829.3187,90.0
829.65045,48.0
829.9823,66.0
830.3143,88.0
830.6464,34.0
830.9787,70.0
831.3111,66.0
831.6436,42.0
831.97626,67.0
832.309,92.0
832.64197,48.0
832.97504,133.0
833.3082,90.0
833.64154,32.0
833.975,98.0
834.3086,97.0
834.64233,31.0
834.9762,90.0
835.3102,86.0
835.6443,45.0
835.9785,94.0
836.3129,73.0
836.64746,36.0
836.9821,111.0
837.3169,79.0
837.6518,42.0
837.9869,85.0
838.3221,74.0
838.6574,53.0
838.99286,358.0
839.3284,80.0
839.6642,59.0
840.00006,194.0
840.33606,91.0
840.6722,64.0
841.0084,284.0
841.34485,85.0
841.6814,54.0
842.01807,164.0
842.35486,111.0
842.6918,38.0
843.0289,126.0
843.3661,78.0
843.7034,43.0
844.0409,109.0
844.37854,96.0
844.7163,77.0
845.0542,274.0
845.3922,107.0
845.73035,61.0
846.06866,170.0
846.4071,70.0
846.74567,53.0
847.08435,132.0
847.42316,59.0
847.76215,55.0
848.10126,98.0
848.4405,71.0
848.77985,50.0
849.1194,114.0
849.45905,57.0
849.7988,46.0
850.13873,86.0
850.47876,54.0
850.819,64.0
851.1593,99.0
851.49976,58.0
851.84033,48.0
852.1811,87.0
852.522,48.0
852.863,53.0
853.2041,84.0
853.5454,50.0
853.88684,65.0
854.2284,94.0
854.57007,41.0
854.9119,271.0
855.2539,88.0
855.596,35.0
855.93823,178.0
856.2806,104.0
856.6231,56.0
856.96576,153.0
857.30853,87.0
857.6514,42.0
857.9945,128.0
858.3377,92.0
858.681,55.0
859.0245,116.0
859.3681,86.0
859.71185,44.0
860.0557,104.0
860.3997,72.0
860.7439,464.0
861.0882,502.0
861.4326,102.0
861.77716,294.0
862.1219,191.0
862.46674,87.0
862.8117,163.0
863.15686,115.0
863.50214,56.0
863.84753,92.0
864.19305,91.0
864.53876,46.0
864.8846,80.0
865.2305,96.0
865.5766,41.0
865.92285,57.0
866.2692,99.0
866.6157,28.0
866.96234,163.0
867.30914,96.0
867.65607,43.0
868.0031,85.0
868.35034,95.0
868.6977,36.0
869.04517,83.0
869.39276,69.0
869.74054,38.0
870.08844,61.0
870.43646,63.0
870.7846,46.0
871.13293,69.0
871.4814,31.0
871.82996,51.0
872.1787,86.0
872.5276,36.0
872.8766,104.0
873.2257,124.0
873.575,40.0
873.92444,86.0
874.274,93.0
874.6237,38.0
874.9736,66.0
875.32355,87.0
875.6737,26.0
876.024,62.0
876.3744,116.0
876.7249,146.0
877.0756,130.0
877.42645,90.0
877.7774,99.0
878.12854,90.0
878.4798,66.0
878.8312,84.0
879.18274,105.0
879.5344,51.0
879.8862,68.0
880.23816,132.0
880.5903,50.0
880.9425,85.0
881.29486,93.0
881.6474,41.0
882.00006,83.0
882.35284,69.0
882.7058,60.0
883.0589,88.0
883.4121,80.0
883.7655,40.0
884.119,115.0
884.47266,178.0
884.8264,54.0
885.18036,106.0
885.5344,83.0
885.8886,41.0
886.243,90.0
886.5975,38.0
886.9521,76.0
887.3069,101.0
887.6618,37.0
888.01685,64.0
888.3721,66.0
888.7274,48.0
889.0829,99.0
889.43854,72.0
889.7943,41.0
890.1502,107.0
890.5063,72.0
890.8625,48.0
891.2188,73.0
891.5753,41.0
891.93195,41.0
892.2887,117.0
892.6456,52.0
893.0027,61.0
893.35986,82.0
893.7172,63.0
894.0747,77.0
894.4323,79.0
894.7901,67.0
895.148,81.0
895.50604,50.0
895.86426,66.0
896.2226,79.0
896.58105,47.0
896.9397,63.0
897.29846,83.0
897.6574,25.0
898.0165,68.0
898.3757,66.0
898.73505,46.0
899.09454,83.0
899.45416,81.0
899.81396,37.0
900.1739,97.0
900.53394,57.0
900.89417,51.0
901.2545,74.0
901.615,31.0
901.97565,72.0
902.3364,74.0
902.6974,41.0
903.0585,66.0
903.4197,89.0
903.78107,58.0
904.1426,123.0
904.5042,81.0
904.866,56.0
905.22797,118.0
905.5901,41.0
905.95233,66.0
906.3147,106.0
906.67725,41.0
907.0399,71.0
907.4027,97.0
907.7657,40.0
908.1288,67.0
908.49207,57.0
908.85547,50.0
909.219,81.0
909.5827,41.0
909.94653,44.0
910.3105,89.0
910.6746,38.0
911.0389,88.0
911.4033,56.0
911.7679,38.0
912.13257,78.0
912.49744,43.0
912.8624,48.0
913.2276,60.0
913.5929,32.0
913.9583,54.0
914.3239,71.0
914.68964,44.0
915.05554,70.0
915.4216,52.0
915.7877,47.0
916.15405,80.0
916.5205,57.0
916.88715,53.0
917.2539,89.0
917.6208,35.0
917.98785,70.0
918.35504,76.0
918.7224,40.0
919.0899,74.0
919.4575,60.0
919.8253,51.0
920.19324,108.0
920.56134,38.0
920.92957,70.0
921.2979,80.0
921.66644,35.0
922.0351,74.0
922.40393,85.0
922.7729,47.0
923.14197,81.0
923.5112,44.0
923.8806,52.0
924.2502,90.0
924.6199,42.0
924.98975,65.0
925.35974,66.0
925.72986,51.0
926.10016,68.0
926.4706,67.0
926.8412,50.0
927.2119,71.0
927.5828,34.0
927.95386,65.0
928.325,81.0
928.69635,34.0
929.0678,69.0
929.43945,76.0
929.8112,34.0
930.18317,81.0
930.55524,46.0
930.9274,64.0
931.2998,68.0
931.6723,39.0
932.045,69.0
932.4178,72.0
932.7908,31.0
933.1639,94.0
933.5372,60.0
933.9106,65.0
934.2841,83.0
934.65784,33.0
935.0317,63.0
935.4057,79.0
935.77985,45.0
936.1542,69.0
936.5286,55.0
936.90326,48.0
937.278,84.0
937.65295,47.0
938.028,67.0
938.4032,66.0
938.77856,36.0
939.15405,82.0
939.5297,60.0
939.9055,61.0
940.2815,76.0
940.6576,34.0
941.0339,63.0
941.4103,62.0
941.78687,38.0
942.1636,67.0
942.54047,53.0
942.9175,38.0
943.2947,69.0
943.672,37.0
944.04944,67.0
944.42706,57.0
944.8048,43.0
945.18274,75.0
945.5608,48.0
945.939,70.0
946.3174,90.0
946.6959,36.0
947.0746,67.0
947.4534,63.0
947.8324,32.0
948.21155,84.0
948.5908,38.0
948.9703,65.0
949.34985,78.0
949.7296,37.0
950.1095,71.0
950.48956,54.0
950.86975,43.0
951.2501,80.0
951.6306,38.0
952.0113,47.0
952.3921,69.0
952.7731,51.0
953.1542,72.0
953.53546,46.0
953.9169,43.0
954.29846,69.0
954.6802,35.0
955.0621,73.0
955.4441,66.0
955.8263,37.0
956.2086,73.0
956.5911,66.0
956.97375,57.0
957.35657,65.0
957.7395,42.0
958.1226,66.0
958.50586,68.0
958.8893,48.0
959.2728,88.0
959.65656,35.0
960.0404,50.0
960.42444,66.0
960.8086,38.0
961.19293,76.0
961.5774,57.0
961.96204,82.0
962.3468,69.0
962.73175,32.0
963.1168,81.0
963.5021,48.0
963.88745,45.0
964.273,91.0
964.6587,24.0
965.04456,58.0
965.4306,69.0
965.8168,43.0
966.2031,77.0
966.5896,38.0
966.97626,48.0
967.36304,70.0
967.75,52.0
968.1371,84.0
968.52435,48.0
968.91174,64.0
969.2993,62.0
969.687,42.0
970.0749,87.0
970.4629,76.0
970.8511,48.0
971.23944,73.0
971.6279,54.0
972.0166,52.0
972.4054,81.0
972.7944,48.0
973.1835,90.0
973.57275,55.0
973.96216,55.0
974.35175,70.0
974.7415,29.0
975.1314,80.0
975.5215,48.0
975.9117,51.0
976.30206,89.0
976.69257,39.0
977.08325,50.0
977.47406,90.0
977.86505,50.0
978.2562,78.0
978.6475,42.0
979.039,72.0
979.4306,84.0
979.8224,38.0
980.2143,71.0
980.6064,44.0
980.99866,63.0
981.39105,68.0
981.7836,43.0
982.17633,78.0
982.5692,43.0
982.9622,59.0
983.3554,78.0
983.7488,60.0
984.1423,90.0
984.53595,56.0
984.92975,66.0
985.3237,79.0
985.71783,53.0
986.1121,61.0
986.5066,52.0
986.9012,69.0
987.29596,54.0
987.69086,35.0
988.08594,71.0
988.4812,55.0
988.8766,45.0
989.27216,63.0
989.66785,39.0
990.0637,69.0
990.4597,61.0
990.8559,56.0
991.25226,80.0
991.64874,37.0
992.0454,84.0
992.4422,64.0
992.8392,40.0
993.2363,76.0
993.6336,49.0
994.03107,74.0
994.42865,59.0
994.8264,45.0
995.22437,76.0
995.62244,51.0
996.0207,55.0
996.4191,61.0
996.8177,39.0
997.21643,75.0
997.6153,41.0
998.01434,62.0
998.4136,73.0
998.8129,58.0
999.21246,72.0
999.6121,47.0
1000.01196,75.0
1000.412,94.0
1000.81213,41.0
1001.21246,77.0
1001.613,50.0
1002.0136,88.0
1002.4144,81.0
1002.81537,48.0
1003.2165,76.0
1003.6178,51.0
1004.0192,67.0
1004.42084,69.0
1004.82263,52.0
1005.22455,74.0
1005.62665,55.0
1006.0289,104.0
1006.4313,59.0
1006.83386,79.0
1007.2366,83.0
1007.63947,51.0
1008.04254,112.0
1008.44574,73.0
1008.8491,58.0
1009.2527,69.0
1009.6564,56.0
1010.06024,81.0
1010.4643,60.0
1010.86847,60.0
1011.2728,69.0
1011.6773,42.0
1012.082,89.0
1012.4868,58.0
1012.8918,63.0
1013.29694,71.0
1013.7023,72.0
1014.1077,116.0
1014.51337,71.0
1014.9192,85.0
1015.32513,81.0
1015.73126,58.0
1016.1376,72.0
1016.544,53.0
1016.9506,50.0
1017.3574,91.0
1017.76434,36.0
1018.17145,85.0
1018.57874,57.0
1018.98615,59.0
1019.39374,85.0
1019.8015,38.0
1020.2094,70.0
1020.6175,40.0
1021.02576,58.0
1021.43414,81.0
1021.8427,63.0
1022.25146,79.0
1022.66034,51.0
1023.0694,68.0
1023.47864,71.0
1023.888,64.0
1024.2976,86.0
1024.7073,42.0
1025.1172,61.0
1025.5272,48.0
1025.9374,71.0
1026.3478,68.0
1026.7583,55.0
1027.169,64.0
1027.5798,59.0
1027.9908,118.0
1028.4021,80.0
1028.8135,75.0
1029.225,73.0
1029.6367,64.0
1030.0486,134.0
1030.4606,61.0
1030.8728,110.0
1031.2852,75.0
1031.6976,47.0
1032.1104,69.0
1032.5232,76.0
1032.9362,58.0
1033.3494,76.0
1033.7627,56.0
1034.1761,88.0
1034.5898,57.0
1035.0037,67.0
1035.4177,46.0
1035.8319,74.0
1036.2462,95.0
1036.6608,60.0
1037.0754,77.0
1037.4902,88.0
1037.9053,38.0
1038.3204,70.0
1038.7357,40.0
1039.1512,60.0
1039.5669,53.0
1039.9827,69.0
1040.3987,111.0
1040.8148,54.0
1041.2312,80.0
1041.6477,50.0
1042.0643,62.0
1042.4812,60.0
1042.8982,54.0
1043.3153,89.0
1043.7327,89.0
1044.1501,76.0
1044.5677,60.0
1044.9856,90.0
1045.4036,63.0
1045.8218,70.0
1046.2401,94.0
1046.6586,61.0
1047.0773,60.0
1047.4961,73.0
1047.915,64.0
1048.3342,77.0
1048.7535,47.0
1049.1731,83.0
1049.5928,81.0
1050.0126,214.0
1050.4326,77.0
1050.8528,137.0
1051.2731,69.0
1051.6936,84.0
1052.1143,85.0
1052.5352,57.0
1052.9562,89.0
1053.3773,76.0
1053.7987,68.0
1054.2202,59.0
1054.6418,39.0
1055.0637,55.0
1055.4857,73.0
1055.908,69.0
1056.3303,67.0
1056.7528,49.0
1057.1755,64.0
1057.5984,69.0
1058.0215,63.0
1058.4447,71.0
1058.868,52.0
1059.2916,86.0
1059.7153,64.0
1060.1392,79.0
1060.5632,125.0
1060.9874,59.0
1061.4119,108.0
1061.8364,59.0
1062.2611,83.0
1062.686,46.0
1063.1111,57.0
1063.5364,71.0
1063.9618,63.0
1064.3873,54.0
1064.8131,44.0
1065.239,59.0
1065.6652,113.0
1066.0914,161.0
1066.5178,52.0
1066.9445,150.0
1067.3712,80.0
1067.7982,78.0
1068.2253,86.0
1068.6526,57.0
1069.0801,74.0
1069.5077,77.0
1069.9355,68.0
1070.3635,65.0
1070.7916,49.0
1071.22,76.0
1071.6484,82.0
1072.0771,97.0
1072.506,72.0
1072.9349,93.0
1073.3641,90.0
1073.7935,63.0
1074.223,93.0
1074.6527,54.0
1075.0825,84.0
1075.5126,59.0
1075.9427,51.0
1076.3732,63.0
1076.8037,56.0
1077.2344,71.0
1077.6653,62.0
1078.0963,99.0
1078.5276,59.0
1078.959,83.0
1079.3906,65.0
1079.8224,53.0
1080.2543,55.0
1080.6864,49.0
1081.1187,64.0
1081.5511,53.0
1081.9838,77.0
1082.4165,67.0
1082.8495,55.0
1083.2826,79.0
1083.716,50.0
1084.1494,64.0
1084.5831,57.0
1085.017,60.0
1085.4509,82.0
1085.8851,54.0
1086.3195,75.0
1086.754,47.0
1087.1887,76.0
1087.6235,71.0
1088.0586,73.0
1088.4938,62.0
1088.9292,68.0
1089.3647,79.0
1089.8005,56.0
1090.2365,116.0
1090.6725,60.0
1091.1088,71.0
1091.5452,92.0
1091.9818,66.0
1092.4186,92.0
1092.8556,48.0
1093.2927,83.0
1093.7301,64.0
1094.1676,59.0
1094.6052,53.0
1095.0431,63.0
1095.4811,56.0
1095.9193,61.0
1096.3577,82.0
1096.7963,50.0
1097.235,60.0
1097.6738,55.0
1098.1129,47.0
1098.5521,70.0
1098.9916,61.0
1099.4312,70.0
1099.871,55.0
1100.3109,70.0
1100.751,45.0
1101.1913,60.0
1101.6317,55.0
1102.0724,50.0
1102.5132,47.0
1102.9542,48.0
1103.3954,87.0
1103.8368,56.0
1104.2783,80.0
1104.72,47.0
1105.1619,70.0
1105.6039,41.0
1106.0461,55.0
1106.4885,59.0
1106.9312,59.0
1107.3739,82.0
1107.8169,45.0
1108.26,75.0
1108.7034,63.0
1109.1469,55.0
1109.5905,43.0
1110.0343,67.0
1110.4783,45.0
1110.9225,46.0
1111.3668,68.0
1111.8114,45.0
1112.2561,65.0
1112.701,45.0
1113.1461,61.0
1113.5914,64.0
1114.0369,53.0
1114.4824,55.0
1114.9282,43.0
1115.3741,70.0
1115.8203,53.0
1116.2666,49.0
1116.7131,56.0
1117.1598,50.0
1117.6067,63.0
1118.0537,59.0
1118.501,76.0
1118.9484,56.0
1119.396,57.0
1119.8438,35.0
1120.2917,67.0
1120.7399,39.0
1121.1881,61.0
1121.6366,49.0
1122.0852,57.0
1122.534,69.0
1122.983,45.0
1123.4323,55.0
1123.8816,36.0
1124.3312,70.0
1124.7809,42.0
1125.2308,71.0
1125.6809,53.0
1126.1312,67.0
1126.5817,57.0
1127.0323,59.0
1127.4832,49.0
1127.9342,34.0
1128.3854,66.0
1128.8367,47.0
1129.2882,70.0
1129.7399,41.0
1130.1918,61.0
1130.6438,40.0
1131.0961,66.0
1131.5485,81.0
1132.0011,48.0
1132.4539,77.0
1132.9069,48.0
1133.36,65.0
1133.8134,35.0
1134.2668,58.0
1134.7206,41.0
1135.1744,60.0
1135.6285,56.0
1136.0828,63.0
1136.5372,53.0
1136.9918,58.0
1137.4467,68.0
1137.9016,60.0
1138.3568,88.0
1138.8121,35.0
1139.2677,64.0
1139.7234,39.0
1140.1793,60.0
1140.6354,58.0
1141.0917,59.0
1141.5481,70.0
1142.0048,44.0
1142.4615,72.0
1142.9186,36.0
1143.3757,67.0
1143.8331,45.0
1144.2906,73.0
1144.7484,48.0
1145.2063,58.0
1145.6644,44.0
1146.1227,54.0
1146.5812,50.0
1147.0398,56.0
1147.4987,72.0
1147.9576,63.0
1148.4169,164.0
1148.8762,51.0
1149.3358,136.0
1149.7955,45.0
1150.2555,93.0
1150.7156,45.0
1151.1759,60.0
1151.6364,74.0
1152.097,52.0
1152.5579,61.0
1153.0189,53.0
1153.4801,69.0
1153.9415,49.0
1154.4031,56.0
1154.8649,44.0
1155.3268,73.0
1155.789,42.0
1156.2512,80.0
1156.7137,59.0
1157.1764,71.0
1157.6393,45.0
1158.1023,63.0
1158.5656,64.0
1159.0289,62.0
1159.4926,64.0
1159.9563,53.0
1160.4203,66.0
1160.8844,45.0
1161.3488,75.0
1161.8134,43.0
1162.2781,65.0
1162.743,34.0
1163.2081,52.0
1163.6735,53.0
1164.1389,54.0
1164.6046,59.0
1165.0704,61.0
1165.5365,75.0
1166.0027,52.0
1166.4691,62.0
1166.9357,42.0
1167.4025,71.0
1167.8694,53.0
1168.3365,77.0
1168.8038,44.0
1169.2714,59.0
1169.739,58.0
1170.2069,82.0
1170.675,55.0
1171.1433,64.0
1171.6118,73.0
1172.0804,58.0
1172.5493,53.0
1173.0183,53.0
1173.4875,89.0
1173.9569,53.0
1174.4265,103.0
1174.8962,57.0
1175.3662,73.0
1175.8363,48.0
1176.3066,59.0
1176.7772,49.0
1177.2479,65.0
1177.7189,44.0
1178.19,57.0
1178.6613,56.0
1179.1327,62.0
1179.6044,52.0
1180.0762,57.0
1180.5482,59.0
1181.0204,52.0
1181.4928,64.0
1181.9655,57.0
1182.4382,59.0
1182.9113,67.0
1183.3844,71.0
1183.8578,49.0
1184.3313,60.0
1184.805,41.0
1185.2789,74.0
1185.753,54.0
1186.2273,67.0
1186.7018,45.0
1187.1765,72.0
1187.6514,62.0
1188.1265,66.0
1188.6017,56.0
1189.0771,51.0
1189.5527,54.0
1190.0286,55.0
1190.5045,61.0
1190.9807,43.0
1191.4572,57.0
1191.9337,42.0
1192.4105,71.0
1192.8875,49.0
1193.3646,81.0
1193.8419,47.0
1194.3195,81.0
1194.7972,59.0
1195.2751,56.0
1195.7533,55.0
1196.2316,52.0
1196.7101,60.0
1197.1887,70.0
1197.6676,34.0
1198.1467,78.0
1198.626,56.0
1199.1055,73.0
1199.5851,76.0
1200.065,37.0
1200.5449,79.0
1201.0251,45.0
1201.5056,63.0
1201.9862,49.0
1202.467,66.0
1202.948,52.0
1203.4292,60.0
1203.9105,47.0
1204.3921,62.0
1204.8739,54.0
1205.3558,71.0
1205.838,43.0
1206.3203,77.0
1206.8029,50.0
1207.2855,65.0
1207.7684,36.0
1208.2516,63.0
1208.7349,40.0
1209.2184,59.0
1209.702,47.0
1210.1859,66.0
1210.67,67.0
1211.1543,51.0
1211.6388,58.0
1212.1234,51.0
1212.6083,42.0
1213.0933,60.0
1213.5785,69.0
1214.064,61.0
1214.5496,72.0
1215.0354,42.0
1215.5214,59.0
1216.0076,52.0
1216.494,64.0
1216.9806,51.0
1217.4674,63.0
1217.9543,34.0
1218.4415,54.0
1218.929,63.0
1219.4165,71.0
1219.9043,59.0
1220.3922,57.0
1220.8804,46.0
1221.3688,75.0
1221.8573,40.0
1222.3461,63.0
1222.835,42.0
1223.3241,57.0
1223.8135,41.0
1224.303,74.0
1224.7927,71.0
1225.2826,69.0
1225.7727,43.0
1226.2631,48.0
1226.7535,59.0
1227.2443,56.0
1227.7351,60.0
1228.2262,65.0
1228.7175,60.0
1229.209,87.0
1229.7007,54.0
1230.1925,83.0
1230.6846,48.0
1231.1769,53.0
1231.6693,57.0
1232.162,54.0
1232.6549,56.0
1233.148,58.0
1233.6412,55.0
1234.1346,64.0
1234.6283,73.0
1235.1222,65.0
1235.6162,56.0
1236.1105,59.0
1236.6049,56.0
1237.0995,51.0
1237.5944,57.0
1238.0894,62.0
1238.5846,46.0
1239.0801,62.0
1239.5757,71.0
1240.0715,70.0
1240.5675,74.0
1241.0637,63.0
1241.5602,75.0
1242.0568,61.0
1242.5536,47.0
1243.0507,62.0
1243.5479,76.0
1244.0453,49.0
1244.5428,76.0
1245.0406,57.0
1245.5387,72.0
1246.0369,85.0
1246.5353,134.0
1247.0339,77.0
1247.5327,109.0
1248.0317,66.0
1248.531,89.0
1249.0304,61.0
1249.53,82.0
1250.0298,44.0
1250.5298,59.0
1251.03,60.0
1251.5304,77.0
1252.031,56.0
1252.5319,60.0
1253.0328,45.0
1253.534,67.0
1254.0355,50.0
1254.5371,60.0
1255.039,84.0
1255.541,64.0
1256.0432,63.0
1256.5457,63.0
1257.0482,63.0
1257.551,67.0
1258.0541,56.0
1258.5573,69.0
1259.0607,57.0
1259.5643,72.0
1260.0681,50.0
1260.5721,68.0
1261.0764,78.0
1261.5808,64.0
1262.0854,72.0
1262.5903,80.0
1263.0953,62.0
1263.6006,88.0
1264.1061,70.0
1264.6117,81.0
1265.1176,58.0
1265.6237,62.0
1266.1299,59.0
1266.6364,75.0
1267.1431,78.0
1267.6499,52.0
1268.157,63.0
1268.6642,49.0
1269.1716,69.0
1269.6793,71.0
1270.1871,48.0
1270.6952,84.0
1271.2035,62.0
1271.7119,55.0
1272.2206,67.0
1272.7295,66.0
1273.2385,71.0
1273.7478,51.0
1274.2573,63.0
1274.767,54.0
1275.2769,65.0
1275.787,54.0
1276.2972,59.0
1276.8077,110.0
1277.3185,72.0
1277.8295,79.0
1278.3406,86.0
1278.8519,72.0
1279.3635,74.0
1279.8752,66.0
1280.3872,85.0
1280.8994,51.0
1281.4117,63.0
1281.9243,49.0
1282.4371,79.0
1282.9501,73.0
1283.4633,70.0
1283.9767,74.0
1284.4902,88.0
1285.004,67.0
1285.5181,83.0
1286.0322,58.0
1286.5466,79.0
1287.0613,57.0
1287.576,84.0
1288.0911,41.0
1288.6063,75.0
1289.1218,63.0
1289.6375,61.0
1290.1533,55.0
1290.6694,67.0
1291.1857,58.0
1291.7021,60.0
1292.2189,68.0
1292.7357,62.0
1293.2528,63.0
1293.7701,64.0
1294.2876,71.0
1294.8053,65.0
1295.3232,67.0
1295.8414,56.0
1296.3597,59.0
1296.8783,60.0
1297.3971,71.0
1297.916,50.0
1298.4352,81.0
1298.9546,59.0
1299.4741,68.0
1299.9939,67.0
1300.5139,78.0
1301.0342,55.0
1301.5546,111.0
1302.0752,56.0
1302.5961,85.0
1303.1171,72.0
1303.6383,69.0
1304.1598,58.0
1304.6814,71.0
1305.2032,74.0
1305.7253,50.0
1306.2477,61.0
1306.7701,56.0
1307.2928,68.0
1307.8158,48.0
1308.3389,52.0
1308.8622,50.0
1309.3857,81.0
1309.9095,34.0
1310.4335,71.0
1310.9576,42.0
1311.482,51.0
1312.0066,49.0
1312.5314,58.0
1313.0564,40.0
1313.5817,74.0
1314.107,65.0
1314.6327,65.0
1315.1586,67.0
1315.6847,56.0
1316.2109,68.0
1316.7374,64.0
1317.2642,68.0
1317.791,47.0
1318.3181,69.0
1318.8455,35.0
1319.373,51.0
1319.9008,43.0
1320.4287,57.0
1320.9569,49.0
1321.4854,63.0
1322.0139,39.0
1322.5427,72.0
1323.0718,65.0
1323.601,76.0
1324.1304,53.0
1324.66,84.0
1325.19,58.0
1325.72,69.0
1326.2502,68.0
1326.7808,63.0
1327.3115,66.0
1327.8424,50.0
1328.3735,54.0
1328.9049,47.0
1329.4365,62.0
1329.9683,45.0
1330.5002,60.0
1331.0325,43.0
1331.565,85.0
1332.0975,48.0
1332.6304,77.0
1333.1635,93.0
1333.6968,85.0
1334.2302,81.0
1334.7639,60.0
1335.2979,47.0
1335.832,47.0
1336.3663,74.0
1336.9009,53.0
1337.4357,81.0
1337.9707,43.0
1338.5059,73.0
1339.0413,51.0
1339.5769,73.0
1340.1128,61.0
1340.6488,86.0
1341.185,56.0
1341.7216,69.0
1342.2583,74.0
1342.7952,57.0
1343.3323,73.0
1343.8696,43.0
1344.4072,69.0
1344.945,48.0
1345.4829,57.0
1346.0211,40.0
1346.5596,68.0
1347.0981,45.0
1347.637,69.0
1348.176,65.0
1348.7153,61.0
1349.2548,57.0
1349.7944,51.0
1350.3344,90.0
1350.8745,49.0
1351.4149,52.0
1351.9554,43.0
1352.4962,58.0
1353.0372,49.0
1353.5785,50.0
1354.1199,54.0
1354.6615,63.0
1355.2034,60.0
1355.7455,65.0
1356.2878,53.0
1356.8303,50.0
1357.373,62.0
1357.916,40.0
1358.4592,69.0
1359.0026,53.0
1359.5461,63.0
1360.09,39.0
1360.634,62.0
1361.1783,69.0
1361.7228,50.0
1362.2675,71.0
1362.8124,49.0
1363.3575,74.0
1363.9028,43.0
1364.4484,70.0
1364.9941,38.0
1365.5402,68.0
1366.0864,43.0
1366.6328,96.0
1367.1794,49.0
1367.7263,91.0
1368.2734,55.0
1368.8208,52.0
1369.3683,45.0
1369.916,34.0
1370.464,55.0
1371.0122,52.0
1371.5607,65.0
1372.1093,46.0
1372.6581,61.0
1373.2072,54.0
1373.7565,47.0
1374.306,79.0
1374.8557,40.0
1375.4056,77.0
1375.9558,49.0
1376.5062,92.0
1377.0569,57.0
1377.6077,67.0
1378.1587,48.0
1378.71,60.0
1379.2615,62.0
1379.8132,35.0
1380.3651,66.0
1380.9172,45.0
1381.4696,56.0
1382.0222,30.0
1382.5751,47.0
1383.128,67.0
1383.6813,272.0
1384.2347,103.0
1384.7885,138.0
1385.3424,111.0
1385.8965,57.0
1386.4508,78.0
1387.0054,61.0
1387.5602,81.0
1388.1152,54.0
1388.6705,68.0
1389.226,84.0
1389.7816,58.0
1390.3375,65.0
1390.8937,48.0
1391.4501,87.0
1392.0067,44.0
1392.5635,65.0
1393.1205,64.0
1393.6777,59.0
1394.2352,64.0
1394.793,52.0
1395.3508,69.0
1395.9089,53.0
1396.4673,67.0
1397.0259,72.0
1397.5847,90.0
1398.1438,73.0
1398.703,58.0
1399.2625,78.0
1399.8221,59.0
1400.3821,54.0
1400.9423,50.0
1401.5027,69.0
1402.0632,39.0
1402.624,66.0
1403.185,49.0
1403.7463,61.0
1404.3079,92.0
1404.8696,39.0
1405.4315,98.0
1405.9937,49.0
1406.556,66.0
1407.1187,42.0
1407.6815,72.0
1408.2446,62.0
1408.808,52.0
1409.3715,69.0
1409.9352,40.0
1410.4991,62.0
1411.0634,66.0
1411.6278,50.0
1412.1925,51.0
1412.7573,56.0
1413.3224,83.0
1413.8877,53.0
1414.4532,73.0
1415.019,46.0
1415.5851,67.0
1416.1514,57.0
1416.7178,60.0
1417.2844,71.0
1417.8513,58.0
1418.4185,85.0
1418.9858,48.0
1419.5535,84.0
1420.1213,42.0
1420.6893,71.0
1421.2576,56.0
1421.826,47.0
1422.3948,73.0
1422.9637,52.0
1423.533,79.0
1424.1024,58.0
1424.672,74.0
1425.2418,74.0
1425.8119,63.0
1426.3822,65.0
1426.9528,54.0
1427.5236,62.0
1428.0946,65.0
1428.6659,69.0
1429.2373,74.0
1429.809,61.0
1430.3809,82.0
1430.953,39.0
1431.5254,89.0
1432.098,59.0
1432.6709,74.0
1433.244,62.0
1433.8173,83.0
1434.3907,74.0
1434.9645,51.0
1435.5385,63.0
1436.1127,58.0
1436.6871,58.0
1437.2618,61.0
1437.8368,42.0
1438.412,44.0
1438.9873,44.0
1439.5629,72.0
1440.1387,58.0
1440.7147,66.0
1441.291,51.0
1441.8676,56.0
1442.4443,67.0
1443.0214,41.0
1443.5985,63.0
1444.1759,64.0
1444.7535,70.0
1445.3314,86.0
1445.9095,75.0
1446.4879,99.0
1447.0665,65.0
1447.6454,70.0
1448.2245,68.0
1448.8038,57.0
1449.3833,51.0
1449.963,44.0
1450.543,70.0
1451.1232,41.0
1451.7036,87.0
1452.2843,65.0
1452.8652,52.0
1453.4464,51.0
1454.0278,58.0
1454.6095,113.0
1455.1913,106.0
1455.7733,105.0
1456.3556,100.0
1456.9381,59.0
1457.5209,61.0
1458.1039,67.0
1458.6871,49.0
1459.2706,39.0
1459.8544,63.0
1460.4384,68.0
1461.0226,51.0
1461.6069,131.0
1462.1915,74.0
1462.7764,93.0
1463.3615,107.0
1463.9468,46.0
1464.5323,73.0
1465.1182,42.0
1465.7042,77.0
1466.2905,71.0
1466.8771,55.0
1467.4639,86.0
1468.0509,53.0
1468.6382,70.0
1469.2256,70.0
1469.8132,49.0
1470.4011,50.0
1470.9893,46.0
1471.5776,50.0
1472.1663,81.0
1472.7551,68.0
1473.3442,81.0
1473.9336,45.0
1474.5232,83.0
1475.113,66.0
1475.7031,82.0
1476.2935,63.0
1476.884,55.0
1477.4747,58.0
1478.0657,51.0
1478.6569,72.0
1479.2483,58.0
1479.84,43.0
1480.4319,63.0
1481.024,42.0
1481.6165,65.0
1482.2091,73.0
1482.802,52.0
1483.3951,61.0
1483.9885,50.0
1484.5822,59.0
1485.176,52.0
1485.7701,58.0
1486.3645,53.0
1486.9591,47.0
1487.5538,65.0
1488.1488,53.0
1488.744,76.0
1489.3395,67.0
1489.9352,57.0
1490.5311,77.0
1491.1273,61.0
1491.7238,66.0
1492.3204,54.0
1492.9174,60.0
1493.5145,50.0
1494.1119,55.0
1494.7096,66.0
1495.3075,58.0
1495.9056,53.0
1496.504,90.0
1497.1027,58.0
1497.7015,59.0
1498.3007,47.0
1498.9,54.0
1499.4996,83.0
1500.0995,54.0
1500.6996,58.0
1501.2998,57.0
1501.9003,49.0
1502.501,68.0
1503.1019,47.0
1503.7031,66.0
1504.3046,55.0
1504.9062,52.0
1505.5082,72.0
1506.1104,48.0
1506.7128,51.0
1507.3154,89.0
1507.9183,51.0
1508.5215,74.0
1509.1249,50.0
1509.7285,75.0
1510.3324,77.0
1510.9365,40.0
1511.5409,86.0
1512.1455,72.0
1512.7504,162.0
1513.3555,143.0
1513.9608,60.0
1514.5664,85.0
1515.1722,42.0
1515.7783,87.0
1516.3846,53.0
1516.9912,49.0
1517.598,50.0
1518.2051,51.0
1518.8124,55.0
1519.4199,81.0
1520.0277,39.0
1520.6357,90.0
1521.244,58.0
1521.8525,51.0
1522.4613,68.0
1523.0703,54.0
1523.6796,58.0
1524.2891,67.0
1524.8988,45.0
1525.5088,66.0
1526.119,55.0
1526.7295,65.0
1527.3402,83.0
1527.9512,44.0
1528.5624,59.0
1529.1738,42.0
1529.7855,52.0
1530.3975,57.0
1531.0096,41.0
1531.6221,54.0
1532.2347,48.0
1532.8477,59.0
1533.4608,53.0
1534.0742,43.0
1534.6879,58.0
1535.3018,75.0
1535.9159,50.0
1536.5303,60.0
1537.1449,46.0
1537.7598,60.0
1538.3749,70.0
1538.9902,37.0
1539.6058,62.0
1540.2217,42.0
1540.8378,60.0
1541.4541,63.0
1542.0707,41.0
1542.6875,48.0
1543.3046,60.0
1543.9219,58.0
1544.5394,77.0
1545.1572,52.0
1545.7753,69.0
1546.3936,68.0
1547.0121,53.0
1547.6309,77.0
1548.2499,71.0
1548.8691,49.0
1549.4886,54.0
1550.1084,62.0
1550.7284,54.0
1551.3486,77.0
1551.9691,68.0
1552.5898,65.0
1553.2109,62.0
1553.8323,69.0
1554.4539,82.0
1555.0757,53.0
1555.6978,83.0
1556.3201,71.0
1556.9426,63.0
1557.5654,76.0
1558.1885,52.0
1558.8118,54.0
1559.4353,54.0
1560.0591,56.0
1560.6831,67.0
1561.3074,87.0
1561.9319,55.0
1562.5566,63.0
1563.1816,57.0
1563.8069,62.0
1564.4324,66.0
1565.0581,61.0
1565.6841,56.0
1566.3103,69.0
1566.9368,42.0
1567.5636,68.0
1568.1907,45.0
1568.818,59.0
1569.4456,92.0
1570.0734,41.0
1570.7014,69.0
1571.3297,70.0
1571.9583,51.0
1572.587,94.0
1573.2161,64.0
1573.8453,66.0
1574.4749,78.0
1575.1046,52.0
1575.7346,53.0
1576.3649,64.0
1576.9954,50.0
1577.6261,50.0
1578.2572,44.0
1578.8885,59.0
1579.5201,65.0
1580.152,43.0
1580.784,53.0
1581.4164,53.0
1582.049,44.0
1582.6818,66.0
1583.3148,63.0
1583.9481,58.0
1584.5817,60.0
1585.2155,57.0
1585.8495,47.0
1586.4839,93.0
1587.1185,60.0
1587.7534,76.0
1588.3885,63.0
1589.0239,54.0
1589.6595,60.0
1590.2954,55.0
1590.9315,49.0
1591.5679,53.0
1592.2045,60.0
1592.8413,52.0
1593.4784,62.0
1594.1158,45.0
1594.7535,54.0
1595.3915,77.0
1596.0297,58.0
1596.6681,77.0
1597.3068,63.0
1597.9457,57.0
1598.5848,74.0
1599.2242,63.0
1599.8639,57.0
1600.5038,72.0
1601.144,50.0
1601.7845,63.0
1602.4253,88.0
1603.0663,49.0
1603.7075,73.0
1604.349,52.0
1604.9907,43.0
1605.6327,65.0
1606.2749,53.0
1606.9174,60.0
1607.5602,64.0
1608.2032,55.0
1608.8466,62.0
1609.4901,77.0
1610.1339,53.0
1610.778,53.0
1611.4222,60.0
1612.0668,57.0
1612.7115,73.0
1613.3567,78.0
1614.0021,48.0
1614.6477,65.0
1615.2936,66.0
1615.9397,42.0
1616.586,75.0
1617.2327,64.0
1617.8795,64.0
1618.5266,66.0
1619.1741,62.0
1619.8218,60.0
1620.4697,59.0
1621.1179,56.0
1621.7664,83.0
1622.415,81.0
1623.064,48.0
1623.7131,83.0
1624.3627,60.0
1625.0125,48.0
1625.6625,72.0
1626.3127,61.0
1626.9633,48.0
1627.614,63.0
1628.265,58.0
1628.9163,57.0
1629.5679,75.0
1630.2197,66.0
1630.8718,74.0
1631.5242,59.0
1632.1768,57.0
1632.8296,70.0
1633.4827,60.0
1634.1361,54.0
1634.7898,75.0
1635.4437,60.0
1636.0979,61.0
1636.7523,83.0
1637.407,53.0
1638.0619,52.0
1638.7172,63.0
1639.3727,64.0
1640.0284,51.0
1640.6844,102.0
1641.3407,80.0
1641.9972,51.0
1642.6539,80.0
1643.311,84.0
1643.9684,47.0
1644.626,99.0
1645.2838,100.0
1645.9419,72.0
1646.6002,90.0
1647.2589,57.0
1647.9178,60.0
1648.577,73.0
1649.2365,65.0
1649.8961,53.0
1650.556,57.0
1651.2163,58.0
1651.8768,53.0
1652.5376,74.0
1653.1986,56.0
1653.8599,54.0
1654.5214,53.0
1655.1832,65.0
1655.8453,55.0
1656.5077,73.0
1657.1703,52.0
1657.8331,59.0
1658.4962,69.0
1659.1597,50.0
1659.8234,62.0
1660.4873,55.0
1661.1515,55.0
1661.8159,55.0
1662.4806,73.0
1663.1456,43.0
1663.8109,66.0
1664.4764,80.0
1665.1422,65.0
1665.8082,60.0
1666.4746,62.0
1667.1412,47.0
1667.8081,72.0
1668.4752,76.0
1669.1426,47.0
1669.8102,73.0
1670.4781,53.0
1671.1464,46.0
1671.8148,54.0
1672.4835,65.0
1673.1525,42.0
1673.8218,80.0
1674.4913,63.0
1675.1611,51.0
1675.8312,62.0
1676.5015,65.0
1677.1721,59.0
1677.843,46.0
1678.5142,61.0
1679.1855,69.0
1679.8572,49.0
1680.5292,67.0
1681.2014,45.0
1681.8739,54.0
1682.5466,72.0
1683.2196,54.0
1683.893,69.0
1684.5665,74.0
1685.2404,67.0
1685.9144,64.0
1686.5887,54.0
1687.2634,51.0
1687.9384,48.0
1688.6135,55.0
1689.289,54.0
1689.9646,58.0
1690.6406,63.0
1691.3169,61.0
1691.9934,45.0
1692.6702,75.0
1693.3473,51.0
1694.0247,55.0
1694.7023,67.0
1695.3801,60.0
1696.0582,49.0
1696.7367,52.0
1697.4154,56.0
1698.0944,39.0
1698.7736,61.0
1699.4531,82.0
1700.1329,50.0
1700.813,79.0
1701.4933,65.0
1702.1738,51.0
1702.8547,66.0
1703.5359,67.0
1704.2173,40.0
1704.8989,53.0
1705.5809,64.0
1706.2632,57.0
1706.9457,52.0
1707.6284,51.0
1708.3115,51.0
1708.9949,53.0
1709.6785,62.0
1710.3623,63.0
1711.0465,51.0
1711.731,52.0
1712.4156,63.0
1713.1006,42.0
1713.7858,71.0
1714.4713,55.0
1715.1571,53.0
1715.8431,53.0
1716.5294,71.0
1717.2161,63.0
1717.903,60.0
1718.5901,64.0
1719.2775,44.0
1719.9652,46.0
1720.6532,49.0
1721.3414,66.0
1722.0299,44.0
1722.7188,66.0
1723.4078,64.0
1724.0972,52.0
1724.7869,60.0
1725.4768,67.0
1726.167,50.0
1726.8574,69.0
1727.5482,66.0
1728.2393,57.0
1728.9305,50.0
1729.6221,74.0
1730.314,52.0
1731.0061,54.0
1731.6985,74.0
1732.3911,64.0
1733.0841,47.0
1733.7773,61.0
1734.4708,56.0
1735.1647,68.0
1735.8588,77.0
1736.5531,72.0
1737.2477,63.0
1737.9426,49.0
1738.6378,80.0
1739.3333,69.0
1740.0289,41.0
1740.725,71.0
1741.4213,59.0
1742.1178,41.0
1742.8147,54.0
1743.5118,53.0
1744.2092,45.0
1744.9069,57.0
1745.6049,68.0
1746.3031,68.0
1747.0016,65.0
1747.7004,58.0
1748.3995,71.0
1749.0989,54.0
1749.7985,61.0
1750.4984,60.0
1751.1986,49.0
1751.899,57.0
1752.5999,56.0
1753.3009,59.0
1754.0022,41.0
1754.7039,59.0
1755.4058,48.0
1756.1079,41.0
1756.8103,59.0
1757.5131,64.0
1758.2161,61.0
1758.9193,57.0
1759.6229,62.0
1760.3268,61.0
1761.0309,43.0
1761.7354,76.0
1762.4401,80.0
1763.145,62.0
1763.8502,52.0
1764.5558,57.0
1765.2616,61.0
1765.9677,54.0
1766.6741,71.0
1767.3807,61.0
1768.0876,56.0
1768.7949,54.0
1769.5024,66.0
1770.2102,48.0
1770.9183,56.0
1771.6267,71.0
1772.3353,61.0
1773.0443,61.0
1773.7535,65.0
1774.463,57.0
1775.1729,46.0
1775.8829,58.0
1776.5933,64.0
1777.304,71.0
1778.0149,51.0
1778.7261,57.0
1779.4376,78.0
1780.1494,56.0
1780.8615,65.0
1781.5739,69.0
1782.2865,58.0
1782.9994,54.0
1783.7126,54.0
1784.4261,59.0
1785.1399,56.0
1785.854,71.0
1786.5684,72.0
1787.283,71.0
1787.9979,59.0
1788.7131,75.0
1789.4286,69.0
1790.1444,65.0
1790.8605,60.0
1791.5768,75.0
1792.2935,59.0
1793.0104,37.0
1793.7275,70.0
1794.4451,59.0
1795.1628,52.0
1795.8809,62.0
1796.5992,66.0
1797.3179,61.0
1798.0367,56.0
1798.756,49.0
1799.4755,71.0
1800.1953,61.0
1800.9154,65.0
1801.6357,63.0
1802.3564,68.0
1803.0774,46.0
1803.7986,50.0
1804.5201,65.0
1805.242,103.0
1805.964,164.0
1806.6864,202.0
1807.409,135.0
1808.1321,61.0
1808.8553,80.0
1809.5789,82.0
1810.3027,61.0
1811.0269,68.0
1811.7512,80.0
1812.476,65.0
1813.2009,51.0
1813.9261,69.0
1814.6517,78.0
1815.3776,68.0
1816.1038,50.0
1816.8302,68.0
1817.5569,57.0
1818.2839,44.0
1819.0112,68.0
1819.7389,76.0
1820.4668,66.0
1821.195,66.0
1821.9235,63.0
1822.6522,67.0
1823.3812,50.0
1824.1106,69.0
1824.8402,64.0
1825.5702,72.0
1826.3004,54.0
1827.0309,62.0
1827.7617,97.0
1828.4928,85.0
1829.2242,60.0
1829.9559,66.0
1830.6879,67.0
1831.4202,63.0
1832.1527,51.0
1832.8856,67.0
1833.6188,80.0
1834.3522,58.0
1835.0859,70.0
1835.82,59.0
1836.5543,74.0
1837.289,58.0
1838.0238,69.0
1838.759,84.0
1839.4945,74.0
1840.2303,69.0
1840.9664,57.0
1841.7028,74.0
1842.4395,54.0
1843.1764,64.0
1843.9137,60.0
1844.6512,65.0
1845.3892,61.0
1846.1273,45.0
1846.8657,46.0
1847.6045,60.0
1848.3435,57.0
1849.0829,66.0
1849.8225,59.0
1850.5624,86.0
1851.3026,73.0
1852.0431,63.0
1852.7839,65.0
1853.525,65.0
1854.2665,70.0
1855.0082,63.0
1855.7501,55.0
1856.4924,89.0
1857.235,64.0
1857.9779,84.0
1858.7211,86.0
1859.4646,80.0
1860.2084,55.0
1860.9525,57.0
1861.6969,72.0
1862.4415,52.0
1863.1865,53.0
1863.9318,54.0
1864.6774,70.0
1865.4232,63.0
1866.1694,55.0
1866.9159,74.0
1867.6627,88.0
1868.4098,59.0
1869.1571,59.0
1869.9048,73.0
1870.6527,62.0
1871.401,65.0
1872.1495,45.0
1872.8984,44.0
1873.6476,78.0
1874.3971,68.0
1875.1469,49.0
1875.8969,74.0
1876.6472,84.0
1877.3978,58.0
1878.1488,51.0
1878.9,69.0
1879.6516,73.0
1880.4034,58.0
1881.1556,47.0
1881.9081,53.0
1882.6609,76.0
1883.414,69.0
1884.1674,50.0
1884.921,159.0
1885.675,196.0
1886.4293,140.0
1887.1838,72.0
1887.9387,83.0
1888.6938,79.0
1889.4493,64.0
1890.2051,49.0
1890.9612,52.0
1891.7175,60.0
1892.4742,69.0
1893.2312,66.0
1893.9885,70.0
1894.7461,61.0
1895.504,70.0
1896.2622,65.0
1897.0208,71.0
1897.7795,74.0
1898.5387,66.0
1899.2981,61.0
1900.0579,39.0
1900.8179,70.0
1901.5782,68.0
1902.3389,51.0
1903.0999,52.0
1903.8611,68.0
1904.6227,63.0
1905.3845,49.0
1906.1467,50.0
1906.9092,64.0
1907.672,64.0
1908.435,61.0
1909.1985,54.0
1909.9622,51.0
1910.7262,50.0
1911.4905,100.0
1912.2551,82.0
1913.02,74.0
1913.7853,206.0
1914.5508,151.0
1915.3167,79.0
1916.0828,114.0
1916.8492,78.0
1917.616,65.0
1918.383,54.0
1919.1504,59.0
1919.9181,65.0
1920.686,66.0
1921.4543,76.0
1922.2229,39.0
1922.9918,43.0
1923.761,57.0
1924.5305,78.0
1925.3003,43.0
1926.0704,41.0
1926.8408,51.0
1927.6116,66.0
1928.3826,68.0
1929.1539,42.0
1929.9255,62.0
1930.6975,63.0
1931.4698,57.0
1932.2424,43.0
1933.0154,51.0
1933.7886,62.0
1934.5621,56.0
1935.3359,47.0
1936.1101,59.0
1936.8845,69.0
1937.6593,72.0
1938.4343,63.0
1939.2097,46.0
1939.9854,49.0
1940.7614,52.0
1941.5376,55.0
1942.3142,52.0
1943.0912,48.0
1943.8684,64.0
1944.646,47.0
1945.4238,44.0
1946.202,40.0
1946.9805,51.0
1947.7593,66.0
1948.5383,76.0
1949.3177,42.0
1950.0975,48.0
1950.8776,58.0
1951.658,60.0
1952.4386,50.0
1953.2196,44.0
1954.0009,61.0
1954.7825,69.0
1955.5643,79.0
1956.3466,52.0
1957.1292,60.0
1957.912,58.0
1958.6952,61.0
1959.4786,62.0
1960.2625,59.0
1961.0465,53.0
1961.8309,50.0
1962.6157,52.0
1963.4008,57.0
1964.1862,46.0
1964.9718,62.0
1965.7578,53.0
1966.5441,58.0
1967.3307,50.0
1968.1177,54.0
1968.9049,69.0
1969.6925,53.0
1970.4803,83.0
1971.2686,63.0
1972.057,49.0
1972.8458,64.0
1973.635,42.0
1974.4244,53.0
1975.2142,50.0
1976.0043,43.0
1976.7947,72.0
1977.5854,48.0
1978.3765,63.0
1979.1678,44.0
1979.9595,66.0
1980.7515,50.0
1981.5438,66.0
1982.3364,50.0
1983.1294,62.0
1983.9226,56.0
1984.7162,47.0
1985.5101,59.0
1986.3043,51.0
1987.0989,46.0
1987.8937,63.0
1988.6888,47.0
1989.4844,58.0
1990.2802,35.0
1991.0763,59.0
1991.8727,63.0
1992.6694,74.0
1993.4666,84.0
1994.2639,65.0
1995.0616,74.0
1995.8596,77.0
1996.658,68.0
1997.4567,64.0
1998.2556,59.0
1999.0549,52.0
1999.8546,48.0
2000.6545,54.0
2001.4548,40.0
2002.2554,50.0
2003.0563,49.0
2003.8575,60.0
2004.659,48.0
2005.4609,56.0
2006.2631,42.0
2007.0656,56.0
2007.8684,62.0
2008.6715,50.0
2009.475,94.0
2010.2788,99.0
2011.0829,72.0
2011.8873,116.0
2012.6921,103.0
2013.4972,73.0
2014.3026,66.0
2015.1083,55.0
2015.9143,53.0
2016.7207,53.0
2017.5273,57.0
2018.3344,45.0
2019.1417,39.0
2019.9493,50.0
2020.7573,44.0
2021.5657,53.0
2022.3743,48.0
2023.1832,56.0
2023.9926,53.0
2024.8021,50.0
2025.612,79.0
2026.4224,87.0
2027.2329,60.0
2028.0438,73.0
2028.855,67.0
2029.6665,64.0
2030.4784,59.0
2031.2905,61.0
2032.103,48.0
2032.9159,57.0
2033.729,45.0
2034.5425,59.0
2035.3563,51.0
2036.1704,45.0
2036.9849,58.0
2037.7997,54.0
2038.6147,67.0
2039.4302,56.0
2040.246,53.0
2041.062,49.0
2041.8784,57.0
2042.6952,74.0
2043.5123,48.0
2044.3297,48.0
2045.1475,44.0
2045.9656,66.0
2046.7839,61.0
2047.6027,48.0
2048.4216,58.0
2049.241,43.0
2050.0605,51.0
2050.8806,55.0
2051.701,67.0
2052.5217,78.0
2053.3428,58.0
2054.164,56.0
2054.9858,52.0
2055.8079,67.0
2056.6301,47.0
2057.453,61.0
2058.276,59.0
2059.099,49.0
2059.9229,44.0
2060.7468,49.0
2061.571,54.0
2062.3958,44.0
2063.2207,48.0
2064.046,60.0
2064.8716,59.0
2065.6975,62.0
2066.5237,54.0
2067.3503,69.0
2068.1772,43.0
2069.0046,61.0
2069.8323,60.0
2070.6602,58.0
2071.4885,58.0
2072.3171,44.0
2073.146,51.0
2073.9753,59.0
2074.805,47.0
2075.6348,60.0
2076.465,81.0
2077.2957,38.0
2078.1265,50.0
2078.9578,59.0
2079.7893,56.0
2080.6213,60.0
2081.4536,49.0
2082.2861,62.0
2083.1191,78.0
2083.9524,70.0
2084.786,69.0
2085.6199,65.0
2086.454,60.0
2087.2886,40.0
2088.1235,54.0
2088.9587,46.0
2089.7944,41.0
2090.6304,61.0
2091.4666,56.0
2092.3032,48.0
2093.1401,35.0
2093.9773,56.0
2094.815,60.0
2095.6528,48.0
2096.4912,54.0
2097.3298,46.0
2098.1687,50.0
2099.008,45.0
2099.8477,48.0
2100.6875,54.0
2101.5278,60.0
2102.3684,57.0
2103.2095,68.0
2104.0508,56.0
2104.8923,59.0
2105.7344,61.0
2106.5767,51.0
2107.4192,65.0
2108.2622,50.0
2109.1055,55.0
2109.9492,52.0
2110.7932,58.0
2111.6375,47.0
2112.4822,57.0
2113.3271,43.0
2114.1724,54.0
2115.018,51.0
2115.864,70.0
2116.7104,50.0
2117.5571,54.0
2118.404,47.0
2119.2515,47.0
2120.099,52.0
2120.9473,58.0
2121.7957,41.0
2122.6443,45.0
2123.4934,54.0
2124.3428,49.0
2125.1926,40.0
2126.0427,57.0
2126.893,43.0
2127.744,47.0
2128.595,44.0
2129.4463,60.0
2130.298,47.0
2131.1501,47.0
2132.0027,43.0
2132.8555,40.0
2133.7085,54.0
2134.562,52.0
2135.4158,56.0
2136.27,59.0
2137.1245,51.0
2137.9792,70.0
2138.8345,55.0
2139.69,65.0
2140.546,58.0
2141.402,52.0
2142.2585,66.0
2143.1155,74.0
2143.9727,44.0
2144.8303,57.0
2145.6882,56.0
2146.5464,55.0
2147.405,44.0
2148.264,55.0
2149.1233,60.0
2149.983,54.0
2150.843,51.0
2151.7034,51.0
2152.564,44.0
2153.425,64.0
2154.2864,41.0
2155.1482,48.0
2156.0103,59.0
2156.8726,46.0
2157.7354,53.0
2158.5984,58.0
2159.462,68.0
2160.3257,57.0
2161.1897,55.0
2162.0542,63.0
2162.919,66.0
2163.7842,70.0
2164.6497,61.0
2165.5156,59.0
2166.3818,57.0
2167.2483,57.0
2168.1152,56.0
2168.9824,54.0
2169.85,52.0
2170.718,49.0
2171.5864,59.0
2172.455,61.0
2173.324,55.0
2174.1934,47.0
2175.063,65.0
2175.933,52.0
2176.8035,60.0
2177.674,50.0
2178.5452,65.0
2179.4165,69.0
2180.2883,68.0
2181.1604,44.0
2182.033,57.0
2182.9058,54.0
2183.7788,54.0
2184.6523,50.0
2185.5261,58.0
2186.4004,50.0
2187.275,49.0
2188.15,42.0
2189.0251,40.0
2189.9006,53.0
2190.7766,43.0
2191.6528,62.0
2192.5295,53.0
2193.4065,41.0
2194.284,65.0
2195.1616,48.0
2196.0398,54.0
2196.9182,64.0
2197.7969,63.0
2198.676,59.0
2199.5554,51.0
2200.4353,70.0
2201.3154,53.0
2202.196,45.0
2203.077,50.0
2203.9583,56.0
2204.8398,55.0
2205.7217,58.0
2206.604,60.0
2207.4866,47.0
2208.3696,40.0
2209.253,45.0
2210.1367,57.0
2211.0208,48.0
2211.9053,57.0
2212.79,61.0
2213.675,59.0
2214.5605,70.0
2215.4463,68.0
2216.3325,57.0
2217.219,58.0
2218.106,47.0
2218.9932,47.0
2219.8809,46.0
2220.7688,49.0
2221.6572,49.0
2222.546,46.0
2223.4348,46.0
2224.3242,47.0
2225.2139,56.0
2226.104,50.0
2226.9944,43.0
2227.8853,43.0
2228.7764,54.0
2229.668,52.0
2230.5598,66.0
2231.4521,47.0
2232.3447,49.0
2233.2375,72.0
2234.1309,72.0
2235.0244,76.0
2235.9185,64.0
2236.8127,56.0
2237.7075,73.0
2238.6025,52.0
2239.498,48.0
2240.3938,43.0
2241.29,45.0
2242.1865,58.0
2243.0835,59.0
2243.9807,51.0
2244.8784,47.0
2245.7764,39.0
2246.6746,52.0
2247.5732,62.0
2248.4722,77.0
2249.3716,48.0
2250.2712,55.0
2251.1714,51.0
2252.0718,59.0
2252.9727,58.0
2253.8738,55.0
2254.7754,49.0
2255.6772,72.0
2256.5796,52.0
2257.4822,50.0
2258.3853,65.0
2259.2886,59.0
2260.1924,61.0
2261.0964,54.0
2262.001,58.0
2262.9058,72.0
2263.811,52.0
2264.7166,55.0
2265.6226,60.0
2266.5288,44.0
2267.4353,58.0
2268.3423,42.0
2269.2495,43.0
2270.1572,40.0
2271.0652,47.0
2271.9736,57.0
2272.8823,67.0
2273.7915,48.0
2274.701,61.0
2275.6108,109.0
2276.521,119.0
2277.4316,101.0
2278.3425,78.0
2279.254,77.0
2280.1655,64.0
2281.0776,70.0
2281.99,57.0
2282.9028,77.0
2283.816,63.0
2284.7295,57.0
2285.6433,60.0
2286.5576,47.0
2287.4722,54.0
2288.3872,58.0
2289.3025,58.0
2290.2183,48.0
2291.1343,74.0
2292.0508,64.0
2292.9675,71.0
2293.8848,84.0
2294.8022,85.0
2295.7202,58.0
2296.6384,54.0
2297.5571,62.0
2298.476,51.0
2299.3955,57.0
2300.3152,51.0
2301.2354,62.0
2302.1558,78.0
2303.0767,95.0
2303.9978,76.0
2304.9194,73.0
2305.8413,58.0
2306.7637,71.0
2307.6863,54.0
2308.6094,57.0
2309.5327,58.0
2310.4565,47.0
2311.3806,38.0
2312.3052,48.0
2313.23,64.0
2314.1553,58.0
2315.081,52.0
2316.007,65.0
2316.9336,59.0
2317.8604,56.0
2318.7876,92.0
2319.715,133.0
2320.643,81.0
2321.5713,66.0
2322.5,50.0
2323.429,51.0
2324.3584,60.0
2325.288,70.0
2326.2183,51.0
2327.1487,65.0
2328.0796,85.0
2329.0107,83.0
2329.9424,69.0
2330.8743,51.0
2331.8066,58.0
2332.7393,56.0
2333.6724,57.0
2334.6057,42.0
2335.5396,54.0
2336.4739,52.0
2337.4084,41.0
2338.3435,56.0
2339.2788,50.0
2340.2146,49.0
2341.1506,55.0
2342.0872,51.0
2343.024,57.0
2343.9612,77.0
2344.8987,88.0
2345.8367,107.0
2346.775,97.0
2347.7136,88.0
2348.6526,78.0
2349.592,57.0
2350.532,58.0
2351.4722,70.0
2352.4128,55.0
2353.3538,56.0
2354.2952,61.0
2355.2368,65.0
2356.179,50.0
2357.1213,59.0
2358.0642,49.0
2359.0073,55.0
2359.951,50.0
2360.895,42.0
2361.8394,58.0
2362.7842,82.0
2363.7292,75.0
2364.6748,67.0
2365.6206,64.0
2366.567,58.0
2367.5134,57.0
2368.4604,60.0
2369.4077,58.0
2370.3555,67.0
2371.3037,55.0
2372.2522,74.0
2373.2012,65.0
2374.1504,48.0
2375.1,47.0
2376.05,41.0
2377.0005,59.0
2377.9512,62.0
2378.9023,72.0
2379.854,74.0
2380.806,50.0
2381.7583,54.0
2382.711,51.0
2383.664,49.0
2384.6174,53.0
2385.5713,61.0
2386.5256,56.0
2387.4802,70.0
2388.4353,97.0
2389.3906,97.0
2390.3464,98.0
2391.3025,58.0
2392.259,57.0
2393.2158,55.0
2394.173,60.0
2395.1309,55.0
2396.0889,72.0
2397.0474,73.0
2398.006,78.0
2398.9653,58.0
2399.9248,58.0
2400.8848,63.0
2401.8452,52.0
2402.806,38.0
2403.767,60.0
2404.7285,55.0
2405.6904,65.0
2406.6526,60.0
2407.6152,55.0
2408.5784,51.0
2409.5417,60.0
2410.5056,54.0
2411.4697,68.0
2412.4343,57.0
2413.3994,64.0
2414.3647,64.0
2415.3306,80.0
2416.2966,74.0
2417.2632,63.0
2418.23,57.0
2419.1973,64.0
2420.165,67.0
2421.133,69.0
2422.1016,67.0
2423.0703,74.0
2424.0396,76.0
2425.0093,64.0
2425.9792,52.0
2426.9497,48.0
2427.9204,49.0
2428.8916,52.0
2429.863,52.0
2430.835,79.0
2431.8074,100.0
2432.78,87.0
2433.7532,66.0
2434.7266,63.0
2435.7004,49.0
2436.6748,57.0
2437.6494,42.0
2438.6245,67.0
2439.5999,55.0
2440.5757,57.0
2441.552,59.0
2442.5286,51.0
2443.5056,58.0
2444.483,64.0
2445.4607,54.0
2446.439,60.0
2447.4175,74.0
2448.3965,63.0
2449.3757,62.0
2450.3555,46.0
2451.3357,69.0
2452.3162,61.0
2453.297,69.0
2454.2783,56.0
2455.26,57.0
2456.2422,59.0
2457.2246,55.0
2458.2075,58.0
2459.191,44.0
2460.1746,49.0
2461.1587,51.0
2462.143,57.0
2463.128,70.0
2464.1133,62.0
2465.0989,97.0
2466.085,73.0
2467.0713,70.0
2468.058,78.0
2469.0454,48.0
2470.033,74.0
2471.021,53.0
2472.0095,72.0
2472.9983,46.0
2473.9875,42.0
2474.977,51.0
2475.967,53.0
2476.9575,50.0
2477.9482,61.0
2478.9395,52.0
2479.931,61.0
2480.9229,64.0
2481.9153,79.0
2482.908,68.0
2483.9011,60.0
2484.8948,63.0
2485.8887,57.0
2486.883,43.0
2487.878,68.0
2488.873,55.0
2489.8687,69.0
2490.8645,51.0
2491.8608,60.0
2492.8577,65.0
2493.8547,64.0
2494.8523,58.0
2495.8503,71.0
2496.8486,65.0
2497.8474,60.0
2498.8464,96.0
2499.846,74.0
2500.846,68.0
2501.8462,66.0
2502.847,61.0
2503.8481,51.0
2504.8496,60.0
2505.8516,38.0
2506.854,60.0
2507.8567,47.0
2508.8599,46.0
2509.8635,53.0
2510.8674,53.0
2511.8718,74.0
2512.8765,61.0
2513.8816,63.0
2514.8872,52.0
2515.893,54.0
2516.8994,48.0
2517.9062,54.0
2518.9133,61.0
2519.921,65.0
2520.929,66.0
2521.9373,61.0
2522.946,60.0
2523.9553,64.0
2524.9648,45.0
2525.9749,47.0
2526.9854,46.0
2527.996,68.0
2529.0073,54.0
2530.019,59.0
2531.031,79.0
2532.0435,57.0
2533.0562,67.0
2534.0693,65.0
2535.083,60.0
2536.097,48.0
2537.1113,64.0
2538.1262,63.0
2539.1414,50.0
2540.157,48.0
2541.173,54.0
2542.1895,54.0
2543.2063,40.0
2544.2236,55.0
2545.2412,50.0
2546.2593,56.0
2547.2778,52.0
2548.2966,72.0
2549.316,65.0
2550.3357,64.0
2551.3557,70.0
2552.3762,60.0
2553.3972,61.0
2554.4185,46.0
2555.4402,55.0
2556.4624,51.0
2557.485,62.0
2558.508,53.0
2559.5315,57.0
2560.5554,65.0
2561.5796,83.0
2562.6042,77.0
2563.6294,79.0
2564.6548,74.0
2565.6807,71.0
2566.707,66.0
2567.7336,72.0
2568.7607,67.0
2569.7883,52.0
2570.8162,64.0
2571.8445,44.0
2572.8733,30.0
2573.9023,48.0
2574.932,53.0
2575.962,71.0
2576.9922,82.0
2578.023,64.0
2579.0542,64.0
2580.086,57.0
2581.118,62.0
2582.1504,63.0
2583.1833,52.0
2584.2166,54.0
2585.2502,57.0
2586.2844,58.0
2587.3188,71.0
2588.3538,51.0
2589.3892,47.0
2590.4248,56.0
2591.461,60.0
2592.4976,93.0
2593.5347,104.0
2594.572,101.0
2595.6099,69.0
2596.6482,68.0
2597.6868,63.0
2598.7258,54.0
2599.7654,57.0
2600.8052,48.0
2601.8455,49.0
2602.8862,57.0
2603.9275,63.0
2604.969,63.0
2606.011,73.0
2607.0535,53.0
2608.0962,59.0
2609.1394,76.0
2610.183,87.0
2611.2273,74.0
2612.2717,76.0
2613.3167,63.0
2614.362,67.0
2615.4077,69.0
2616.4539,81.0
2617.5005,72.0
2618.5476,77.0
2619.595,76.0
2620.6428,68.0
2621.6912,94.0
2622.7397,58.0
2623.7888,68.0
2624.8384,60.0
2625.8884,58.0
2626.9387,79.0
2627.9895,68.0
2629.0408,46.0
2630.0923,65.0
2631.1443,61.0
2632.1968,73.0
2633.2498,69.0
2634.303,67.0
2635.3567,74.0
2636.411,76.0
2637.4653,69.0
2638.5203,57.0
2639.5757,50.0
2640.6316,45.0
2641.6877,47.0
2642.7444,45.0
2643.8015,59.0
2644.8591,56.0
2645.917,61.0
2646.9753,86.0
2648.0342,81.0
2649.0935,69.0
2650.153,68.0
2651.2131,64.0
2652.2737,56.0
2653.3345,70.0
2654.3958,59.0
2655.4575,52.0
2656.5198,56.0
2657.5823,49.0
2658.6453,57.0
2659.7087,60.0
2660.7727,70.0
2661.837,78.0
2662.9016,87.0
2663.9668,116.0
2665.0325,137.0
2666.0984,133.0
2667.1648,103.0
2668.2317,81.0
2669.299,97.0
2670.3667,73.0
2671.4348,67.0
2672.5034,68.0
2673.5725,60.0
2674.6418,48.0
2675.7117,58.0
2676.782,60.0
2677.8528,64.0
2678.9238,67.0
2679.9954,70.0
2681.0674,68.0
2682.14,50.0
2683.2126,71.0
2684.286,64.0
2685.3596,56.0
2686.4338,52.0
2687.5083,49.0
2688.5833,83.0
2689.6587,62.0
2690.7346,59.0
2691.8108,73.0
2692.8875,65.0
2693.9646,90.0
2695.0422,87.0
2696.1204,75.0
2697.1987,73.0
2698.2776,58.0
2699.357,85.0
2700.4368,79.0
2701.5168,72.0
2702.5974,62.0
2703.6785,63.0
2704.76,69.0
2705.8418,49.0
2706.924,83.0
2708.0068,51.0
2709.09,56.0
2710.1738,59.0
2711.2578,60.0
2712.3423,68.0
2713.4272,73.0
2714.5127,76.0
2715.5984,57.0
2716.6846,65.0
2717.7712,89.0
2718.8584,69.0
2719.946,72.0
2721.034,65.0
2722.1223,67.0
2723.2112,61.0
2724.3005,86.0
2725.3901,63.0
2726.4802,71.0
2727.5708,64.0
2728.6619,59.0
2729.7534,79.0
2730.8452,77.0
2731.9375,67.0
2733.0303,69.0
2734.1235,61.0
2735.2173,101.0
2736.3113,128.0
2737.4058,83.0
2738.5007,52.0
2739.5962,85.0
2740.6921,59.0
2741.7883,67.0
2742.885,51.0
2743.9822,65.0
2745.0798,74.0
2746.178,65.0
2747.2764,49.0
2748.3752,62.0
2749.4746,71.0
2750.5745,78.0
2751.6748,80.0
2752.7754,79.0
2753.8765,53.0
2754.978,69.0
2756.08,39.0
2757.1826,65.0
2758.2854,60.0
2759.3887,73.0
2760.4924,72.0
2761.5967,64.0
2762.7014,48.0
2763.8064,77.0
2764.9119,74.0
2766.0178,70.0
2767.1243,60.0
2768.2312,59.0
2769.3384,70.0
2770.446,64.0
2771.5542,73.0
2772.6628,68.0
2773.772,56.0
2774.8816,80.0
2775.9915,79.0
2777.1018,93.0
2778.2126,86.0
2779.324,80.0
2780.4358,72.0
2781.5479,70.0
2782.6604,91.0
2783.7734,72.0
2784.887,55.0
2786.001,63.0
2787.1155,62.0
2788.2302,68.0
2789.3455,59.0
2790.4612,75.0
2791.5774,135.0
2792.694,190.0
2793.8113,269.0
2794.9287,285.0
2796.0466,174.0
2797.165,133.0
2798.284,117.0
2799.4033,107.0
2800.5232,92.0
2801.6433,90.0
2802.764,99.0
2803.885,96.0
2805.0066,82.0
2806.1287,118.0
2807.2512,165.0
2808.374,182.0
2809.4973,123.0
2810.621,133.0
2811.7454,93.0
2812.87,88.0
2813.9954,106.0
2815.1208,127.0
2816.2468,134.0
2817.3733,121.0
2818.5002,97.0
2819.6277,101.0
2820.7556,83.0
2821.884,108.0
2823.0127,95.0
2824.1418,106.0
2825.2715,93.0
2826.4016,94.0
2827.5322,88.0
2828.6633,115.0
2829.7947,112.0
2830.9265,110.0
2832.0588,111.0
2833.1917,101.0
2834.325,108.0
2835.4587,103.0
2836.593,83.0
2837.7275,95.0
2838.8625,73.0
2839.998,103.0
2841.134,87.0
2842.2705,92.0
2843.4075,99.0
2844.545,80.0
2845.6829,99.0
2846.821,116.0
2847.9597,133.0
2849.0989,148.0
2850.2385,153.0
2851.3787,133.0
2852.5193,108.0
2853.6604,110.0
2854.8018,109.0
2855.9436,117.0
2857.086,126.0
2858.2288,133.0
2859.372,101.0
2860.5159,95.0
2861.6602,85.0
2862.805,103.0
2863.95,157.0
2865.0955,190.0
2866.2415,191.0
2867.388,211.0
2868.535,138.0
2869.6824,109.0
2870.8303,97.0
2871.9788,109.0
2873.1274,125.0
2874.2766,119.0
2875.4263,139.0
2876.5764,115.0
2877.727,113.0
2878.8782,110.0
2880.0298,99.0
2881.182,94.0
2882.3345,102.0
2883.4873,100.0
2884.6406,82.0
2885.7944,78.0
2886.9487,102.0
2888.1035,123.0
2889.2588,141.0
2890.4146,227.0
2891.5708,258.0
2892.7275,237.0
2893.8845,183.0
2895.042,118.0
2896.2,125.0
2897.3584,98.0
2898.5173,107.0
2899.6768,83.0
2900.8367,93.0
2901.997,82.0
2903.158,83.0
2904.3193,95.0
2905.481,121.0
2906.643,121.0
2907.8057,404.0
2908.9688,530.0
2910.1323,459.0
2911.2964,318.0
2912.461,200.0
2913.626,138.0
2914.7915,126.0
2915.9575,92.0
2917.124,109.0
2918.2908,94.0
2919.458,116.0
2920.6257,84.0
2921.794,149.0
2922.9626,165.0
2924.1318,180.0
2925.3015,148.0
2926.4717,119.0
2927.6423,111.0
2928.8135,90.0
2929.985,113.0
2931.157,144.0
2932.3293,132.0
2933.5022,134.0
2934.6755,82.0
2935.8494,102.0
2937.0237,81.0
2938.1985,97.0
2939.3738,121.0
2940.5496,102.0
2941.7258,92.0
2942.9026,115.0
2944.0798,120.0
2945.2576,123.0
2946.4358,125.0
2947.6143,120.0
2948.7932,171.0
2949.9727,161.0
2951.1526,130.0
2952.333,134.0
2953.514,121.0
2954.6953,88.0
2955.8772,98.0
2957.0596,102.0
2958.2424,107.0
2959.4258,132.0
2960.6096,107.0
2961.794,111.0
2962.9788,90.0
2964.164,110.0
2965.3496,96.0
2966.5356,99.0
2967.7222,91.0
2968.9092,108.0
2970.0967,92.0
2971.2847,114.0
2972.4731,108.0
2973.662,118.0
2974.8516,122.0
2976.0415,107.0
2977.232,127.0
2978.4229,112.0
2979.6143,118.0
2980.8062,114.0
2981.9985,112.0
2983.1914,124.0
2984.3848,126.0
2985.5786,114.0
2986.773,96.0
2987.9678,112.0
2989.1628,120.0
2990.3584,110.0
2991.5544,119.0
2992.751,94.0
2993.948,113.0
2995.1455,131.0
2996.3435,114.0
2997.542,114.0
2998.741,97.0
2999.9404,95.0
3001.1404,110.0
3002.3408,119.0
3003.5417,108.0
3004.7432,113.0
3005.945,100.0
3007.1475,136.0
3008.3503,137.0
3009.5537,158.0
3010.7576,143.0
3011.962,96.0
3013.1667,95.0
3014.372,123.0
3015.578,152.0
3016.7842,126.0
3017.991,99.0
3019.1982,100.0
3020.406,178.0
3021.6143,195.0
3022.823,129.0
3024.0322,111.0
3025.242,131.0
3026.4521,150.0
3027.6628,114.0
3028.874,110.0
3030.0857,112.0
3031.2976,128.0
3032.51,98.0
3033.723,98.0
3034.9363,95.0
3036.1501,106.0
3037.3645,84.0
3038.5793,103.0
3039.7947,98.0
3041.0105,113.0
3042.2268,91.0
3043.4436,96.0
3044.661,100.0
3045.8787,76.0
3047.097,93.0
3048.3157,107.0
3049.535,101.0
3050.7546,86.0
3051.9749,94.0
3053.1956,89.0
3054.4167,111.0
3055.6384,107.0
3056.8606,89.0
3058.0833,92.0
3059.3064,104.0
3060.53,119.0
3061.7542,92.0
3062.9788,86.0
3064.2039,109.0
3065.4294,129.0
3066.6555,108.0
3067.882,105.0
3069.1091,110.0
3070.3367,109.0
3071.5647,122.0
3072.7932,97.0
3074.0222,76.0
3075.2517,100.0
3076.4817,119.0
3077.7124,96.0
3078.9436,102.0
3080.1753,92.0
3081.4075,98.0
3082.6401,96.0
3083.8733,75.0
3085.107,81.0
3086.341,72.0
3087.5757,93.0
3088.8108,98.0
3090.0464,85.0
3091.2825,82.0
3092.519,111.0
3093.756,122.0
3094.9937,109.0
3096.2317,117.0
3097.4702,131.0
3098.7092,123.0
3099.9487,84.0
3101.1887,90.0
3102.4292,98.0
3103.6702,102.0
3104.9116,106.0
3106.1536,84.0
3107.396,94.0
3108.639,97.0
3109.8823,146.0
3111.1262,186.0
3112.3706,163.0
3113.6155,117.0
3114.8608,121.0
3116.1067,114.0
3117.353,109.0
3118.5999,91.0
3119.8474,95.0
3121.0955,85.0
3122.344,83.0
3123.593,106.0
3124.8425,80.0
3126.0925,101.0
3127.343,96.0
3128.594,120.0
3129.8455,88.0
3131.0974,112.0
3132.3499,99.0
3133.6028,105.0
3134.8562,83.0
3136.11,89.0
3137.3645,109.0
3138.6194,97.0
3139.8748,107.0
3141.1306,90.0
3142.387,104.0
3143.6438,94.0
3144.9014,81.0
3146.1594,108.0
3147.418,97.0
3148.677,85.0
3149.9365,88.0
3151.1965,83.0
3152.457,116.0
3153.718,91.0
3154.9795,88.0
3156.2415,85.0
3157.504,86.0
3158.7668,85.0
3160.0303,87.0
3161.2942,89.0
3162.5586,92.0
3163.8237,76.0
3165.0894,85.0
3166.3555,95.0
3167.622,100.0
3168.8892,87.0
3170.1567,99.0
3171.4248,97.0
3172.6934,95.0
3173.9624,78.0
3175.232,86.0
3176.502,89.0
3177.7725,87.0
3179.0435,91.0
3180.3152,95.0
3181.5874,102.0
3182.86,73.0
3184.1333,78.0
3185.407,86.0
3186.6812,101.0
3187.9558,109.0
3189.231,110.0
3190.5066,111.0
3191.7827,85.0
3193.0593,95.0
3194.3367,97.0
3195.6145,105.0
3196.8928,107.0
3198.1716,85.0
3199.451,89.0
3200.7307,89.0
3202.011,98.0
3203.2917,89.0
3204.573,87.0
3205.8547,106.0
3207.137,69.0
3208.42,82.0
3209.7034,105.0
3210.9873,99.0
3212.2717,98.0
3213.5566,94.0
3214.842,108.0
3216.128,108.0
3217.4143,115.0
3218.7012,102.0
3219.9888,72.0
3221.2769,91.0
3222.5654,99.0
3223.8545,86.0
3225.144,85.0
3226.434,99.0
3227.7246,100.0
3229.0156,103.0
3230.3071,95.0
3231.5994,93.0
3232.892,87.0
3234.1853,85.0
3235.479,122.0
3236.7732,113.0
3238.0679,97.0
3239.363,108.0
3240.6587,99.0
3241.9548,106.0
3243.2517,88.0
3244.549,110.0
3245.847,95.0
3247.1453,86.0
3248.444,71.0
3249.7434,71.0
3251.0432,85.0
3252.3438,122.0
3253.6448,113.0
3254.9463,90.0
3256.2483,105.0
3257.5508,96.0
3258.8538,92.0
3260.1572,99.0
3261.4612,79.0
3262.7659,87.0
3264.071,91.0
3265.3767,85.0
3266.6829,90.0
3267.9895,88.0
3269.2966,112.0
3270.6042,151.0
3271.9126,97.0
3273.2214,110.0
3274.5308,91.0
3275.8406,90.0
3277.151,81.0
3278.4617,103.0
3279.773,92.0
3281.085,83.0
3282.3975,86.0
3283.7104,94.0
3285.024,92.0
3286.338,96.0
3287.6523,111.0
3288.9673,82.0
3290.283,87.0
3291.599,109.0
3292.9158,103.0
3294.233,103.0
3295.5505,87.0
3296.8687,94.0
3298.1875,89.0
3299.5068,78.0
3300.8267,85.0
3302.147,123.0
3303.4678,94.0
3304.789,80.0
3306.111,87.0
3307.4336,93.0
3308.7566,99.0
3310.08,86.0
3311.404,104.0
3312.7285,94.0
3314.0537,95.0
3315.3794,98.0
3316.7056,103.0
3318.0322,92.0
3319.3594,109.0
3320.687,110.0
3322.0154,99.0
3323.3442,89.0
3324.6736,99.0
3326.0034,97.0
3327.3337,99.0
3328.6648,101.0
3329.9963,82.0
3331.3284,74.0
3332.661,96.0
3333.994,88.0
3335.3274,104.0
3336.6616,120.0
3337.9963,96.0
3339.3315,83.0
3340.6672,86.0
3342.0034,93.0
3343.3403,107.0
3344.6777,98.0
3346.0156,80.0
3347.354,92.0
3348.6929,101.0
3350.0322,100.0
3351.3723,103.0
3352.713,124.0
3354.054,101.0
3355.3955,123.0
3356.7375,109.0
3358.0803,94.0
3359.4236,86.0
3360.7673,102.0
3362.1116,73.0
3363.4563,88.0
3364.8018,99.0
3366.1477,78.0
3367.4941,97.0
3368.841,117.0
3370.1887,97.0
3371.5369,108.0
3372.8855,104.0
3374.2346,81.0
3375.5842,100.0
3376.9346,98.0
3378.2854,90.0
3379.6367,87.0
3380.9885,95.0
3382.3408,91.0
3383.6938,100.0
3385.0474,99.0
3386.4014,125.0
3387.7559,103.0
3389.1108,93.0
3390.4666,109.0
3391.8228,103.0
3393.1794,82.0
3394.5366,111.0
3395.8945,93.0
3397.253,113.0
3398.6118,102.0
3399.9712,84.0
3401.3313,100.0
3402.692,138.0
3404.053,103.0
3405.4146,99.0
3406.7766,112.0
3408.1394,106.0
3409.5027,96.0
3410.8665,91.0
3412.2307,120.0
3413.5957,117.0
3414.9612,116.0
3416.3271,96.0
3417.6936,99.0
3419.0608,89.0
3420.4285,105.0
3421.7966,117.0
3423.1653,84.0
3424.5347,85.0
3425.9045,90.0
3427.275,115.0
3428.6458,115.0
3430.017,111.0
3431.3892,113.0
3432.7617,109.0
3434.1348,103.0
3435.5083,106.0
3436.8826,100.0
3438.2573,97.0
3439.6326,90.0
3441.0083,97.0
3442.3848,89.0
3443.7617,88.0
3445.1392,102.0
3446.5173,100.0
3447.896,98.0
3449.2751,102.0
3450.6548,109.0
3452.0352,91.0
3453.416,104.0
3454.7974,102.0
3456.1792,91.0
3457.5618,111.0
3458.9448,97.0
3460.3284,97.0
3461.7124,101.0
3463.0972,90.0
3464.4824,129.0
3465.8682,95.0
3467.2544,85.0
3468.6414,94.0
3470.0288,97.0
3471.4167,65.0
3472.8054,110.0
3474.1946,103.0
3475.5842,113.0
3476.9744,107.0
3478.3652,99.0
3479.7566,113.0
3481.1484,94.0
3482.541,89.0
3483.934,102.0
3485.3276,103.0
3486.7217,105.0
3488.1165,104.0
3489.5117,120.0
3490.9075,107.0
3492.304,87.0
3493.701,93.0
3495.0984,105.0
3496.4963,118.0
3497.895,106.0
3499.2942,105.0
3500.6938,113.0
3502.0942,112.0
3503.495,126.0
3504.8965,116.0
3506.2983,118.0
3507.701,108.0
3509.104,101.0
3510.5076,114.0
3511.9119,116.0
3513.3167,105.0
3514.722,93.0
3516.128,105.0
3517.5344,99.0
3518.9414,92.0
3520.3489,117.0
3521.757,130.0
3523.1658,134.0
3524.575,109.0
3525.9849,94.0
3527.3953,96.0
3528.8062,94.0
3530.2178,141.0
3531.63,139.0
3533.0425,138.0
3534.4558,114.0
3535.8696,93.0
3537.284,106.0
3538.6987,105.0
3540.1143,93.0
3541.5303,106.0
3542.9468,98.0
3544.364,104.0
3545.7817,109.0
3547.2,90.0
3548.619,120.0
3550.0383,89.0
3551.4583,92.0
3552.879,97.0
3554.3,107.0
3555.7217,100.0
3557.144,110.0
3558.567,109.0
3559.9902,89.0
3561.4143,110.0
3562.8389,100.0
3564.264,95.0
3565.6897,104.0
3567.116,108.0
3568.5427,104.0
3569.9702,108.0
3571.3982,127.0
3572.8267,121.0
3574.2559,116.0
3575.6855,95.0
3577.1157,101.0
3578.5466,106.0
3579.978,110.0
3581.41,116.0
3582.8425,106.0
3584.2756,111.0
3585.7092,117.0
3587.1436,96.0
3588.5784,132.0
3590.014,97.0
3591.45,109.0
3592.8865,99.0
3594.3237,116.0
3595.7615,130.0
3597.1997,124.0
3598.6387,149.0
3600.0781,145.0
3601.518,116.0
3602.9587,135.0
3604.4,122.0
3605.8416,108.0
3607.284,131.0
3608.7268,160.0
3610.1704,111.0
3611.6145,120.0
3613.059,108.0
3614.5044,116.0
3615.9502,172.0
3617.3965,205.0
3618.8435,143.0
3620.291,119.0
3621.739,110.0
3623.1877,104.0
3624.637,120.0
3626.087,107.0
3627.5374,133.0
3628.9883,110.0
3630.44,123.0
3631.892,119.0
3633.3447,98.0
3634.798,117.0
3636.252,117.0
3637.7065,126.0
3639.1616,102.0
3640.6172,99.0
3642.0735,101.0
3643.5303,89.0
3644.9878,136.0
3646.4458,90.0
3647.9043,122.0
3649.3635,90.0
3650.8232,127.0
3652.2837,109.0
3653.7446,118.0
3655.206,113.0
3656.6682,130.0
3658.1309,121.0
3659.594,117.0
3661.0579,111.0
3662.5222,133.0
3663.9873,116.0
3665.453,136.0
3666.919,120.0
3668.3857,116.0
3669.853,120.0
3671.321,90.0
3672.7896,106.0
3674.2585,100.0
3675.7283,113.0
3677.1985,111.0
3678.6694,161.0
3680.1409,115.0
3681.613,130.0
3683.0857,132.0
3684.5588,99.0
3686.0327,109.0
3687.507,136.0
3688.9822,108.0
3690.4578,129.0
3691.9338,118.0
3693.4106,122.0
3694.888,122.0
3696.366,124.0
3697.8445,135.0
3699.3237,111.0
3700.8035,128.0
3702.2837,102.0
3703.7646,124.0
3705.246,132.0
3706.7283,136.0
3708.211,132.0
3709.6943,150.0
3711.1782,138.0
3712.6626,151.0
3714.1477,124.0
3715.6333,133.0
3717.1196,117.0
3718.6064,144.0
3720.094,125.0
3721.582,122.0
3723.0706,91.0
3724.5598,123.0
3726.0496,129.0
3727.54,118.0
3729.031,119.0
3730.5227,128.0
3732.015,121.0
3733.5078,152.0
3735.0012,159.0
3736.495,177.0
3737.9897,134.0
3739.4849,133.0
3740.9807,132.0
3742.477,159.0
3743.974,147.0
3745.4717,140.0
3746.97,138.0
3748.4688,121.0
3749.968,250.0
3751.468,400.0
3752.9685,415.0
3754.4697,255.0
3755.9714,171.0
3757.4739,159.0
3758.9768,133.0
3760.4805,119.0
3761.9846,128.0
3763.4895,139.0
3764.9949,133.0
3766.501,142.0
3768.0076,148.0
3769.515,142.0
3771.0227,124.0
3772.531,160.0
3774.04,148.0
3775.5496,132.0
3777.0598,144.0
3778.5706,140.0
3780.082,127.0
3781.594,133.0
3783.1067,152.0
3784.6199,160.0
3786.1338,152.0
3787.6482,157.0
3789.1633,120.0
3790.679,119.0
3792.1953,121.0
3793.7122,124.0
3795.2297,113.0
3796.7478,144.0
3798.2666,141.0
3799.786,151.0
3801.306,138.0
3802.8264,132.0
3804.3477,149.0
3805.8694,127.0
3807.3918,137.0
3808.9148,159.0
3810.4385,135.0
3811.9626,131.0
3813.4875,132.0
3815.013,164.0
3816.539,167.0
3818.0657,124.0
3819.593,128.0
3821.1208,110.0
3822.6494,126.0
3824.1785,131.0
3825.7083,145.0
3827.2385,124.0
3828.7695,147.0
3830.301,153.0
3831.8333,139.0
3833.366,136.0
3834.8994,157.0
3836.4333,127.0
3837.968,136.0
3839.5032,128.0
3841.039,142.0
3842.5754,129.0
3844.1125,137.0
3845.6501,133.0
3847.1885,155.0
3848.7273,173.0
3850.2668,141.0
3851.807,157.0
3853.3477,130.0
3854.889,130.0
3856.431,134.0
3857.9734,139.0
3859.5166,158.0
3861.0603,129.0
3862.6047,138.0
3864.1497,121.0
3865.6953,132.0
3867.2417,133.0
3868.7886,134.0
3870.3362,143.0
3871.8843,173.0
3873.433,173.0
3874.9824,162.0
3876.5325,140.0
3878.083,140.0
3879.6343,165.0
3881.186,156.0
3882.7385,168.0
3884.2915,164.0
3885.8452,172.0
3887.3997,149.0
3888.9546,147.0
3890.5103,133.0
3892.0664,136.0
3893.6233,149.0
3895.1807,194.0
3896.7388,147.0
3898.2974,149.0
3899.8567,158.0
3901.4167,174.0
3902.9773,154.0
3904.5386,157.0
3906.1003,152.0
3907.6628,152.0
3909.2258,135.0
3910.7896,135.0
3912.3538,137.0
3913.9187,146.0
3915.4844,135.0
3917.0505,141.0
3918.6174,155.0
3920.1848,121.0
3921.753,130.0
3923.3215,129.0
3924.8909,138.0
3926.461,129.0
3928.0315,130.0
3929.6028,130.0
3931.1746,144.0
3932.747,127.0
3934.32,118.0
3935.8938,136.0
3937.4683,130.0
3939.0432,118.0
3940.619,146.0
3942.195,174.0
3943.772,149.0
3945.3494,132.0
3946.9275,135.0
3948.5063,132.0
3950.0857,138.0
3951.6658,135.0
3953.2463,139.0
3954.8276,161.0
3956.4097,118.0
3957.9922,142.0
3959.5754,157.0
3961.1592,144.0
3962.7437,179.0
3964.3289,127.0
3965.9146,139.0
3967.501,129.0
3969.088,122.0
3970.6755,151.0
3972.264,145.0
3973.8528,137.0
3975.4424,144.0
3977.0325,135.0
3978.6233,157.0
3980.2148,129.0
3981.807,162.0
3983.3997,147.0
3984.993,141.0
3986.587,155.0
3988.1816,147.0
3989.7769,153.0
3991.3728,158.0
3992.9692,148.0
3994.5664,143.0
3996.1643,144.0
3997.7627,133.0
3999.3618,163.0
4000.9617,149.0
4002.562,150.0
4004.163,167.0
4005.7646,161.0
4007.367,144.0
4008.97,166.0
4010.5735,178.0
4012.1777,147.0
4013.7827,171.0
4015.3882,151.0
4016.9944,171.0
4018.601,191.0
4020.2085,195.0
4021.8167,191.0
4023.4253,190.0
4025.0347,179.0
4026.6448,181.0
4028.2554,223.0
4029.8667,218.0
4031.4788,199.0
4033.0913,182.0
4034.7046,214.0
4036.3184,221.0
4037.9329,269.0
4039.548,257.0
4041.1638,222.0
4042.7803,266.0
4044.3975,239.0
4046.0151,255.0
4047.6335,173.0
4049.2527,225.0
4050.8723,365.0
4052.4927,346.0
4054.1138,272.0
4055.7354,227.0
4057.3577,209.0
4058.9807,454.0
4060.6042,613.0
4062.2285,412.0
4063.8535,285.0
4065.479,263.0
4067.1052,293.0
4068.7322,344.0
4070.3596,350.0
4071.9878,358.0
4073.6167,348.0
4075.246,292.0
4076.8762,306.0
4078.507,264.0
4080.1384,341.0
4081.7705,406.0
4083.4033,369.0
4085.0366,413.0
4086.6707,526.0
4088.3054,413.0
4089.9407,348.0
4091.5767,274.0
4093.2134,725.0
4094.8506,1048.0
4096.489,604.0
4098.1274,288.0
4099.7666,258.0
4101.4067,828.0
4103.0474,2179.0
4104.6885,1688.0
4106.3306,597.0
4107.973,341.0
4109.616,303.0
4111.2603,234.0
4112.905,290.0
4114.55,335.0
4116.196,320.0
4117.8423,238.0
4119.4893,202.0
4121.137,170.0
4122.7856,220.0
4124.4346,230.0
4126.0845,187.0
4127.735,175.0
4129.3857,190.0
4131.0376,175.0
4132.69,196.0
4134.343,164.0
4135.9966,206.0
4137.651,168.0
4139.306,175.0
4140.962,156.0
4142.618,168.0
4144.2754,192.0
4145.933,191.0
4147.5913,196.0
4149.2505,154.0
4150.91,156.0
4152.5703,166.0
4154.2314,179.0
4155.893,185.0
4157.5557,203.0
4159.2188,169.0
4160.8823,182.0
4162.547,189.0
4164.212,169.0
4165.8774,193.0
4167.544,158.0
4169.211,173.0
4170.8784,168.0
4172.547,195.0
4174.216,191.0
4175.8857,209.0
4177.556,223.0
4179.227,192.0
4180.899,204.0
4182.5713,197.0
4184.244,179.0
4185.918,198.0
4187.5923,193.0
4189.267,207.0
4190.943,194.0
4192.619,163.0
4194.2964,164.0
4195.974,184.0
4197.6523,254.0
4199.3315,204.0
4201.011,180.0
4202.6914,183.0
4204.3726,193.0
4206.054,175.0
4207.737,197.0
4209.42,152.0
4211.1035,153.0
4212.788,160.0
4214.473,170.0
4216.1587,183.0
4217.845,183.0
4219.532,174.0
4221.22,163.0
4222.9087,134.0
4224.5977,148.0
4226.2876,144.0
4227.978,155.0
4229.6694,165.0
4231.3613,157.0
4233.0537,193.0
4234.747,194.0
4236.441,163.0
4238.1353,156.0
4239.8306,168.0
4241.5264,170.0
4243.223,141.0
4244.9204,175.0
4246.618,167.0
4248.317,198.0
4250.016,151.0
4251.7163,167.0
4253.417,178.0
4255.118,187.0
4256.8203,184.0
4258.523,162.0
4260.2266,184.0
4261.9307,200.0
4263.6353,204.0
4265.341,206.0
4267.047,201.0
4268.754,225.0
4270.4614,201.0
4272.1694,195.0
4273.8784,177.0
4275.588,230.0
4277.2983,330.0
4279.0093,227.0
4280.7207,213.0
4282.433,183.0
4284.146,289.0
4285.86,511.0
4287.574,368.0
4289.289,262.0
4291.005,220.0
4292.721,188.0
4294.4385,130.0
4296.1562,182.0
4297.8745,215.0
4299.5938,219.0
4301.3135,191.0
4303.034,171.0
4304.7554,180.0
4306.477,148.0
4308.1997,154.0
4309.923,148.0
4311.647,130.0
4313.3716,146.0
4315.097,149.0
4316.823,165.0
4318.55,148.0
4320.2773,153.0
4322.0054,147.0
4323.7344,141.0
4325.464,163.0
4327.194,131.0
4328.925,149.0
4330.6562,171.0
4332.3887,149.0
4334.1216,138.0
4335.8555,170.0
4337.59,157.0
4339.3247,151.0
4341.0605,173.0
4342.797,150.0
4344.534,166.0
4346.272,149.0
4348.0103,148.0
4349.7495,172.0
4351.4893,169.0
4353.23,136.0
4354.971,164.0
4356.7134,183.0
4358.456,198.0
4360.199,147.0
4361.9434,160.0
4363.688,146.0
4365.4336,165.0
4367.1797,170.0
4368.927,183.0
4370.6743,190.0
4372.4224,188.0
4374.1714,172.0
4375.921,185.0
4377.6714,183.0
4379.4224,193.0
4381.1743,203.0
4382.927,188.0
4384.6797,176.0
4386.4336,212.0
4388.188,182.0
4389.9434,226.0
4391.699,212.0
4393.456,201.0
4395.2134,204.0
4396.9717,220.0
4398.7305,237.0
4400.4897,236.0
4402.25,214.0
4404.0107,241.0
4405.7725,217.0
4407.5347,252.0
4409.298,299.0
4411.0615,265.0
4412.826,238.0
4414.5913,208.0
4416.357,304.0
4418.1235,352.0
4419.8906,299.0
4421.6587,331.0
4423.4272,298.0
4425.197,280.0
4426.967,261.0
4428.738,296.0
4430.5093,314.0
4432.2812,288.0
4434.054,311.0
4435.8276,297.0
4437.602,345.0
4439.377,406.0
4441.153,390.0
4442.929,332.0
4444.7065,302.0
4446.4844,329.0
4448.263,295.0
4450.0425,376.0
4451.8223,394.0
4453.603,362.0
4455.3843,374.0
4457.1665,403.0
4458.949,398.0
4460.733,418.0
4462.517,384.0
4464.3022,382.0
4466.088,436.0
4467.8745,472.0
4469.6616,419.0
4471.4497,437.0
4473.2383,461.0
4475.0273,465.0
4476.8174,416.0
4478.608,430.0
4480.3994,528.0
4482.1914,534.0
4483.9844,491.0
4485.778,421.0
4487.5723,463.0
4489.367,514.0
4491.163,558.0
4492.9595,430.0
4494.757,437.0
4496.5547,554.0
4498.3535,588.0
4500.153,549.0
4501.953,430.0
4503.754,457.0
4505.555,619.0
4507.3574,512.0
4509.16,506.0
4510.964,483.0
4512.768,633.0
4514.573,682.0
4516.379,512.0
4518.1855,395.0
4519.9927,481.0
4521.801,780.0
4523.6094,685.0
4525.419,411.0
4527.229,323.0
4529.04,607.0
4530.8516,1083.0
4532.664,862.0
4534.477,455.0
4536.291,335.0
4538.1055,487.0
4539.921,510.0
4541.737,405.0
4543.5537,358.0
4545.371,335.0
4547.1895,348.0
4549.0083,312.0
4550.828,286.0
4552.6484,258.0
4554.4697,263.0
4556.2915,271.0
4558.1143,256.0
4559.9375,269.0
4561.7617,271.0
4563.5864,277.0
4565.4116,253.0
4567.238,217.0
4569.0645,237.0
4570.892,248.0
4572.72,225.0
4574.5493,232.0
4576.379,213.0
4578.2095,270.0
4580.0405,244.0
4581.8726,246.0
4583.705,249.0
4585.5386,268.0
4587.3726,248.0
4589.2075,248.0
4591.043,250.0
4592.8794,288.0
4594.7163,285.0
4596.554,218.0
4598.3926,216.0
4600.232,224.0
4602.0723,331.0
4603.913,302.0
4605.755,292.0
4607.597,235.0
4609.4404,224.0
4611.284,252.0
4613.129,255.0
4614.974,233.0
4616.8203,271.0
4618.667,238.0
4620.5146,229.0
4622.363,240.0
4624.212,299.0
4626.0615,273.0
4627.912,274.0
4629.763,262.0
4631.615,223.0
4633.468,257.0
4635.3213,213.0
4637.1753,230.0
4639.0303,212.0
4640.8857,227.0
4642.742,208.0
4644.599,230.0
4646.457,256.0
4648.3154,208.0
4650.175,209.0
4652.0347,246.0
4653.8955,213.0
4655.757,238.0
4657.619,172.0
4659.4824,192.0
4661.346,247.0
4663.211,263.0
4665.076,250.0
4666.9424,234.0
4668.809,259.0
4670.677,261.0
4672.545,213.0
4674.414,225.0
4676.2837,210.0
4678.1543,266.0
4680.0254,253.0
4681.8975,241.0
4683.77,210.0
4685.6436,214.0
4687.5176,230.0
4689.3926,238.0
4691.2686,191.0
4693.145,231.0
4695.0225,248.0
4696.9004,244.0
4698.7793,226.0
4700.6587,219.0
4702.539,217.0
4704.42,220.0
4706.302,245.0
4708.184,245.0
4710.0674,259.0
4711.951,264.0
4713.836,222.0
4715.7217,224.0
4717.608,215.0
4719.495,196.0
4721.383,217.0
4723.2715,222.0
4725.1606,211.0
4727.051,234.0
4728.9414,255.0
4730.833,284.0
4732.725,236.0
4734.618,215.0
4736.512,220.0
4738.4067,219.0
4740.3022,186.0
4742.198,197.0
4744.095,210.0
4745.9927,250.0
4747.891,217.0
4749.79,213.0
4751.69,195.0
4753.591,180.0
4755.492,189.0
4757.3945,169.0
4759.2974,175.0
4761.201,180.0
4763.1055,217.0
4765.0107,189.0
4766.9165,166.0
4768.823,191.0
4770.731,167.0
4772.639,171.0
4774.5483,152.0
4776.458,173.0
4778.3687,157.0
4780.28,169.0
4782.192,156.0
4784.105,170.0
4786.0186,146.0
4787.933,140.0
4789.848,154.0
4791.764,168.0
4793.6807,177.0
4795.598,177.0
4797.5166,170.0
4799.4355,163.0
4801.3555,162.0
4803.276,134.0
4805.1973,100.0
4807.119,150.0
4809.042,155.0
4810.966,152.0
4812.89,143.0
4814.8154,130.0
4816.741,119.0
4818.668,139.0
4820.595,131.0
4822.5234,147.0
4824.4526,139.0
4826.3823,147.0
4828.313,161.0
4830.244,134.0
4832.1763,159.0
4834.1094,138.0
4836.043,114.0
4837.9775,124.0
4839.9126,139.0
4841.8486,131.0
4843.785,153.0
4845.7227,124.0
4847.661,136.0
4849.6,105.0
4851.54,121.0
4853.4805,137.0
4855.422,143.0
4857.3643,106.0
4859.307,132.0
4861.251,121.0
4863.1953,119.0
4865.1406,127.0
4867.087,129.0
4869.0337,125.0
4870.9814,135.0
4872.9297,127.0
4874.879,104.0
4876.829,124.0
4878.78,109.0
4880.7314,112.0
4882.6836,101.0
4884.6367,128.0
4886.5903,108.0
4888.545,111.0
4890.5005,105.0
4892.4565,127.0
4894.4136,120.0
4896.3716,122.0
4898.33,125.0
4900.2896,119.0
4902.2495,110.0
4904.2104,124.0
4906.1724,112.0
4908.135,108.0
4910.098,117.0
4912.062,115.0
4914.027,122.0
4915.9927,102.0
4917.959,112.0
4919.9263,118.0
4921.894,128.0
4923.863,131.0
4925.8325,132.0
4927.8027,100.0
4929.774,135.0
4931.7456,119.0
4933.7183,133.0
4935.692,145.0
4937.666,113.0
4939.641,141.0
4941.617,130.0
4943.5938,131.0
4945.5713,122.0
4947.5493,130.0
4949.5283,123.0
4951.5083,120.0
4953.489,118.0
4955.47,151.0
4957.4526,131.0
4959.4355,111.0
4961.4194,131.0
4963.404,111.0
4965.389,136.0
4967.3755,115.0
4969.3623,127.0
4971.35,141.0
4973.339,127.0
4975.328,137.0
4977.3184,132.0
4979.309,124.0
4981.301,142.0
4983.2935,121.0
4985.2866,126.0
4987.281,139.0
4989.276,127.0
4991.2715,138.0
4993.268,146.0
4995.265,143.0
4997.263,125.0
4999.262,144.0
5001.2617,132.0
5003.262,138.0
5005.2637,126.0
5007.2656,132.0
5009.2686,148.0
5011.2725,122.0
5013.277,128.0
5015.282,127.0
5017.2886,137.0
5019.2954,110.0
5021.303,146.0
5023.3115,127.0
5025.321,131.0
5027.331,140.0
5029.342,123.0
5031.3535,145.0
5033.366,123.0
5035.3794,139.0
5037.3936,111.0
5039.4087,133.0
5041.4243,133.0
5043.441,131.0
5045.4585,146.0
5047.4766,153.0
5049.4956,148.0
5051.5156,142.0
5053.536,141.0
5055.5576,129.0
5057.58,129.0
5059.603,144.0
5061.627,117.0
5063.6514,146.0
5065.677,125.0
5067.703,143.0
5069.73,145.0
5071.758,154.0
5073.7866,140.0
5075.816,136.0
5077.846,121.0
5079.8774,119.0
5081.909,158.0
5083.942,169.0
5085.9756,128.0
5088.01,128.0
5090.045,137.0
5092.081,142.0
5094.1177,144.0
5096.1553,119.0
5098.194,139.0
5100.233,144.0
5102.273,130.0
5104.314,123.0
5106.3555,133.0
5108.398,144.0
5110.4414,146.0
5112.4854,140.0
5114.5303,148.0
5116.576,119.0
5118.6226,120.0
5120.67,129.0
5122.7183,144.0
5124.7676,155.0
5126.8174,152.0
5128.868,167.0
5130.92,139.0
5132.972,162.0
5135.0254,160.0
5137.0796,143.0
5139.1343,143.0
5141.19,151.0
5143.2466,148.0
5145.3037,146.0
5147.362,159.0
5149.421,164.0
5151.4805,133.0
5153.541,152.0
5155.6025,145.0
5157.6646,168.0
5159.7275,147.0
5161.7915,138.0
5163.8564,144.0
5165.922,144.0
5167.9883,171.0
5170.0557,157.0
5172.1235,124.0
5174.1924,165.0
5176.262,144.0
5178.3325,140.0
5180.404,156.0
5182.476,140.0
5184.549,151.0
5186.6226,153.0
5188.6973,161.0
5190.773,159.0
5192.849,154.0
5194.9263,149.0
5197.0044,158.0
5199.083,138.0
5201.1626,135.0
5203.243,186.0
5205.324,177.0
5207.4062,152.0
5209.4893,156.0
5211.573,144.0
5213.6577,146.0
5215.743,146.0
5217.8296,137.0
5219.9165,172.0
5222.0044,173.0
5224.0933,138.0
5226.183,149.0
5228.2734,158.0
5230.3647,182.0
5232.457,155.0
5234.55,189.0
5236.6436,154.0
5238.7383,129.0
5240.834,167.0
5242.93,154.0
5245.0273,154.0
5247.1255,166.0
5249.224,153.0
5251.3237,173.0
5253.4243,157.0
5255.526,143.0
5257.628,137.0
5259.731,161.0
5261.835,149.0
5263.9395,178.0
5266.045,151.0
5268.1514,161.0
5270.259,164.0
5272.3667,157.0
5274.4756,171.0
5276.5854,180.0
5278.6963,166.0
5280.8076,140.0
5282.92,149.0
5285.033,172.0
5287.147,176.0
5289.2617,159.0
5291.3774,137.0
5293.494,146.0
5295.6113,155.0
5297.7295,156.0
5299.8486,187.0
5301.9688,212.0
5304.0894,187.0
5306.211,138.0
5308.3335,153.0
5310.457,161.0
5312.581,153.0
5314.706,172.0
5316.832,190.0
5318.959,206.0
5321.0864,187.0
5323.215,186.0
5325.344,178.0
5327.4746,176.0
5329.6055,167.0
5331.7373,187.0
5333.87,142.0
5336.004,145.0
5338.138,180.0
5340.2734,166.0
5342.4097,180.0
5344.547,198.0
5346.6846,201.0
5348.823,162.0
5350.963,182.0
5353.1035,186.0
5355.2446,171.0
5357.3867,179.0
5359.53,167.0
5361.674,176.0
5363.8184,213.0
5365.964,170.0
5368.1104,150.0
5370.258,193.0
5372.406,186.0
5374.5547,203.0
5376.7046,189.0
5378.8555,216.0
5381.007,185.0
5383.159,163.0
5385.3125,168.0
5387.467,193.0
5389.6216,171.0
5391.7773,216.0
5393.934,194.0
5396.092,200.0
5398.25,205.0
5400.409,171.0
5402.5693,180.0
5404.7305,166.0
5406.8926,191.0
5409.055,214.0
5411.2188,213.0
5413.3833,225.0
5415.549,244.0
5417.715,202.0
5419.882,168.0
5422.05,192.0
5424.2188,176.0
5426.3887,220.0
5428.559,204.0
5430.7305,222.0
5432.903,181.0
5435.076,205.0
5437.25,221.0
5439.425,227.0
5441.6006,215.0
5443.7773,219.0
5445.955,220.0
5448.1333,198.0
5450.3125,190.0
5452.4927,186.0
5454.674,193.0
5456.8555,217.0
5459.038,222.0
5461.2217,235.0
5463.4062,211.0
5465.592,211.0
5467.778,214.0
5469.965,214.0
5472.153,212.0
5474.342,191.0
5476.5317,218.0
5478.722,239.0
5480.9136,219.0
5483.106,211.0
5485.2993,223.0
5487.4937,231.0
5489.6885,243.0
5491.8843,242.0
5494.081,211.0
5496.279,256.0
5498.4775,199.0
5500.677,221.0
5502.877,199.0
5505.078,228.0
5507.2803,231.0
5509.4834,242.0
5511.687,231.0
5513.8916,236.0
5516.097,242.0
5518.3037,233.0
5520.511,234.0
5522.719,253.0
5524.928,233.0
5527.138,210.0
5529.349,234.0
5531.561,219.0
5533.7734,239.0
5535.987,221.0
5538.201,208.0
5540.4165,243.0
5542.633,261.0
5544.85,243.0
5547.068,243.0
5549.2866,263.0
5551.5063,264.0
5553.727,208.0
5555.9487,241.0
5558.171,261.0
5560.394,197.0
5562.618,239.0
5564.8433,230.0
5567.0693,259.0
5569.2964,235.0
5571.524,192.0
5573.7524,251.0
5575.982,249.0
5578.2124,231.0
5580.444,216.0
5582.676,268.0
5584.9087,227.0
5587.1426,211.0
5589.3774,215.0
5591.6133,222.0
5593.85,224.0
5596.0874,197.0
5598.3257,258.0
5600.565,252.0
5602.805,247.0
5605.0464,196.0
5607.2886,236.0
5609.5312,221.0
5611.775,243.0
5614.0195,221.0
5616.265,234.0
5618.5117,211.0
5620.7593,188.0
5623.008,189.0
5625.257,250.0
5627.507,212.0
5629.758,234.0
5632.01,193.0
5634.2627,191.0
5636.5166,174.0
5638.771,209.0
5641.0264,217.0
5643.2827,225.0
5645.54,209.0
5647.7983,231.0
5650.0576,207.0
5652.318,181.0
5654.5786,204.0
5656.8403,224.0
5659.103,211.0
5661.3667,212.0
5663.6313,203.0
5665.897,209.0
5668.1636,182.0
5670.4307,211.0
5672.6987,188.0
5674.968,220.0
5677.238,218.0
5679.509,229.0
5681.781,219.0
5684.0537,196.0
5686.327,209.0
5688.6016,212.0
5690.877,228.0
5693.1533,242.0
5695.4307,215.0
5697.709,216.0
5699.9883,195.0
5702.268,213.0
5704.549,237.0
5706.8306,215.0
5709.1133,210.0
5711.397,221.0
5713.6816,227.0
5715.9673,239.0
5718.254,208.0
5720.541,224.0
5722.829,234.0
5725.118,251.0
5727.408,223.0
5729.699,230.0
5731.991,228.0
5734.284,260.0
5736.578,235.0
5738.8726,258.0
5741.168,239.0
5743.4644,222.0
5745.7617,234.0
5748.06,286.0
5750.3594,218.0
5752.6597,245.0
5754.961,241.0
5757.2627,275.0
5759.5654,242.0
5761.869,283.0
5764.174,262.0
5766.4795,205.0
5768.786,252.0
5771.0938,256.0
5773.4023,300.0
5775.712,255.0
5778.022,255.0
5780.333,251.0
5782.645,247.0
5784.958,249.0
5787.272,241.0
5789.587,271.0
5791.903,252.0
5794.2197,272.0
5796.5376,292.0
5798.8564,291.0
5801.176,247.0
5803.496,279.0
5805.8174,283.0
5808.1396,275.0
5810.463,268.0
5812.787,233.0
5815.1123,258.0
5817.4385,276.0
5819.7656,289.0
5822.0938,299.0
5824.4224,291.0
5826.752,306.0
5829.0825,303.0
5831.414,300.0
5833.7466,299.0
5836.08,285.0
5838.4146,383.0
5840.75,401.0
5843.0864,333.0
5845.424,267.0
5847.762,288.0
5850.101,278.0
5852.441,261.0
5854.7817,285.0
5857.1235,261.0
5859.4663,281.0
5861.81,316.0
5864.155,265.0
5866.5005,272.0
5868.847,271.0
5871.195,292.0
5873.5435,271.0
5875.893,275.0
5878.2437,272.0
5880.5947,272.0
5882.947,272.0
5885.3,298.0
5887.654,274.0
5890.009,273.0
5892.3647,310.0
5894.7217,280.0
5897.0796,284.0
5899.4385,270.0
5901.7983,323.0
5904.159,311.0
5906.521,294.0
5908.884,295.0
5911.2476,320.0
5913.612,302.0
5915.977,313.0
5918.3433,311.0
5920.7104,336.0
5923.0786,322.0
5925.4478,304.0
5927.818,311.0
5930.189,295.0
5932.561,314.0
5934.934,297.0
5937.308,329.0
5939.683,327.0
5942.059,331.0
5944.436,352.0
5946.814,321.0
5949.193,324.0
5951.5728,327.0
5953.9536,315.0
5956.335,322.0
5958.7173,334.0
5961.1006,382.0
5963.485,336.0
5965.87,290.0
5968.2563,328.0
5970.6436,381.0
5973.0317,341.0
5975.421,335.0
5977.811,361.0
5980.202,361.0
5982.594,352.0
5984.9873,368.0
5987.3813,376.0
5989.7764,326.0
5992.1724,361.0
5994.5693,319.0
5996.9673,304.0
5999.366,330.0
6001.766,371.0
6004.167,377.0
6006.569,404.0
6008.9717,417.0
6011.3755,416.0
6013.7803,353.0
6016.1855,373.0
6018.592,382.0
6020.999,394.0
6023.407,328.0
6025.8164,348.0
6028.2266,347.0
6030.6377,334.0
6033.05,383.0
6035.463,420.0
6037.877,406.0
6040.292,342.0
6042.708,311.0
6045.125,338.0
6047.543,385.0
6049.962,390.0
6052.382,357.0
6054.8027,329.0
6057.2246,333.0
6059.6475,314.0
6062.0713,397.0
6064.496,398.0
6066.922,357.0
6069.3486,361.0
6071.7764,322.0
6074.205,361.0
6076.635,306.0
6079.0654,317.0
6081.497,330.0
6083.9297,387.0
6086.3633,381.0
6088.798,381.0
6091.2334,343.0
6093.67,302.0
6096.1074,324.0
6098.546,343.0
6100.9854,390.0
6103.426,361.0
6105.867,358.0
6108.3096,331.0
6110.753,331.0
6113.1973,339.0
6115.6426,384.0
6118.089,407.0
6120.536,400.0
6122.9844,348.0
6125.4336,383.0
6127.884,376.0
6130.335,381.0
6132.787,433.0
6135.24,447.0
6137.6943,428.0
6140.1494,416.0
6142.6055,385.0
6145.0625,394.0
6147.5205,450.0
6149.9795,512.0
6152.4395,486.0
6154.9004,473.0
6157.3623,453.0
6159.825,447.0
6162.289,465.0
6164.754,425.0
6167.2197,404.0
6169.6865,445.0
6172.1543,476.0
6174.623,569.0
6177.093,600.0
6179.5635,506.0
6182.035,499.0
6184.508,481.0
6186.9814,544.0
6189.456,534.0
6191.9316,732.0
6194.408,671.0
6196.8857,581.0
6199.3643,572.0
6201.844,557.0
6204.325,526.0
6206.807,448.0
6209.29,428.0
6211.774,451.0
6214.259,660.0
6216.7446,650.0
6219.2314,571.0
6221.719,487.0
6224.208,481.0
6226.6978,440.0
6229.1885,485.0
6231.68,712.0
6234.173,829.0
6236.6665,692.0
6239.161,588.0
6241.6567,525.0
6244.1533,501.0
6246.651,552.0
6249.1494,588.0
6251.649,593.0
6254.1494,546.0
6256.651,579.0
6259.1533,576.0
6261.6567,500.0
6264.1616,526.0
6266.6675,423.0
6269.1743,457.0
6271.682,640.0
6274.191,778.0
6276.7007,661.0
6279.2114,488.0
6281.723,441.0
6284.236,500.0
6286.7495,503.0
6289.264,777.0
6291.78,1050.0
6294.2964,834.0
6296.814,555.0
6299.3325,502.0
6301.852,482.0
6304.3726,415.0
6306.8945,463.0
6309.4175,451.0
6311.9414,440.0
6314.4663,448.0
6316.992,434.0
6319.519,448.0
6322.047,428.0
6324.5757,420.0
6327.1055,384.0
6329.636,425.0
6332.168,414.0
6334.7007,480.0
6337.2344,386.0
6339.769,417.0
6342.305,433.0
6344.8423,412.0
6347.3804,437.0
6349.9194,399.0
6352.4595,448.0
6355.0005,383.0
6357.5425,398.0
6360.0854,421.0
6362.6294,397.0
6365.1743,425.0
6367.72,451.0
6370.267,418.0
6372.8154,412.0
6375.3647,451.0
6377.915,439.0
6380.4663,405.0
6383.0186,485.0
6385.572,460.0
6388.126,488.0
6390.681,480.0
6393.2373,400.0
6395.7944,423.0
6398.3525,413.0
6400.912,400.0
6403.4727,453.0
6406.034,474.0
6408.5967,452.0
6411.16,433.0
6413.7246,420.0
6416.29,373.0
6418.8564,460.0
6421.424,431.0
6423.992,405.0
6426.562,424.0
6429.133,464.0
6431.7046,477.0
6434.2773,433.0
6436.851,428.0
6439.426,440.0
6442.0015,360.0
6444.578,433.0
6447.156,450.0
6449.735,462.0
6452.315,437.0
6454.896,410.0
6457.478,418.0
6460.061,414.0
6462.645,417.0
6465.23,472.0
6467.816,435.0
6470.403,452.0
6472.991,421.0
6475.5806,437.0
6478.171,402.0
6480.762,474.0
6483.3545,423.0
6485.9478,453.0
6488.542,450.0
6491.137,478.0
6493.734,425.0
6496.3315,454.0
6498.93,435.0
6501.53,448.0
6504.1304,433.0
6506.732,438.0
6509.3345,439.0
6511.938,444.0
6514.543,477.0
6517.149,494.0
6519.756,440.0
6522.364,473.0
6524.9727,422.0
6527.5825,421.0
6530.1934,477.0
6532.8057,511.0
6535.419,427.0
6538.033,492.0
6540.6484,492.0
6543.2646,469.0
6545.882,480.0
6548.5,530.0
6551.1196,479.0
6553.74,482.0
6556.362,545.0
6558.9844,560.0
6561.608,531.0
6564.2324,495.0
6566.858,441.0
6569.485,447.0
6572.113,510.0
6574.7417,498.0
6577.3716,501.0
6580.0024,498.0
6582.6343,453.0
6585.267,440.0
6587.9014,464.0
6590.5366,496.0
6593.173,508.0
6595.81,520.0
6598.448,522.0
6601.0874,487.0
6603.728,462.0
6606.3696,439.0
6609.012,453.0
6611.656,493.0
6614.3003,490.0
6616.946,526.0
6619.593,477.0
6622.2407,451.0
6624.8896,462.0
6627.5396,463.0
6630.1904,489.0
6632.8423,482.0
6635.4956,438.0
6638.15,542.0
6640.805,523.0
6643.4614,465.0
6646.1187,461.0
6648.7773,437.0
6651.437,448.0
6654.0977,455.0
6656.7593,529.0
6659.422,516.0
6662.0854,443.0
6664.7505,462.0
6667.4165,406.0
6670.0835,417.0
6672.7515,385.0
6675.4204,400.0
6678.091,410.0
6680.762,446.0
6683.4346,391.0
6686.108,371.0
6688.782,406.0
6691.4575,401.0
6694.1343,403.0
6696.812,451.0
6699.4907,410.0
6702.1704,371.0
6704.851,397.0
6707.533,382.0
6710.2163,397.0
6712.9004,377.0
6715.5854,390.0
6718.2715,430.0
6720.959,382.0
6723.6475,416.0
6726.337,385.0
6729.0273,340.0
6731.7188,356.0
6734.4116,383.0
6737.1055,360.0
6739.8003,437.0
6742.496,430.0
6745.193,370.0
6747.891,379.0
6750.5903,395.0
6753.2905,396.0
6755.9917,404.0
6758.6943,435.0
6761.398,443.0
6764.1025,362.0
6766.808,418.0
6769.5146,368.0
6772.2227,367.0
6774.9316,358.0
6777.6416,389.0
6780.3525,407.0
6783.0645,450.0
6785.778,406.0
6788.492,400.0
6791.2075,410.0
6793.924,389.0
6796.6416,346.0
6799.3604,362.0
6802.08,399.0
6804.801,403.0
6807.5225,446.0
6810.2456,454.0
6812.9697,405.0
6815.695,364.0
6818.421,328.0
6821.1484,413.0
6823.877,535.0
6826.6064,486.0
6829.337,448.0
6832.069,361.0
6834.802,355.0
6837.5356,377.0
6840.2705,401.0
6843.007,581.0
6845.744,512.0
6848.4824,338.0
6851.2217,391.0
6853.9624,421.0
6856.704,482.0
6859.447,416.0
6862.1904,388.0
6864.9355,366.0
6867.6816,349.0
6870.4287,333.0
6873.177,345.0
6875.9263,336.0
6878.677,367.0
6881.428,356.0
6884.1807,380.0
6886.9346,356.0
6889.6895,373.0
6892.4453,317.0
6895.202,340.0
6897.9604,373.0
6900.7197,381.0
6903.48,350.0
6906.241,314.0
6909.004,344.0
6911.7676,376.0
6914.532,367.0
6917.298,383.0
6920.065,397.0
6922.833,385.0
6925.602,353.0
6928.372,386.0
6931.1436,393.0
6933.916,376.0
6936.6895,358.0
6939.4644,337.0
6942.24,338.0
6945.017,358.0
6947.795,395.0
6950.574,388.0
6953.3545,348.0
6956.1357,399.0
6958.918,378.0
6961.7017,382.0
6964.4863,401.0
6967.272,422.0
6970.059,370.0
6972.847,410.0
6975.636,402.0
6978.4263,401.0
6981.218,423.0
6984.0103,416.0
6986.8037,387.0
6989.5986,375.0
6992.3945,422.0
6995.1914,414.0
6997.9893,453.0
7000.7886,454.0
7003.589,414.0
7006.39,410.0
7009.193,447.0
7011.9966,394.0
7014.8013,437.0
7017.6074,527.0
7020.4146,487.0
7023.2227,449.0
7026.0317,516.0
7028.8423,442.0
7031.654,391.0
7034.4663,392.0
7037.2803,391.0
7040.095,459.0
7042.911,572.0
7045.7285,545.0
7048.547,427.0
7051.366,398.0
7054.1865,377.0
7057.0083,461.0
7059.831,834.0
7062.655,751.0
7065.48,523.0
7068.306,393.0
7071.1333,373.0
7073.962,352.0
7076.7915,360.0
7079.622,384.0
7082.454,424.0
7085.287,397.0
7088.121,408.0
7090.9565,352.0
7093.793,375.0
7096.6304,406.0
7099.469,386.0
7102.309,360.0
7105.15,382.0
7107.992,415.0
7110.8354,394.0
7113.6797,440.0
7116.5254,475.0
7119.372,386.0
7122.2197,401.0
7125.069,487.0
7127.919,461.0
7130.77,421.0
7133.6226,439.0
7136.476,418.0
7139.3306,489.0
7142.1865,510.0
7145.0435,438.0
7147.9014,433.0
7150.7607,429.0
7153.621,446.0
7156.4824,631.0
7159.345,680.0
7162.209,498.0
7165.0737,425.0
7167.94,462.0
7170.807,499.0
7173.6753,544.0
7176.545,518.0
7179.4155,462.0
7182.287,447.0
7185.16,439.0
7188.034,538.0
7190.909,571.0
7193.7856,479.0
7196.663,572.0
7199.542,621.0
7202.422,514.0
7205.3027,426.0
7208.185,347.0
7211.0684,420.0
7213.9526,803.0
7216.8384,821.0
7219.725,501.0
7222.613,418.0
7225.502,373.0
7228.392,471.0
7231.283,1149.0
7234.176,1318.0
7237.0693,759.0
7239.9644,426.0
7242.8604,381.0
7245.7573,360.0
7248.656,369.0
7251.555,365.0
7254.4556,391.0
7257.3574,358.0
7260.2603,332.0
7263.1646,308.0
7266.07,346.0
7268.976,369.0
7271.884,343.0
7274.7925,361.0
7277.7026,332.0
7280.614,378.0
7283.526,339.0
7286.4395,381.0
7289.354,368.0
7292.2695,360.0
7295.1865,376.0
7298.1045,411.0
7301.024,332.0
7303.9443,327.0
7306.8657,320.0
7309.7886,383.0
7312.7124,490.0
7315.6377,426.0
7318.564,325.0
7321.491,341.0
7324.42,329.0
7327.3496,412.0
7330.281,588.0
7333.213,500.0
7336.146,374.0
7339.0806,343.0
7342.016,337.0
7344.953,371.0
7347.891,445.0
7350.83,424.0
7353.7705,406.0
7356.712,379.0
7359.655,410.0
7362.5986,350.0
7365.5435,337.0
7368.4897,361.0
7371.437,384.0
7374.3857,401.0
7377.3354,382.0
7380.2866,396.0
7383.239,406.0
7386.192,387.0
7389.1465,372.0
7392.102,396.0
7395.059,378.0
7398.017,410.0
7400.976,493.0
7403.9365,469.0
7406.898,435.0
7409.861,463.0
7412.8247,480.0
7415.79,421.0
7418.7563,498.0
7421.7236,483.0
7424.6924,436.0
7427.662,405.0
7430.6333,369.0
7433.6055,444.0
7436.579,461.0
7439.5537,488.0
7442.5293,460.0
7445.5063,390.0
7448.4844,386.0
7451.464,399.0
7454.4443,384.0
7457.4263,348.0
7460.409,324.0
7463.3936,344.0
7466.379,445.0
7469.365,468.0
7472.353,380.0
7475.342,373.0
7478.332,360.0
7481.323,404.0
7484.316,632.0
7487.3096,639.0
7490.3047,511.0
7493.301,387.0
7496.2983,328.0
7499.297,351.0
7502.2964,395.0
7505.2974,406.0
7508.2993,370.0
7511.3027,356.0
7514.307,320.0
7517.313,362.0
7520.32,372.0
7523.328,325.0
7526.3374,325.0
7529.348,379.0
7532.36,308.0
7535.373,312.0
7538.387,325.0
7541.4023,326.0
7544.419,387.0
7547.4365,414.0
7550.4556,351.0
7553.4756,381.0
7556.497,338.0
7559.5195,350.0
7562.5435,408.0
7565.5684,429.0
7568.5947,355.0
7571.622,350.0
7574.651,380.0
7577.6807,365.0
7580.712,358.0
7583.744,387.0
7586.778,410.0
7589.8125,376.0
7592.8486,310.0
7595.8857,346.0
7598.9243,385.0
7601.964,423.0
7605.005,370.0
7608.047,359.0
7611.0903,325.0
7614.135,436.0
7617.18,507.0
7620.227,469.0
7623.275,351.0
7626.324,378.0
7629.3745,345.0
7632.4263,377.0
7635.479,375.0
7638.533,358.0
7641.5884,366.0
7644.645,350.0
7647.7026,381.0
7650.7617,353.0
7653.8223,355.0
7656.884,372.0
7659.947,375.0
7663.0107,383.0
7666.076,385.0
7669.1426,409.0
7672.2104,383.0
7675.2793,368.0
7678.3496,384.0
7681.421,400.0
7684.4937,391.0
7687.5674,408.0
7690.6426,393.0
7693.7188,410.0
7696.7964,388.0
7699.875,397.0
7702.955,441.0
7706.036,408.0
7709.1187,452.0
7712.202,415.0
7715.287,395.0
7718.373,447.0
7721.4604,489.0
7724.549,496.0
7727.6387,489.0
7730.7295,493.0
7733.822,486.0
7736.9155,436.0
7740.0103,463.0
7743.1064,508.0
7746.2036,562.0
7749.3022,551.0
7752.402,523.0
7755.503,521.0
7758.605,522.0
7761.7085,549.0
7764.813,620.0
7767.919,563.0
7771.026,551.0
7774.1343,481.0
7777.244,439.0
7780.355,417.0
7783.4673,463.0
7786.5806,639.0
7789.6953,672.0
7792.811,594.0
7795.928,507.0
7799.0464,521.0
7802.166,500.0
7805.287,485.0
7808.409,518.0
7811.5327,563.0
7814.657,523.0
7817.783,494.0
7820.91,439.0
7824.0386,447.0
7827.168,515.0
7830.299,578.0
7833.431,527.0
7836.5645,481.0
7839.699,418.0
7842.835,503.0
7845.972,531.0
7849.1104,574.0
7852.25,535.0
7855.391,512.0
7858.533,483.0
7861.677,529.0
7864.8213,472.0
7867.9673,508.0
7871.1143,528.0
7874.2627,515.0
7877.4126,537.0
7880.5635,529.0
7883.716,560.0
7886.869,538.0
7890.024,488.0
7893.18,482.0
7896.3374,591.0
7899.496,676.0
7902.656,650.0
7905.817,550.0
7908.979,563.0
7912.1426,558.0
7915.3076,615.0
7918.4736,723.0
7921.641,679.0
7924.8096,638.0
7927.9795,521.0
7931.151,498.0
7934.323,607.0
7937.497,632.0
7940.672,663.0
7943.848,625.0
7947.026,658.0
7950.2046,659.0
7953.385,708.0
7956.566,718.0
7959.7485,701.0
7962.9326,757.0
7966.1177,769.0
7969.304,770.0
7972.4917,783.0
7975.6807,749.0
7978.871,804.0
7982.0625,937.0
7985.2554,922.0
7988.4497,906.0
7991.645,957.0
7994.842,890.0
7998.0396,854.0
8001.239,942.0
8004.4395,1059.0
8007.641,1136.0
8010.844,1183.0
8014.0483,1072.0
8017.254,1124.0
8020.461,1165.0
8023.669,1225.0
8026.8784,1180.0
8030.0894,1179.0
8033.3013,1283.0
8036.5146,1518.0
8039.7295,1639.0
8042.9453,1513.0
8046.1626,1321.0
8049.381,1387.0
8052.6006,1833.0
8055.822,2035.0
8059.044,2192.0
8062.2676,1653.0
8065.4927,1771.0
8068.7188,2101.0
8071.9463,2330.0
8075.1753,2581.0
8078.4053,2377.0
8081.6367,2533.0
8084.869,2976.0
8088.103,2511.0
8091.3384,1963.0
8094.5747,1796.0
8097.8125,2627.0
8101.052,4396.0
8104.292,3787.0
8107.5337,2724.0
8110.777,2107.0
8114.021,2313.0
8117.2666,6039.0
8120.5137,7138.0
8123.7617,4772.0
8127.011,3568.0
8130.262,2816.0
8133.514,3229.0
8136.7676,3722.0
8140.0225,3884.0
8143.2783,4718.0
8146.5356,4121.0
8149.7944,3150.0
8153.054,3803.0
8156.3154,3600.0
8159.578,4194.0
8162.842,5004.0
8166.107,4552.0
8169.3735,6793.0
8172.641,6437.0
8175.91,4040.0
8179.1807,2360.0
8182.452,2863.0
8185.725,10392.0
8188.9995,13545.0
8192.275,6242.0
8195.553,2806.0
8198.831,2413.0
8202.11,11042.0
8205.392,27106.0
8208.674,16511.0
8211.957,5659.0
8215.242,2599.0
8218.528,1754.0
8221.815,1596.0
8225.1045,2351.0
8228.395,3012.0
8231.686,2206.0
8234.979,1263.0
8238.272,969.0
8241.567,1097.0
8244.864,1321.0
8248.162,1243.0
8251.461,1045.0
8254.762,950.0
8258.063,835.0
8261.367,1010.0
8264.672,1176.0
8267.978,1004.0
8271.285,978.0
8274.594,863.0
8277.903,801.0
8281.215,762.0
8284.527,755.0
8287.841,996.0
8291.156,920.0
8294.473,789.0
8297.79,746.0
8301.109,746.0
8304.43,924.0
8307.751,1039.0
8311.074,905.0
8314.398,852.0
8317.725,864.0
8321.052,868.0
8324.38,871.0
8327.71,829.0
8331.041,1038.0
8334.373,970.0
8337.707,807.0
8341.042,765.0
8344.378,795.0
8347.716,1007.0
8351.055,1217.0
8354.3955,977.0
8357.737,924.0
8361.08,810.0
8364.425,650.0
8367.7705,647.0
8371.117,735.0
8374.466,976.0
8377.815,1029.0
8381.167,718.0
8384.52,597.0
8387.873,605.0
8391.229,891.0
8394.585,1128.0
8397.942,888.0
8401.302,696.0
8404.662,596.0
8408.024,646.0
8411.388,631.0
8414.752,626.0
8418.118,534.0
8421.485,530.0
8424.854,545.0
8428.224,475.0
8431.595,613.0
8434.968,572.0
8438.342,523.0
8441.717,541.0
8445.094,534.0
8448.472,574.0
8451.851,583.0
8455.231,581.0
8458.613,554.0
8461.997,556.0
8465.382,566.0
8468.768,652.0
8472.155,615.0
8475.544,616.0
8478.935,559.0
8482.326,623.0
8485.719,641.0
8489.113,705.0
8492.509,811.0
8495.906,721.0
8499.305,686.0
8502.704,781.0
8506.105,842.0
8509.508,936.0
8512.911,881.0
8516.316,1015.0
8519.723,1047.0
8523.131,922.0
8526.54,1049.0
8529.95,1048.0
8533.362,1399.0
8536.775,1751.0
8540.19,1228.0
8543.606,846.0
8547.023,810.0
8550.442,1842.0
8553.862,2553.0
8557.284,1521.0
8560.707,928.0
8564.131,899.0
8567.557,2364.0
8570.983,4389.0
8574.412,2562.0
8577.842,1349.0
8581.272,973.0
8584.705,771.0
8588.139,691.0
8591.574,909.0
8595.011,1286.0
8598.449,1083.0
8601.889,774.0
8605.329,656.0
8608.771,612.0
8612.215,586.0
8615.66,577.0
8619.106,651.0
8622.554,605.0
8626.003,633.0
8629.453,524.0
8632.905,581.0
8636.358,607.0
8639.8125,643.0
8643.269,633.0
8646.726,530.0
8650.185,650.0
8653.645,616.0
8657.106,560.0
8660.569,647.0
8664.033,640.0
8667.499,685.0
8670.966,678.0
8674.435,671.0
8677.904,670.0
8681.375,748.0
8684.848,755.0
8688.321,737.0
8691.797,731.0
8695.273,756.0
8698.752,816.0
8702.231,765.0
8705.712,827.0
8709.194,828.0
8712.678,948.0
8716.163,1015.0
8719.649,1001.0
8723.138,1020.0
8726.627,989.0
8730.117,996.0
8733.609,1006.0
8737.103,1139.0
8740.598,1139.0
8744.094,1217.0
8747.592,1147.0
8751.091,1246.0
8754.591,1262.0
8758.093,1359.0
8761.596,1263.0
8765.101,1359.0
8768.606,1407.0
8772.114,1563.0
8775.623,1512.0
8779.133,1567.0
8782.645,1674.0
8786.157,1679.0
8789.672,1735.0
8793.1875,1805.0
8796.705,2052.0
8800.224,2281.0
8803.744,1960.0
8807.266,1825.0
8810.788,1888.0
8814.3125,2722.0
8817.838,2966.0
8821.365,2387.0
8824.894,2127.0
8828.424,2337.0
8831.955,3272.0
8835.488,3562.0
8839.022,2914.0
8842.558,2697.0
8846.095,2439.0
8849.633,2474.0
8853.173,2507.0
8856.714,3041.0
8860.257,3333.0
8863.801,2913.0
8867.347,2794.0
8870.894,2843.0
8874.442,3472.0
8877.992,4136.0
8881.543,3768.0
8885.096,3306.0
8888.649,2984.0
8892.205,3170.0
8895.762,3349.0
8899.32,3779.0
8902.88,3721.0
8906.441,3303.0
8910.004,3513.0
8913.568,3750.0
8917.134,4207.0
8920.7,3915.0
8924.269,3821.0
8927.838,3921.0
8931.409,4066.0
8934.981,4435.0
8938.556,4146.0
8942.131,4250.0
8945.708,4556.0
8949.286,4064.0
8952.866,3606.0
8956.447,3695.0
8960.03,4747.0
8963.614,4760.0
8967.199,3792.0
8970.786,3289.0
8974.374,3908.0
8977.964,4891.0
8981.555,4635.0
8985.147,3589.0
8988.741,3327.0
8992.337,4368.0
8995.934,5024.0
8999.532,4398.0
9003.132,3262.0
9006.733,3677.0
9010.336,4604.0
9013.94,4084.0
9017.546,3572.0
9021.153,3256.0
9024.762,4513.0
9028.372,4979.0
9031.983,3352.0
9035.597,2339.0
9039.211,3010.0
9042.826,4883.0
9046.443,4176.0
9050.062,2485.0
9053.682,2088.0
9057.303,3759.0
9060.926,6473.0
9064.55,4802.0
9068.176,2409.0
9071.803,1909.0
9075.432,2778.0
9079.062,2954.0
9082.693,2362.0
9086.326,1810.0
9089.961,1615.0
9093.597,1687.0
9097.234,1683.0
9100.873,1496.0
9104.514,1434.0
9108.155,1316.0
9111.799,1132.0
9115.443,1120.0
9119.09,1200.0
9122.737,1302.0
9126.387,1177.0
9130.037,1043.0
9133.689,1027.0
9137.343,1168.0
9140.998,1290.0
9144.654,1118.0
9148.3125,1046.0
9151.972,1128.0
9155.633,1047.0
9159.295,997.0
9162.959,1084.0
9166.624,1143.0
9170.291,1081.0
9173.959,934.0
9177.629,955.0
9181.3,1196.0
9184.973,1323.0
9188.646,1147.0
9192.322,948.0
9195.999,944.0
9199.678,1256.0
9203.357,1187.0
9207.039,1118.0
9210.722,860.0
9214.406,826.0
9218.092,813.0
9221.779,794.0
9225.468,895.0
9229.158,854.0
9232.85,808.0
9236.543,638.0
9240.237,789.0
9243.934,863.0
9247.631,866.0
9251.33,808.0
9255.03,656.0
9258.732,443.0
9262.436,559.0
9266.141,644.0
9269.847,614.0
9273.555,520.0
9277.264,412.0
9280.975,433.0
9284.687,503.0
9288.4,483.0
9292.116,375.0
9295.833,385.0
9299.552,378.0
9303.271,350.0
9306.993,346.0
9310.716,379.0
9314.44,363.0
9318.166,331.0
9321.894,332.0
9325.622,350.0
9329.353,394.0
9333.084,361.0
9336.817,313.0
9340.552,311.0
9344.288,338.0
9348.025,343.0
9351.765,310.0
9355.505,308.0
9359.247,301.0
9362.991,289.0
9366.736,280.0
9370.483,301.0
9374.231,316.0
9377.981,276.0
9381.732,255.0
9385.485,292.0
9389.239,280.0
9392.995,272.0
9396.752,268.0
9400.511,259.0
9404.2705,277.0
9408.032,240.0
9411.796,244.0
9415.561,276.0
9419.327,268.0
9423.095,260.0
9426.864,252.0
9430.635,220.0
9434.407,208.0
9438.181,253.0
9441.956,275.0
9445.732,274.0
9449.511,234.0
9453.291,218.0
9457.072,235.0
9460.855,267.0
9464.64,235.0
9468.426,210.0
9472.213,210.0
9476.002,204.0
9479.792,189.0
9483.584,201.0
9487.377,243.0
9491.172,194.0
9494.969,195.0
9498.767,199.0
9502.566,227.0
9506.367,235.0
9510.17,217.0
9513.974,198.0
9517.779,189.0
9521.586,176.0
9525.395,182.0
9529.205,192.0
9533.017,198.0
9536.83,167.0
9540.645,181.0
9544.461,186.0
9548.278,222.0
9552.098,223.0
9555.919,203.0
9559.741,151.0
9563.565,171.0
9567.391,175.0
9571.218,183.0
9575.046,173.0
9578.876,153.0
9582.708,158.0
9586.541,166.0
9590.376,165.0
9594.212,170.0
9598.05,155.0
9601.889,150.0
9605.7295,179.0
9609.572,161.0
9613.416,152.0
9617.262,160.0
9621.108,190.0
9624.957,139.0
9628.807,153.0
9632.658,152.0
9636.512,173.0
9640.366,154.0
9644.223,161.0
9648.08,133.0
9651.939,150.0
9655.8,163.0
9659.662,143.0
9663.526,165.0
9667.392,138.0
9671.259,137.0
9675.127,137.0
9678.997,137.0
9682.869,133.0
9686.742,176.0
9690.617,131.0
9694.493,144.0
9698.371,121.0
9702.25,99.0
9706.131,140.0
9710.014,143.0
9713.897,132.0
9717.783,119.0
9721.67,150.0
9725.559,152.0
9729.449,138.0
9733.341,129.0
9737.234,122.0
9741.129,138.0
9745.025,143.0
9748.924,147.0
9752.823,136.0
9756.725,145.0
9760.627,141.0
9764.531,116.0
9768.4375,137.0
9772.345,128.0
9776.254,139.0
9780.164,134.0
9784.076,140.0
9787.99,133.0
9791.905,149.0
9795.822,154.0
9799.74,145.0
9803.66,141.0
9807.582,138.0
9811.505,154.0
9815.43,131.0
9819.355,125.0
9823.283,131.0
9827.213,146.0
9831.144,146.0
9835.076,123.0
9839.01,137.0
9842.945,164.0
9846.883,202.0
9850.821,163.0
9854.762,137.0
9858.704,144.0
9862.647,134.0
9866.593,139.0
9870.539,142.0
9874.487,121.0
9878.4375,148.0
9882.389,137.0
9886.342,108.0
9890.296,127.0
9894.252,116.0
9898.21,136.0
9902.169,146.0
9906.13,113.0
9910.093,136.0
9914.057,136.0
9918.022,141.0
9921.989,124.0
9925.958,121.0
9929.929,132.0
9933.9,135.0
9937.874,122.0
9941.85,122.0
9945.826,118.0
9949.805,111.0
9953.784,117.0
9957.766,125.0
9961.749,131.0
9965.733,132.0
9969.72,123.0
9973.708,115.0
9977.697,140.0
9981.688,124.0
9985.681,125.0
9989.675,124.0
9993.671,123.0
9997.668,117.0
10001.667,100.0
10005.668,127.0
10009.67,114.0
10013.674,130.0
10017.68,116.0
10021.687,139.0
10025.695,110.0
10029.706,134.0
10033.718,118.0
10037.731,113.0
10041.746,99.0
10045.763,127.0
10049.781,140.0
10053.801,134.0
10057.822,139.0
10061.846,138.0
10065.87,141.0
10069.896,133.0
10073.925,121.0
10077.954,125.0
10081.985,130.0
10086.019,145.0
10090.053,149.0
10094.089,137.0
10098.127,125.0
10102.166,138.0
10106.207,118.0
10110.25,149.0
10114.294,140.0
10118.34,144.0
10122.387,137.0
10126.436,115.0
10130.486,136.0
10134.538,139.0
10138.592,113.0
10142.647,167.0
10146.704,148.0
10150.763,140.0
10154.823,167.0
10158.885,152.0
10162.948,153.0
10167.014,182.0
10171.08,149.0
10175.148,128.0
10179.219,161.0
10183.29,128.0
10187.363,157.0
10191.438,144.0
10195.515,140.0
10199.593,128.0
10203.673,165.0
10207.754,112.0
10211.837,162.0
10215.922,147.0
10220.008,137.0
10224.096,138.0
10228.186,158.0
10232.276,121.0
10236.369,151.0
10240.464,153.0
10244.56,155.0
10248.657,146.0
10252.757,154.0
10256.858,168.0
10260.961,171.0
10265.065,152.0
10269.172,157.0
10273.279,148.0
10277.389,155.0
10281.5,158.0
10285.612,171.0
10289.727,146.0
10293.843,149.0
10297.96,167.0
10302.079,165.0
10306.2,159.0
10310.322,150.0
10314.446,169.0
10318.572,146.0
10322.699,143.0
10326.828,166.0
10330.959,136.0
10335.092,154.0
10339.226,158.0
10343.361,149.0
10347.499,184.0
10351.638,169.0
10355.778,165.0
10359.921,150.0
10364.064,153.0
10368.21,170.0
10372.357,179.0
10376.507,182.0
10380.657,159.0
10384.81,170.0
10388.964,152.0
10393.119,191.0
10397.276,177.0
10401.436,156.0
10405.596,149.0
10409.758,136.0
10413.922,167.0
10418.088,150.0
10422.255,135.0
10426.424,143.0
10430.595,138.0
10434.767,133.0
10438.94,131.0
10443.116,169.0
10447.294,160.0
10451.473,153.0
10455.653,157.0
10459.836,167.0
10464.02,167.0
10468.205,157.0
10472.393,128.0
10476.581,149.0
10480.771,144.0
10484.964,136.0
10489.158,143.0
10493.354,159.0
10497.551,132.0
10501.75,143.0
10505.951,148.0
10510.153,141.0
10514.357,148.0
10518.563,147.0
10522.7705,145.0
10526.9795,135.0
10531.19,182.0
10535.403,153.0
10539.617,148.0
10543.833,148.0
10548.051,176.0
10552.27,125.0
10556.49,150.0
10560.713,141.0
10564.9375,154.0
10569.163,154.0
10573.391,159.0
10577.62,166.0
10581.852,169.0
10586.084,162.0
10590.318,161.0
10594.555,150.0
10598.793,136.0
10603.032,142.0
10607.273,158.0
10611.517,172.0
10615.761,153.0
10620.007,165.0
10624.255,193.0
10628.505,176.0
10632.756,168.0
10637.009,174.0
10641.264,188.0
10645.5205,158.0
10649.778,170.0
10654.038,149.0
10658.3,153.0
10662.563,185.0
10666.828,148.0
10671.095,148.0
10675.363,166.0
10679.634,140.0
10683.905,157.0
10688.179,167.0
10692.454,167.0
10696.731,186.0
10701.01,163.0
10705.29,179.0
10709.572,200.0
10713.856,182.0
10718.142,173.0
10722.429,166.0
10726.718,166.0
10731.009,174.0
10735.301,175.0
10739.595,203.0
10743.891,186.0
10748.188,182.0
10752.487,193.0
10756.788,203.0
10761.091,196.0
10765.3955,191.0
10769.702,152.0
10774.01,182.0
10778.319,171.0
10782.631,195.0
10786.944,171.0
10791.259,177.0
10795.575,154.0
10799.894,163.0
10804.214,145.0
10808.535,145.0
10812.858,179.0
10817.184,163.0
10821.511,157.0
10825.839,163.0
10830.169,180.0
10834.501,151.0
10838.835,177.0
10843.171,168.0
10847.508,148.0
10851.847,177.0
10856.1875,175.0
10860.53,125.0
10864.874,182.0
10869.22,191.0
10873.567,183.0
10877.917,156.0
10882.269,175.0
10886.621,170.0
10890.976,169.0
10895.332,176.0
10899.69,155.0
10904.051,174.0
10908.412,170.0
10912.775,181.0
10917.141,179.0
10921.508,182.0
10925.876,177.0
10930.246,174.0
10934.618,189.0
10938.992,173.0
10943.368,208.0
10947.745,172.0
10952.124,149.0
10956.505,192.0
10960.888,193.0
10965.272,209.0
10969.658,173.0
10974.046,186.0
10978.436,169.0
10982.827,193.0
10987.221,199.0
10991.615,169.0
10996.012,170.0
11000.41,176.0
11004.811,205.0
11009.213,175.0
11013.616,165.0
11018.021,177.0
11022.429,205.0
11026.838,184.0
11031.249,187.0
11035.661,179.0
11040.075,199.0
11044.491,202.0
11048.909,172.0
11053.329,197.0
11057.75,196.0
11062.173,230.0
11066.598,204.0
11071.024,219.0
11075.453,218.0
11079.884,175.0
11084.315,178.0
11088.749,207.0
11093.185,204.0
11097.622,182.0
11102.062,195.0
11106.502,173.0
11110.944,185.0
11115.389,215.0
11119.835,196.0
11124.283,171.0
11128.733,199.0
11133.185,194.0
11137.638,191.0
11142.093,207.0
11146.55,208.0
11151.009,192.0
11155.469,176.0
11159.931,244.0
11164.395,204.0
11168.86,179.0
11173.328,171.0
11177.798,176.0
11182.269,202.0
11186.741,189.0
11191.216,193.0
11195.692,186.0
11200.171,216.0
11204.651,191.0
11209.133,200.0
11213.616,186.0
11218.102,201.0
11222.589,207.0
11227.078,175.0
11231.569,199.0
11236.062,222.0
11240.556,182.0
11245.052,223.0
11249.55,229.0
11254.05,192.0
11258.552,211.0
11263.056,202.0
11267.561,206.0
11272.067,239.0
11276.576,213.0
11281.087,196.0
11285.6,226.0
11290.114,246.0
11294.63,247.0
11299.147,211.0
11303.667,202.0
11308.188,234.0
11312.712,201.0
11317.237,245.0
11321.765,266.0
11326.293,256.0
11330.823,245.0
11335.355,220.0
11339.89,263.0
11344.426,267.0
11348.964,255.0
11353.504,254.0
11358.045,283.0
11362.588,283.0
11367.133,278.0
11371.68,275.0
11376.229,287.0
11380.779,309.0
11385.332,258.0
11389.886,328.0
11394.441,349.0
11398.999,331.0
11403.559,344.0
11408.12,318.0
11412.684,346.0
11417.249,352.0
11421.816,384.0
11426.385,378.0
11430.955,407.0
11435.527,370.0
11440.102,392.0
11444.678,406.0
11449.256,414.0
11453.836,427.0
11458.417,375.0
11463.0,443.0
11467.585,439.0
11472.172,425.0
11476.761,482.0
11481.352,470.0
11485.944,513.0
11490.539,474.0
11495.136,569.0
11499.733,514.0
11504.333,507.0
11508.935,545.0
11513.538,588.0
11518.144,558.0
11522.751,569.0
11527.36,597.0
11531.972,615.0
11536.584,569.0
11541.198,652.0
11545.814,675.0
11550.433,633.0
11555.053,597.0
11559.675,691.0
11564.299,658.0
11568.925,651.0
11573.553,664.0
11578.183,761.0
11582.813,672.0
11587.446,571.0
11592.081,733.0
11596.718,734.0
11601.356,672.0
11605.997,631.0
11610.64,776.0
11615.284,739.0
11619.931,654.0
11624.579,755.0
11629.229,786.0
11633.88,716.0
11638.533,722.0
11643.188,890.0
11647.846,729.0
11652.505,562.0
11657.166,774.0
11661.829,935.0
11666.494,654.0
11671.161,583.0
11675.83,1067.0
11680.5,1028.0
11685.172,637.0
11689.846,555.0
11694.521,637.0
11699.199,511.0
11703.879,469.0
11708.561,451.0
11713.244,453.0
11717.93,375.0
11722.617,396.0
11727.307,385.0
11731.998,344.0
11736.69,324.0
11741.385,325.0
11746.081,316.0
11750.779,302.0
11755.4795,292.0
11760.182,277.0
11764.886,270.0
11769.592,282.0
11774.3,287.0
11779.01,281.0
11783.722,282.0
11788.436,301.0
11793.151,256.0
11797.868,277.0
11802.587,305.0
11807.308,289.0
11812.03,263.0
11816.755,276.0
11821.481,298.0
11826.21,251.0
11830.94,255.0
11835.673,244.0
11840.407,233.0
11845.144,240.0
11849.882,241.0
11854.622,240.0
11859.364,234.0
11864.108,237.0
11868.8545,262.0
11873.602,236.0
11878.351,201.0
11883.102,207.0
11887.8545,175.0
11892.609,218.0
11897.366,187.0
11902.125,201.0
11906.886,193.0
11911.648,201.0
11916.413,198.0
11921.18,205.0
11925.948,167.0
11930.719,178.0
11935.491,199.0
11940.266,204.0
11945.042,192.0
11949.82,209.0
11954.601,189.0
11959.383,190.0
11964.167,190.0
11968.953,180.0
11973.74,165.0
11978.529,198.0
11983.32,179.0
11988.113,174.0
11992.908,177.0
