M/Z,Intensity
800.0,94.0
800.32,100.0
800.64014,40.0
800.9604,81.0
801.28076,234.0
801.60126,54.0
801.9219,67.0
802.2426,173.0
802.56354,65.0
802.8846,167.0
803.20575,134.0
803.52704,63.0
803.84845,103.0
804.17,134.0
804.49164,71.0
804.8134,66.0
805.1353,124.0
805.4574,76.0
805.7796,48.0
806.1019,137.0
806.4244,97.0
806.74695,55.0
807.06964,116.0
807.39246,111.0
807.7154,45.0
808.03845,109.0
808.3617,124.0
808.68506,44.0
809.00854,93.0
809.33215,143.0
809.6559,47.0
809.97974,88.0
810.3037,124.0
810.6278,57.0
810.9521,121.0
811.2765,143.0
811.601,49.0
811.92566,77.0
812.2504,120.0
812.5753,60.0
812.9003,90.0
813.22546,118.0
813.5508,65.0
813.8762,59.0
814.2018,140.0
814.52747,65.0
814.8533,64.0
815.1792,150.0
815.50525,57.0
815.8314,70.0
816.1578,127.0
816.48425,86.0
816.81085,100.0
817.1376,135.0
817.4644,96.0
817.7914,63.0
818.11847,142.0
818.44574,73.0
818.77313,60.0
819.10065,120.0
819.4283,75.0
819.75604,52.0
820.0839,105.0
820.412,102.0
820.7402,48.0
821.0685,116.0
821.3969,106.0
821.72546,44.0
822.05414,98.0
822.38293,81.0
822.7119,61.0
823.041,120.0
823.37024,116.0
823.6996,52.0
824.02905,114.0
824.35864,134.0
824.6884,139.0
825.0183,1102.0
825.3483,131.0
825.67847,81.0
826.0087,492.0
826.3391,117.0
826.6696,57.0
827.0003,218.0
827.3311,128.0
827.66205,41.0
827.9931,93.0
828.3243,107.0
828.65564,40.0
828.9871,72.0
829.3187,116.0
829.65045,49.0
829.9823,87.0
830.3143,125.0
830.6464,35.0
830.9787,90.0
831.3111,105.0
831.6436,39.0
831.97626,84.0
832.309,121.0
832.64197,53.0
832.97504,118.0
833.3082,100.0
833.64154,46.0
833.975,80.0
834.3086,116.0
834.64233,56.0
834.9762,105.0
835.3102,130.0
835.6443,44.0
835.9785,83.0
836.3129,116.0
836.64746,53.0
836.9821,126.0
837.3169,96.0
837.6518,55.0
837.9869,109.0
838.3221,100.0
838.6574,71.0
838.99286,276.0
839.3284,123.0
839.6642,61.0
840.00006,178.0
840.33606,122.0
840.6722,64.0
841.0084,264.0
841.34485,113.0
841.6814,53.0
842.01807,165.0
842.35486,116.0
842.6918,53.0
843.0289,143.0
843.3661,107.0
843.7034,64.0
844.0409,95.0
844.37854,106.0
844.7163,61.0
845.0542,151.0
845.3922,227.0
845.73035,64.0
846.06866,121.0
846.4071,153.0
846.74567,61.0
847.08435,128.0
847.42316,110.0
847.76215,44.0
848.10126,102.0
848.4405,95.0
848.77985,56.0
849.1194,117.0
849.45905,77.0
849.7988,41.0
850.13873,107.0
850.47876,83.0
850.819,66.0
851.1593,107.0
851.49976,78.0
851.84033,61.0
852.1811,111.0
852.522,68.0
852.863,64.0
853.2041,139.0
853.5454,57.0
853.88684,65.0
854.2284,102.0
854.57007,56.0
854.9119,316.0
855.2539,121.0
855.596,61.0
855.93823,208.0
856.2806,131.0
856.6231,62.0
856.96576,167.0
857.30853,119.0
857.6514,41.0
857.9945,118.0
858.3377,138.0
858.681,52.0
859.0245,131.0
859.3681,119.0
859.71185,48.0
860.0557,110.0
860.3997,85.0
860.7439,303.0
861.0882,352.0
861.4326,131.0
861.77716,212.0
862.1219,148.0
862.46674,117.0
862.8117,144.0
863.15686,134.0
863.50214,82.0
863.84753,83.0
864.19305,140.0
864.53876,66.0
864.8846,71.0
865.2305,119.0
865.5766,68.0
865.92285,56.0
866.2692,126.0
866.6157,53.0
866.96234,117.0
867.30914,116.0
867.65607,47.0
868.0031,85.0
868.35034,84.0
868.6977,45.0
869.04517,85.0
869.39276,90.0
869.74054,53.0
870.08844,84.0
870.43646,98.0
870.7846,66.0
871.13293,100.0
871.4814,72.0
871.82996,52.0
872.1787,99.0
872.5276,64.0
872.8766,118.0
873.2257,117.0
873.575,40.0
873.92444,119.0
874.274,115.0
874.6237,53.0
874.9736,95.0
875.32355,112.0
875.6737,51.0
876.024,98.0
876.3744,119.0
876.7249,127.0
877.0756,139.0
877.42645,120.0
877.7774,101.0
878.12854,118.0
878.4798,86.0
878.8312,84.0
879.18274,110.0
879.5344,56.0
879.8862,65.0
880.23816,136.0
880.5903,46.0
880.9425,79.0
881.29486,109.0
881.6474,35.0
882.00006,99.0
882.35284,104.0
882.7058,68.0
883.0589,101.0
883.4121,87.0
883.7655,38.0
884.119,88.0
884.47266,65.0
884.8264,61.0
885.18036,118.0
885.5344,64.0
885.8886,77.0
886.243,103.0
886.5975,54.0
886.9521,61.0
887.3069,116.0
887.6618,36.0
888.01685,80.0
888.3721,100.0
888.7274,59.0
889.0829,101.0
889.43854,144.0
889.7943,42.0
890.1502,92.0
890.5063,114.0
890.8625,53.0
891.2188,120.0
891.5753,52.0
891.93195,66.0
892.2887,122.0
892.6456,45.0
893.0027,80.0
893.35986,112.0
893.7172,53.0
894.0747,103.0
894.4323,91.0
894.7901,52.0
895.148,113.0
895.50604,67.0
895.86426,63.0
896.2226,92.0
896.58105,43.0
896.9397,69.0
897.29846,101.0
897.6574,53.0
898.0165,63.0
898.3757,110.0
898.73505,54.0
899.09454,85.0
899.45416,75.0
899.81396,48.0
900.1739,110.0
900.53394,68.0
900.89417,66.0
901.2545,117.0
901.615,39.0
901.97565,55.0
902.3364,110.0
902.6974,42.0
903.0585,80.0
903.4197,106.0
903.78107,70.0
904.1426,117.0
904.5042,103.0
904.866,61.0
905.22797,146.0
905.5901,62.0
905.95233,70.0
906.3147,153.0
906.67725,44.0
907.0399,89.0
907.4027,91.0
907.7657,36.0
908.1288,91.0
908.49207,64.0
908.85547,43.0
909.219,108.0
909.5827,64.0
909.94653,62.0
910.3105,107.0
910.6746,39.0
911.0389,80.0
911.4033,84.0
911.7679,62.0
912.13257,96.0
912.49744,52.0
912.8624,45.0
913.2276,116.0
913.5929,55.0
913.9583,50.0
914.3239,103.0
914.68964,41.0
915.05554,77.0
915.4216,90.0
915.7877,43.0
916.15405,106.0
916.5205,65.0
916.88715,49.0
917.2539,114.0
917.6208,49.0
917.98785,58.0
918.35504,108.0
918.7224,50.0
919.0899,91.0
919.4575,72.0
919.8253,64.0
920.19324,123.0
920.56134,42.0
920.92957,58.0
921.2979,125.0
921.66644,45.0
922.0351,55.0
922.40393,88.0
922.7729,47.0
923.14197,109.0
923.5112,78.0
923.8806,57.0
924.2502,99.0
924.6199,46.0
924.98975,75.0
925.35974,84.0
925.72986,34.0
926.10016,92.0
926.4706,49.0
926.8412,57.0
927.2119,100.0
927.5828,36.0
927.95386,64.0
928.325,114.0
928.69635,51.0
929.0678,80.0
929.43945,109.0
929.8112,61.0
930.18317,81.0
930.55524,63.0
930.9274,73.0
931.2998,103.0
931.6723,59.0
932.045,69.0
932.4178,72.0
932.7908,42.0
933.1639,98.0
933.5372,113.0
933.9106,61.0
934.2841,123.0
934.65784,49.0
935.0317,89.0
935.4057,107.0
935.77985,35.0
936.1542,97.0
936.5286,61.0
936.90326,47.0
937.278,123.0
937.65295,45.0
938.028,77.0
938.4032,86.0
938.77856,31.0
939.15405,92.0
939.5297,53.0
939.9055,60.0
940.2815,90.0
940.6576,52.0
941.0339,78.0
941.4103,83.0
941.78687,48.0
942.1636,101.0
942.54047,61.0
942.9175,67.0
943.2947,93.0
943.672,47.0
944.04944,86.0
944.42706,71.0
944.8048,48.0
945.18274,97.0
945.5608,60.0
945.939,65.0
946.3174,89.0
946.6959,40.0
947.0746,72.0
947.4534,94.0
947.8324,42.0
948.21155,81.0
948.5908,48.0
948.9703,68.0
949.34985,111.0
949.7296,33.0
950.1095,74.0
950.48956,70.0
950.86975,44.0
951.2501,85.0
951.6306,50.0
952.0113,87.0
952.3921,103.0
952.7731,37.0
953.1542,86.0
953.53546,59.0
953.9169,47.0
954.29846,98.0
954.6802,46.0
955.0621,74.0
955.4441,93.0
955.8263,50.0
956.2086,97.0
956.5911,53.0
956.97375,58.0
957.35657,103.0
957.7395,53.0
958.1226,77.0
958.50586,64.0
958.8893,38.0
959.2728,116.0
959.65656,33.0
960.0404,56.0
960.42444,85.0
960.8086,37.0
961.19293,95.0
961.5774,48.0
961.96204,61.0
962.3468,97.0
962.73175,43.0
963.1168,75.0
963.5021,75.0
963.88745,53.0
964.273,103.0
964.6587,47.0
965.04456,63.0
965.4306,88.0
965.8168,38.0
966.2031,96.0
966.5896,62.0
966.97626,66.0
967.36304,81.0
967.75,44.0
968.1371,92.0
968.52435,86.0
968.91174,59.0
969.2993,92.0
969.687,47.0
970.0749,92.0
970.4629,91.0
970.8511,66.0
971.23944,84.0
971.6279,49.0
972.0166,50.0
972.4054,86.0
972.7944,40.0
973.1835,91.0
973.57275,63.0
973.96216,56.0
974.35175,108.0
974.7415,43.0
975.1314,89.0
975.5215,80.0
975.9117,57.0
976.30206,97.0
976.69257,38.0
977.08325,79.0
977.47406,138.0
977.86505,57.0
978.2562,108.0
978.6475,45.0
979.039,71.0
979.4306,94.0
979.8224,52.0
980.2143,103.0
980.6064,65.0
980.99866,67.0
981.39105,95.0
981.7836,37.0
982.17633,115.0
982.5692,66.0
982.9622,55.0
983.3554,88.0
983.7488,40.0
984.1423,94.0
984.53595,57.0
984.92975,56.0
985.3237,88.0
985.71783,58.0
986.1121,97.0
986.5066,78.0
986.9012,85.0
987.29596,92.0
987.69086,53.0
988.08594,85.0
988.4812,70.0
988.8766,51.0
989.27216,92.0
989.66785,66.0
990.0637,80.0
990.4597,79.0
990.8559,40.0
991.25226,104.0
991.64874,40.0
992.0454,63.0
992.4422,89.0
992.8392,50.0
993.2363,95.0
993.6336,60.0
994.03107,77.0
994.42865,87.0
994.8264,72.0
995.22437,96.0
995.62244,41.0
996.0207,64.0
996.4191,100.0
996.8177,39.0
997.21643,110.0
997.6153,52.0
998.01434,64.0
998.4136,93.0
998.8129,41.0
999.21246,92.0
999.6121,62.0
1000.01196,87.0
1000.412,102.0
1000.81213,55.0
1001.21246,106.0
1001.613,53.0
1002.0136,67.0
1002.4144,98.0
1002.81537,54.0
1003.2165,99.0
1003.6178,50.0
1004.0192,60.0
1004.42084,91.0
1004.82263,56.0
1005.22455,103.0
1005.62665,62.0
1006.0289,86.0
1006.4313,80.0
1006.83386,65.0
1007.2366,81.0
1007.63947,63.0
1008.04254,115.0
1008.44574,77.0
1008.8491,62.0
1009.2527,106.0
1009.6564,61.0
1010.06024,97.0
1010.4643,86.0
1010.86847,48.0
1011.2728,89.0
1011.6773,38.0
1012.082,82.0
1012.4868,76.0
1012.8918,51.0
1013.29694,87.0
1013.7023,63.0
1014.1077,123.0
1014.51337,84.0
1014.9192,69.0
1015.32513,98.0
1015.73126,43.0
1016.1376,76.0
1016.544,82.0
1016.9506,62.0
1017.3574,113.0
1017.76434,41.0
1018.17145,89.0
1018.57874,61.0
1018.98615,49.0
1019.39374,97.0
1019.8015,55.0
1020.2094,86.0
1020.6175,46.0
1021.02576,64.0
1021.43414,135.0
1021.8427,56.0
1022.25146,102.0
1022.66034,48.0
1023.0694,89.0
1023.47864,85.0
1023.888,62.0
1024.2976,84.0
1024.7073,51.0
1025.1172,65.0
1025.5272,66.0
1025.9374,70.0
1026.3478,98.0
1026.7583,48.0
1027.169,70.0
1027.5798,75.0
1027.9908,77.0
1028.4021,83.0
1028.8135,72.0
1029.225,101.0
1029.6367,84.0
1030.0486,142.0
1030.4606,80.0
1030.8728,93.0
1031.2852,100.0
1031.6976,53.0
1032.1104,84.0
1032.5232,82.0
1032.9362,56.0
1033.3494,80.0
1033.7627,71.0
1034.1761,84.0
1034.5898,55.0
1035.0037,79.0
1035.4177,75.0
1035.8319,45.0
1036.2462,113.0
1036.6608,76.0
1037.0754,71.0
1037.4902,91.0
1037.9053,68.0
1038.3204,113.0
1038.7357,36.0
1039.1512,83.0
1039.5669,57.0
1039.9827,54.0
1040.3987,77.0
1040.8148,39.0
1041.2312,87.0
1041.6477,66.0
1042.0643,61.0
1042.4812,74.0
1042.8982,41.0
1043.3153,103.0
1043.7327,93.0
1044.1501,105.0
1044.5677,53.0
1044.9856,70.0
1045.4036,74.0
1045.8218,75.0
1046.2401,105.0
1046.6586,60.0
1047.0773,77.0
1047.4961,79.0
1047.915,74.0
1048.3342,106.0
1048.7535,42.0
1049.1731,86.0
1049.5928,69.0
1050.0126,159.0
1050.4326,88.0
1050.8528,134.0
1051.2731,75.0
1051.6936,79.0
1052.1143,109.0
1052.5352,56.0
1052.9562,69.0
1053.3773,104.0
1053.7987,81.0
1054.2202,93.0
1054.6418,51.0
1055.0637,89.0
1055.4857,71.0
1055.908,67.0
1056.3303,96.0
1056.7528,46.0
1057.1755,75.0
1057.5984,76.0
1058.0215,58.0
1058.4447,99.0
1058.868,68.0
1059.2916,92.0
1059.7153,66.0
1060.1392,72.0
1060.5632,81.0
1060.9874,72.0
1061.4119,91.0
1061.8364,67.0
1062.2611,98.0
1062.686,56.0
1063.1111,64.0
1063.5364,77.0
1063.9618,68.0
1064.3873,88.0
1064.8131,45.0
1065.239,106.0
1065.6652,152.0
1066.0914,171.0
1066.5178,80.0
1066.9445,113.0
1067.3712,90.0
1067.7982,97.0
1068.2253,100.0
1068.6526,53.0
1069.0801,83.0
1069.5077,84.0
1069.9355,73.0
1070.3635,91.0
1070.7916,66.0
1071.22,93.0
1071.6484,69.0
1072.0771,93.0
1072.506,60.0
1072.9349,68.0
1073.3641,97.0
1073.7935,63.0
1074.223,125.0
1074.6527,52.0
1075.0825,53.0
1075.5126,81.0
1075.9427,56.0
1076.3732,93.0
1076.8037,45.0
1077.2344,71.0
1077.6653,47.0
1078.0963,64.0
1078.5276,63.0
1078.959,61.0
1079.3906,72.0
1079.8224,50.0
1080.2543,78.0
1080.6864,66.0
1081.1187,68.0
1081.5511,62.0
1081.9838,94.0
1082.4165,80.0
1082.8495,73.0
1083.2826,89.0
1083.716,55.0
1084.1494,82.0
1084.5831,64.0
1085.017,59.0
1085.4509,81.0
1085.8851,51.0
1086.3195,83.0
1086.754,32.0
1087.1887,83.0
1087.6235,74.0
1088.0586,88.0
1088.4938,77.0
1088.9292,71.0
1089.3647,105.0
1089.8005,63.0
1090.2365,135.0
1090.6725,73.0
1091.1088,85.0
1091.5452,135.0
1091.9818,75.0
1092.4186,101.0
1092.8556,35.0
1093.2927,85.0
1093.7301,47.0
1094.1676,73.0
1094.6052,68.0
1095.0431,56.0
1095.4811,90.0
1095.9193,54.0
1096.3577,91.0
1096.7963,50.0
1097.235,79.0
1097.6738,62.0
1098.1129,82.0
1098.5521,73.0
1098.9916,52.0
1099.4312,72.0
1099.871,58.0
1100.3109,104.0
1100.751,46.0
1101.1913,63.0
1101.6317,41.0
1102.0724,49.0
1102.5132,76.0
1102.9542,45.0
1103.3954,101.0
1103.8368,73.0
1104.2783,96.0
1104.72,59.0
1105.1619,59.0
1105.6039,75.0
1106.0461,65.0
1106.4885,82.0
1106.9312,47.0
1107.3739,81.0
1107.8169,34.0
1108.26,84.0
1108.7034,39.0
1109.1469,68.0
1109.5905,86.0
1110.0343,64.0
1110.4783,73.0
1110.9225,47.0
1111.3668,67.0
1111.8114,36.0
1112.2561,89.0
1112.701,59.0
1113.1461,68.0
1113.5914,70.0
1114.0369,56.0
1114.4824,73.0
1114.9282,47.0
1115.3741,79.0
1115.8203,48.0
1116.2666,77.0
1116.7131,68.0
1117.1598,58.0
1117.6067,69.0
1118.0537,57.0
1118.501,74.0
1118.9484,58.0
1119.396,77.0
1119.8438,37.0
1120.2917,82.0
1120.7399,51.0
1121.1881,68.0
1121.6366,46.0
1122.0852,68.0
1122.534,83.0
1122.983,57.0
1123.4323,80.0
1123.8816,41.0
1124.3312,73.0
1124.7809,49.0
1125.2308,76.0
1125.6809,52.0
1126.1312,69.0
1126.5817,74.0
1127.0323,56.0
1127.4832,78.0
1127.9342,48.0
1128.3854,87.0
1128.8367,50.0
1129.2882,66.0
1129.7399,40.0
1130.1918,70.0
1130.6438,66.0
1131.0961,93.0
1131.5485,99.0
1132.0011,73.0
1132.4539,98.0
1132.9069,49.0
1133.36,82.0
1133.8134,37.0
1134.2668,84.0
1134.7206,63.0
1135.1744,77.0
1135.6285,52.0
1136.0828,60.0
1136.5372,67.0
1136.9918,48.0
1137.4467,80.0
1137.9016,52.0
1138.3568,88.0
1138.8121,49.0
1139.2677,84.0
1139.7234,41.0
1140.1793,78.0
1140.6354,60.0
1141.0917,61.0
1141.5481,68.0
1142.0048,37.0
1142.4615,83.0
1142.9186,43.0
1143.3757,89.0
1143.8331,45.0
1144.2906,91.0
1144.7484,30.0
1145.2063,76.0
1145.6644,38.0
1146.1227,63.0
1146.5812,83.0
1147.0398,48.0
1147.4987,68.0
1147.9576,46.0
1148.4169,169.0
1148.8762,53.0
1149.3358,126.0
1149.7955,49.0
1150.2555,126.0
1150.7156,62.0
1151.1759,78.0
1151.6364,65.0
1152.097,61.0
1152.5579,85.0
1153.0189,61.0
1153.4801,74.0
1153.9415,54.0
1154.4031,96.0
1154.8649,56.0
1155.3268,90.0
1155.789,45.0
1156.2512,83.0
1156.7137,61.0
1157.1764,81.0
1157.6393,69.0
1158.1023,63.0
1158.5656,78.0
1159.0289,64.0
1159.4926,83.0
1159.9563,44.0
1160.4203,93.0
1160.8844,50.0
1161.3488,92.0
1161.8134,47.0
1162.2781,83.0
1162.743,39.0
1163.2081,80.0
1163.6735,54.0
1164.1389,54.0
1164.6046,63.0
1165.0704,60.0
1165.5365,86.0
1166.0027,56.0
1166.4691,90.0
1166.9357,58.0
1167.4025,83.0
1167.8694,38.0
1168.3365,86.0
1168.8038,38.0
1169.2714,72.0
1169.739,67.0
1170.2069,81.0
1170.675,56.0
1171.1433,69.0
1171.6118,75.0
1172.0804,56.0
1172.5493,80.0
1173.0183,62.0
1173.4875,108.0
1173.9569,62.0
1174.4265,128.0
1174.8962,45.0
1175.3662,101.0
1175.8363,42.0
1176.3066,95.0
1176.7772,63.0
1177.2479,94.0
1177.7189,51.0
1178.19,64.0
1178.6613,60.0
1179.1327,74.0
1179.6044,53.0
1180.0762,61.0
1180.5482,99.0
1181.0204,69.0
1181.4928,90.0
1181.9655,57.0
1182.4382,112.0
1182.9113,58.0
1183.3844,65.0
1183.8578,54.0
1184.3313,67.0
1184.805,36.0
1185.2789,97.0
1185.753,52.0
1186.2273,88.0
1186.7018,50.0
1187.1765,55.0
1187.6514,68.0
1188.1265,67.0
1188.6017,70.0
1189.0771,50.0
1189.5527,82.0
1190.0286,43.0
1190.5045,78.0
1190.9807,56.0
1191.4572,82.0
1191.9337,57.0
1192.4105,78.0
1192.8875,41.0
1193.3646,72.0
1193.8419,59.0
1194.3195,93.0
1194.7972,58.0
1195.2751,76.0
1195.7533,55.0
1196.2316,72.0
1196.7101,41.0
1197.1887,94.0
1197.6676,68.0
1198.1467,76.0
1198.626,76.0
1199.1055,46.0
1199.5851,87.0
1200.065,65.0
1200.5449,81.0
1201.0251,59.0
1201.5056,77.0
1201.9862,50.0
1202.467,83.0
1202.948,40.0
1203.4292,74.0
1203.9105,48.0
1204.3921,77.0
1204.8739,50.0
1205.3558,97.0
1205.838,42.0
1206.3203,75.0
1206.8029,53.0
1207.2855,83.0
1207.7684,43.0
1208.2516,99.0
1208.7349,57.0
1209.2184,76.0
1209.702,56.0
1210.1859,70.0
1210.67,65.0
1211.1543,63.0
1211.6388,92.0
1212.1234,50.0
1212.6083,66.0
1213.0933,61.0
1213.5785,56.0
1214.064,63.0
1214.5496,75.0
1215.0354,54.0
1215.5214,88.0
1216.0076,36.0
1216.494,93.0
1216.9806,59.0
1217.4674,67.0
1217.9543,63.0
1218.4415,88.0
1218.929,72.0
1219.4165,85.0
1219.9043,63.0
1220.3922,61.0
1220.8804,61.0
1221.3688,90.0
1221.8573,41.0
1222.3461,83.0
1222.835,43.0
1223.3241,85.0
1223.8135,43.0
1224.303,87.0
1224.7927,51.0
1225.2826,79.0
1225.7727,64.0
1226.2631,96.0
1226.7535,57.0
1227.2443,94.0
1227.7351,57.0
1228.2262,72.0
1228.7175,55.0
1229.209,101.0
1229.7007,66.0
1230.1925,91.0
1230.6846,59.0
1231.1769,82.0
1231.6693,65.0
1232.162,68.0
1232.6549,80.0
1233.148,74.0
1233.6412,66.0
1234.1346,83.0
1234.6283,74.0
1235.1222,90.0
1235.6162,65.0
1236.1105,75.0
1236.6049,78.0
1237.0995,66.0
1237.5944,76.0
1238.0894,56.0
1238.5846,83.0
1239.0801,73.0
1239.5757,83.0
1240.0715,61.0
1240.5675,83.0
1241.0637,59.0
1241.5602,83.0
1242.0568,74.0
1242.5536,79.0
1243.0507,73.0
1243.5479,92.0
1244.0453,62.0
1244.5428,75.0
1245.0406,70.0
1245.5387,69.0
1246.0369,67.0
1246.5353,128.0
1247.0339,72.0
1247.5327,106.0
1248.0317,70.0
1248.531,87.0
1249.0304,69.0
1249.53,83.0
1250.0298,55.0
1250.5298,78.0
1251.03,52.0
1251.5304,65.0
1252.031,63.0
1252.5319,61.0
1253.0328,67.0
1253.534,67.0
1254.0355,49.0
1254.5371,66.0
1255.039,83.0
1255.541,71.0
1256.0432,66.0
1256.5457,65.0
1257.0482,63.0
1257.551,75.0
1258.0541,59.0
1258.5573,77.0
1259.0607,53.0
1259.5643,76.0
1260.0681,60.0
1260.5721,88.0
1261.0764,71.0
1261.5808,61.0
1262.0854,74.0
1262.5903,73.0
1263.0953,81.0
1263.6006,72.0
1264.1061,79.0
1264.6117,80.0
1265.1176,73.0
1265.6237,76.0
1266.1299,66.0
1266.6364,83.0
1267.1431,61.0
1267.6499,86.0
1268.157,79.0
1268.6642,69.0
1269.1716,68.0
1269.6793,66.0
1270.1871,72.0
1270.6952,94.0
1271.2035,66.0
1271.7119,76.0
1272.2206,69.0
1272.7295,73.0
1273.2385,69.0
1273.7478,66.0
1274.2573,75.0
1274.767,61.0
1275.2769,81.0
1275.787,58.0
1276.2972,73.0
1276.8077,90.0
1277.3185,85.0
1277.8295,87.0
1278.3406,82.0
1278.8519,77.0
1279.3635,85.0
1279.8752,56.0
1280.3872,95.0
1280.8994,66.0
1281.4117,92.0
1281.9243,50.0
1282.4371,87.0
1282.9501,64.0
1283.4633,87.0
1283.9767,42.0
1284.4902,81.0
1285.004,48.0
1285.5181,111.0
1286.0322,43.0
1286.5466,74.0
1287.0613,54.0
1287.576,77.0
1288.0911,64.0
1288.6063,78.0
1289.1218,78.0
1289.6375,67.0
1290.1533,63.0
1290.6694,82.0
1291.1857,66.0
1291.7021,54.0
1292.2189,69.0
1292.7357,81.0
1293.2528,86.0
1293.7701,64.0
1294.2876,90.0
1294.8053,52.0
1295.3232,72.0
1295.8414,62.0
1296.3597,75.0
1296.8783,48.0
1297.3971,75.0
1297.916,54.0
1298.4352,68.0
1298.9546,45.0
1299.4741,89.0
1299.9939,52.0
1300.5139,84.0
1301.0342,55.0
1301.5546,118.0
1302.0752,53.0
1302.5961,102.0
1303.1171,74.0
1303.6383,89.0
1304.1598,83.0
1304.6814,78.0
1305.2032,61.0
1305.7253,67.0
1306.2477,75.0
1306.7701,53.0
1307.2928,71.0
1307.8158,52.0
1308.3389,62.0
1308.8622,52.0
1309.3857,60.0
1309.9095,47.0
1310.4335,64.0
1310.9576,52.0
1311.482,76.0
1312.0066,51.0
1312.5314,78.0
1313.0564,48.0
1313.5817,75.0
1314.107,66.0
1314.6327,81.0
1315.1586,64.0
1315.6847,75.0
1316.2109,71.0
1316.7374,73.0
1317.2642,80.0
1317.791,74.0
1318.3181,81.0
1318.8455,49.0
1319.373,83.0
1319.9008,55.0
1320.4287,75.0
1320.9569,55.0
1321.4854,91.0
1322.0139,49.0
1322.5427,77.0
1323.0718,61.0
1323.601,68.0
1324.1304,65.0
1324.66,76.0
1325.19,79.0
1325.72,80.0
1326.2502,76.0
1326.7808,56.0
1327.3115,86.0
1327.8424,52.0
1328.3735,81.0
1328.9049,46.0
1329.4365,81.0
1329.9683,43.0
1330.5002,88.0
1331.0325,49.0
1331.565,94.0
1332.0975,60.0
1332.6304,69.0
1333.1635,65.0
1333.6968,79.0
1334.2302,77.0
1334.7639,70.0
1335.2979,76.0
1335.832,58.0
1336.3663,70.0
1336.9009,51.0
1337.4357,74.0
1337.9707,48.0
1338.5059,64.0
1339.0413,53.0
1339.5769,69.0
1340.1128,57.0
1340.6488,53.0
1341.185,62.0
1341.7216,67.0
1342.2583,70.0
1342.7952,52.0
1343.3323,91.0
1343.8696,47.0
1344.4072,67.0
1344.945,62.0
1345.4829,59.0
1346.0211,44.0
1346.5596,80.0
1347.0981,71.0
1347.637,80.0
1348.176,69.0
1348.7153,74.0
1349.2548,75.0
1349.7944,86.0
1350.3344,74.0
1350.8745,47.0
1351.4149,92.0
1351.9554,51.0
1352.4962,77.0
1353.0372,60.0
1353.5785,83.0
1354.1199,56.0
1354.6615,72.0
1355.2034,64.0
1355.7455,61.0
1356.2878,81.0
1356.8303,74.0
1357.373,90.0
1357.916,51.0
1358.4592,69.0
1359.0026,41.0
1359.5461,70.0
1360.09,62.0
1360.634,73.0
1361.1783,62.0
1361.7228,80.0
1362.2675,73.0
1362.8124,53.0
1363.3575,92.0
1363.9028,58.0
1364.4484,75.0
1364.9941,55.0
1365.5402,74.0
1366.0864,58.0
1366.6328,85.0
1367.1794,73.0
1367.7263,77.0
1368.2734,64.0
1368.8208,57.0
1369.3683,74.0
1369.916,47.0
1370.464,86.0
1371.0122,43.0
1371.5607,72.0
1372.1093,72.0
1372.6581,72.0
1373.2072,83.0
1373.7565,67.0
1374.306,82.0
1374.8557,62.0
1375.4056,103.0
1375.9558,52.0
1376.5062,83.0
1377.0569,51.0
1377.6077,91.0
1378.1587,73.0
1378.71,74.0
1379.2615,77.0
1379.8132,48.0
1380.3651,77.0
1380.9172,49.0
1381.4696,90.0
1382.0222,52.0
1382.5751,59.0
1383.128,73.0
1383.6813,109.0
1384.2347,64.0
1384.7885,84.0
1385.3424,78.0
1385.8965,53.0
1386.4508,95.0
1387.0054,56.0
1387.5602,73.0
1388.1152,67.0
1388.6705,97.0
1389.226,97.0
1389.7816,60.0
1390.3375,86.0
1390.8937,49.0
1391.4501,107.0
1392.0067,46.0
1392.5635,78.0
1393.1205,62.0
1393.6777,81.0
1394.2352,81.0
1394.793,70.0
1395.3508,104.0
1395.9089,49.0
1396.4673,123.0
1397.0259,80.0
1397.5847,129.0
1398.1438,68.0
1398.703,94.0
1399.2625,71.0
1399.8221,87.0
1400.3821,85.0
1400.9423,46.0
1401.5027,104.0
1402.0632,56.0
1402.624,71.0
1403.185,59.0
1403.7463,65.0
1404.3079,99.0
1404.8696,61.0
1405.4315,90.0
1405.9937,54.0
1406.556,112.0
1407.1187,69.0
1407.6815,65.0
1408.2446,94.0
1408.808,77.0
1409.3715,70.0
1409.9352,56.0
1410.4991,88.0
1411.0634,52.0
1411.6278,79.0
1412.1925,59.0
1412.7573,91.0
1413.3224,108.0
1413.8877,48.0
1414.4532,99.0
1415.019,52.0
1415.5851,79.0
1416.1514,54.0
1416.7178,82.0
1417.2844,78.0
1417.8513,58.0
1418.4185,88.0
1418.9858,53.0
1419.5535,88.0
1420.1213,59.0
1420.6893,78.0
1421.2576,63.0
1421.826,62.0
1422.3948,98.0
1422.9637,65.0
1423.533,74.0
1424.1024,59.0
1424.672,63.0
1425.2418,62.0
1425.8119,56.0
1426.3822,75.0
1426.9528,59.0
1427.5236,75.0
1428.0946,57.0
1428.6659,71.0
1429.2373,80.0
1429.809,52.0
1430.3809,87.0
1430.953,54.0
1431.5254,96.0
1432.098,55.0
1432.6709,92.0
1433.244,88.0
1433.8173,72.0
1434.3907,95.0
1434.9645,64.0
1435.5385,76.0
1436.1127,50.0
1436.6871,72.0
1437.2618,69.0
1437.8368,72.0
1438.412,82.0
1438.9873,51.0
1439.5629,93.0
1440.1387,65.0
1440.7147,78.0
1441.291,62.0
1441.8676,57.0
1442.4443,78.0
1443.0214,59.0
1443.5985,77.0
1444.1759,69.0
1444.7535,93.0
1445.3314,103.0
1445.9095,61.0
1446.4879,78.0
1447.0665,64.0
1447.6454,72.0
1448.2245,75.0
1448.8038,72.0
1449.3833,92.0
1449.963,61.0
1450.543,79.0
1451.1232,56.0
1451.7036,90.0
1452.2843,78.0
1452.8652,64.0
1453.4464,70.0
1454.0278,57.0
1454.6095,101.0
1455.1913,91.0
1455.7733,87.0
1456.3556,92.0
1456.9381,63.0
1457.5209,67.0
1458.1039,60.0
1458.6871,58.0
1459.2706,83.0
1459.8544,48.0
1460.4384,69.0
1461.0226,67.0
1461.6069,123.0
1462.1915,94.0
1462.7764,92.0
1463.3615,82.0
1463.9468,67.0
1464.5323,110.0
1465.1182,57.0
1465.7042,81.0
1466.2905,76.0
1466.8771,69.0
1467.4639,98.0
1468.0509,73.0
1468.6382,75.0
1469.2256,63.0
1469.8132,67.0
1470.4011,107.0
1470.9893,46.0
1471.5776,91.0
1472.1663,82.0
1472.7551,75.0
1473.3442,68.0
1473.9336,54.0
1474.5232,96.0
1475.113,71.0
1475.7031,110.0
1476.2935,80.0
1476.884,59.0
1477.4747,84.0
1478.0657,61.0
1478.6569,89.0
1479.2483,71.0
1479.84,64.0
1480.4319,121.0
1481.024,45.0
1481.6165,79.0
1482.2091,59.0
1482.802,68.0
1483.3951,77.0
1483.9885,61.0
1484.5822,88.0
1485.176,83.0
1485.7701,76.0
1486.3645,91.0
1486.9591,58.0
1487.5538,69.0
1488.1488,63.0
1488.744,72.0
1489.3395,91.0
1489.9352,61.0
1490.5311,64.0
1491.1273,62.0
1491.7238,71.0
1492.3204,69.0
1492.9174,44.0
1493.5145,75.0
1494.1119,66.0
1494.7096,85.0
1495.3075,120.0
1495.9056,88.0
1496.504,137.0
1497.1027,61.0
1497.7015,125.0
1498.3007,102.0
1498.9,53.0
1499.4996,73.0
1500.0995,59.0
1500.6996,79.0
1501.2998,68.0
1501.9003,62.0
1502.501,81.0
1503.1019,46.0
1503.7031,96.0
1504.3046,90.0
1504.9062,63.0
1505.5082,86.0
1506.1104,64.0
1506.7128,91.0
1507.3154,93.0
1507.9183,62.0
1508.5215,95.0
1509.1249,58.0
1509.7285,71.0
1510.3324,88.0
1510.9365,66.0
1511.5409,91.0
1512.1455,116.0
1512.7504,541.0
1513.3555,387.0
1513.9608,178.0
1514.5664,239.0
1515.1722,74.0
1515.7783,152.0
1516.3846,97.0
1516.9912,61.0
1517.598,65.0
1518.2051,73.0
1518.8124,71.0
1519.4199,85.0
1520.0277,77.0
1520.6357,83.0
1521.244,59.0
1521.8525,60.0
1522.4613,86.0
1523.0703,56.0
1523.6796,76.0
1524.2891,85.0
1524.8988,66.0
1525.5088,92.0
1526.119,80.0
1526.7295,78.0
1527.3402,77.0
1527.9512,75.0
1528.5624,92.0
1529.1738,50.0
1529.7855,81.0
1530.3975,84.0
1531.0096,49.0
1531.6221,79.0
1532.2347,64.0
1532.8477,53.0
1533.4608,66.0
1534.0742,59.0
1534.6879,118.0
1535.3018,85.0
1535.9159,65.0
1536.5303,93.0
1537.1449,49.0
1537.7598,55.0
1538.3749,81.0
1538.9902,51.0
1539.6058,86.0
1540.2217,78.0
1540.8378,62.0
1541.4541,87.0
1542.0707,59.0
1542.6875,77.0
1543.3046,67.0
1543.9219,50.0
1544.5394,75.0
1545.1572,57.0
1545.7753,91.0
1546.3936,84.0
1547.0121,52.0
1547.6309,82.0
1548.2499,84.0
1548.8691,69.0
1549.4886,83.0
1550.1084,67.0
1550.7284,79.0
1551.3486,88.0
1551.9691,60.0
1552.5898,98.0
1553.2109,72.0
1553.8323,79.0
1554.4539,93.0
1555.0757,42.0
1555.6978,86.0
1556.3201,71.0
1556.9426,59.0
1557.5654,89.0
1558.1885,80.0
1558.8118,69.0
1559.4353,80.0
1560.0591,50.0
1560.6831,77.0
1561.3074,84.0
1561.9319,51.0
1562.5566,83.0
1563.1816,70.0
1563.8069,65.0
1564.4324,82.0
1565.0581,56.0
1565.6841,62.0
1566.3103,70.0
1566.9368,56.0
1567.5636,67.0
1568.1907,61.0
1568.818,79.0
1569.4456,91.0
1570.0734,65.0
1570.7014,70.0
1571.3297,94.0
1571.9583,58.0
1572.587,67.0
1573.2161,68.0
1573.8453,67.0
1574.4749,81.0
1575.1046,45.0
1575.7346,70.0
1576.3649,70.0
1576.9954,47.0
1577.6261,80.0
1578.2572,60.0
1578.8885,61.0
1579.5201,79.0
1580.152,76.0
1580.784,69.0
1581.4164,82.0
1582.049,47.0
1582.6818,62.0
1583.3148,79.0
1583.9481,60.0
1584.5817,78.0
1585.2155,69.0
1585.8495,72.0
1586.4839,98.0
1587.1185,61.0
1587.7534,86.0
1588.3885,91.0
1589.0239,62.0
1589.6595,65.0
1590.2954,79.0
1590.9315,68.0
1591.5679,68.0
1592.2045,54.0
1592.8413,60.0
1593.4784,80.0
1594.1158,47.0
1594.7535,81.0
1595.3915,70.0
1596.0297,52.0
1596.6681,78.0
1597.3068,82.0
1597.9457,52.0
1598.5848,77.0
1599.2242,81.0
1599.8639,71.0
1600.5038,67.0
1601.144,70.0
1601.7845,79.0
1602.4253,87.0
1603.0663,51.0
1603.7075,81.0
1604.349,80.0
1604.9907,37.0
1605.6327,96.0
1606.2749,69.0
1606.9174,49.0
1607.5602,68.0
1608.2032,67.0
1608.8466,67.0
1609.4901,74.0
1610.1339,67.0
1610.778,67.0
1611.4222,71.0
1612.0668,65.0
1612.7115,73.0
1613.3567,75.0
1614.0021,61.0
1614.6477,77.0
1615.2936,83.0
1615.9397,71.0
1616.586,78.0
1617.2327,69.0
1617.8795,59.0
1618.5266,75.0
1619.1741,63.0
1619.8218,62.0
1620.4697,81.0
1621.1179,55.0
1621.7664,82.0
1622.415,89.0
1623.064,43.0
1623.7131,77.0
1624.3627,61.0
1625.0125,55.0
1625.6625,99.0
1626.3127,70.0
1626.9633,65.0
1627.614,77.0
1628.265,88.0
1628.9163,59.0
1629.5679,75.0
1630.2197,75.0
1630.8718,89.0
1631.5242,87.0
1632.1768,67.0
1632.8296,72.0
1633.4827,72.0
1634.1361,53.0
1634.7898,67.0
1635.4437,67.0
1636.0979,66.0
1636.7523,66.0
1637.407,76.0
1638.0619,58.0
1638.7172,85.0
1639.3727,79.0
1640.0284,63.0
1640.6844,95.0
1641.3407,93.0
1641.9972,72.0
1642.6539,63.0
1643.311,69.0
1643.9684,67.0
1644.626,135.0
1645.2838,127.0
1645.9419,87.0
1646.6002,132.0
1647.2589,82.0
1647.9178,82.0
1648.577,108.0
1649.2365,65.0
1649.8961,66.0
1650.556,85.0
1651.2163,77.0
1651.8768,67.0
1652.5376,74.0
1653.1986,54.0
1653.8599,71.0
1654.5214,82.0
1655.1832,67.0
1655.8453,93.0
1656.5077,86.0
1657.1703,57.0
1657.8331,66.0
1658.4962,92.0
1659.1597,58.0
1659.8234,65.0
1660.4873,69.0
1661.1515,61.0
1661.8159,53.0
1662.4806,80.0
1663.1456,44.0
1663.8109,75.0
1664.4764,79.0
1665.1422,51.0
1665.8082,65.0
1666.4746,77.0
1667.1412,60.0
1667.8081,73.0
1668.4752,70.0
1669.1426,59.0
1669.8102,77.0
1670.4781,84.0
1671.1464,53.0
1671.8148,50.0
1672.4835,92.0
1673.1525,74.0
1673.8218,76.0
1674.4913,84.0
1675.1611,63.0
1675.8312,59.0
1676.5015,83.0
1677.1721,74.0
1677.843,63.0
1678.5142,76.0
1679.1855,55.0
1679.8572,72.0
1680.5292,68.0
1681.2014,62.0
1681.8739,66.0
1682.5466,72.0
1683.2196,64.0
1683.893,86.0
1684.5665,83.0
1685.2404,73.0
1685.9144,74.0
1686.5887,72.0
1687.2634,69.0
1687.9384,62.0
1688.6135,75.0
1689.289,64.0
1689.9646,66.0
1690.6406,78.0
1691.3169,80.0
1691.9934,56.0
1692.6702,72.0
1693.3473,59.0
1694.0247,55.0
1694.7023,69.0
1695.3801,79.0
1696.0582,60.0
1696.7367,85.0
1697.4154,88.0
1698.0944,57.0
1698.7736,79.0
1699.4531,97.0
1700.1329,64.0
1700.813,82.0
1701.4933,115.0
1702.1738,94.0
1702.8547,78.0
1703.5359,84.0
1704.2173,78.0
1704.8989,63.0
1705.5809,85.0
1706.2632,71.0
1706.9457,75.0
1707.6284,69.0
1708.3115,68.0
1708.9949,58.0
1709.6785,83.0
1710.3623,78.0
1711.0465,56.0
1711.731,76.0
1712.4156,60.0
1713.1006,53.0
1713.7858,59.0
1714.4713,62.0
1715.1571,62.0
1715.8431,76.0
1716.5294,81.0
1717.2161,55.0
1717.903,72.0
1718.5901,65.0
1719.2775,71.0
1719.9652,62.0
1720.6532,70.0
1721.3414,90.0
1722.0299,57.0
1722.7188,80.0
1723.4078,72.0
1724.0972,61.0
1724.7869,70.0
1725.4768,68.0
1726.167,63.0
1726.8574,68.0
1727.5482,77.0
1728.2393,85.0
1728.9305,69.0
1729.6221,75.0
1730.314,73.0
1731.0061,62.0
1731.6985,83.0
1732.3911,83.0
1733.0841,59.0
1733.7773,72.0
1734.4708,68.0
1735.1647,64.0
1735.8588,66.0
1736.5531,79.0
1737.2477,75.0
1737.9426,54.0
1738.6378,62.0
1739.3333,82.0
1740.0289,45.0
1740.725,69.0
1741.4213,74.0
1742.1178,56.0
1742.8147,65.0
1743.5118,72.0
1744.2092,63.0
1744.9069,72.0
1745.6049,75.0
1746.3031,63.0
1747.0016,65.0
1747.7004,76.0
1748.3995,75.0
1749.0989,56.0
1749.7985,63.0
1750.4984,77.0
1751.1986,63.0
1751.899,39.0
1752.5999,69.0
1753.3009,55.0
1754.0022,59.0
1754.7039,66.0
1755.4058,70.0
1756.1079,53.0
1756.8103,74.0
1757.5131,56.0
1758.2161,60.0
1758.9193,67.0
1759.6229,78.0
1760.3268,57.0
1761.0309,63.0
1761.7354,72.0
1762.4401,62.0
1763.145,78.0
1763.8502,79.0
1764.5558,82.0
1765.2616,85.0
1765.9677,67.0
1766.6741,76.0
1767.3807,80.0
1768.0876,66.0
1768.7949,60.0
1769.5024,89.0
1770.2102,57.0
1770.9183,56.0
1771.6267,78.0
1772.3353,66.0
1773.0443,56.0
1773.7535,82.0
1774.463,60.0
1775.1729,57.0
1775.8829,63.0
1776.5933,67.0
1777.304,65.0
1778.0149,58.0
1778.7261,78.0
1779.4376,76.0
1780.1494,66.0
1780.8615,77.0
1781.5739,68.0
1782.2865,65.0
1782.9994,53.0
1783.7126,62.0
1784.4261,72.0
1785.1399,63.0
1785.854,73.0
1786.5684,76.0
1787.283,75.0
1787.9979,68.0
1788.7131,110.0
1789.4286,63.0
1790.1444,53.0
1790.8605,81.0
1791.5768,80.0
1792.2935,49.0
1793.0104,63.0
1793.7275,87.0
1794.4451,73.0
1795.1628,55.0
1795.8809,64.0
1796.5992,61.0
1797.3179,65.0
1798.0367,80.0
1798.756,68.0
1799.4755,75.0
1800.1953,52.0
1800.9154,72.0
1801.6357,95.0
1802.3564,78.0
1803.0774,57.0
1803.7986,60.0
1804.5201,75.0
1805.242,86.0
1805.964,171.0
1806.6864,162.0
1807.409,123.0
1808.1321,70.0
1808.8553,92.0
1809.5789,99.0
1810.3027,72.0
1811.0269,86.0
1811.7512,116.0
1812.476,94.0
1813.2009,66.0
1813.9261,67.0
1814.6517,81.0
1815.3776,77.0
1816.1038,64.0
1816.8302,75.0
1817.5569,71.0
1818.2839,74.0
1819.0112,58.0
1819.7389,61.0
1820.4668,79.0
1821.195,72.0
1821.9235,72.0
1822.6522,79.0
1823.3812,61.0
1824.1106,67.0
1824.8402,80.0
1825.5702,84.0
1826.3004,70.0
1827.0309,68.0
1827.7617,80.0
1828.4928,106.0
1829.2242,73.0
1829.9559,86.0
1830.6879,77.0
1831.4202,87.0
1832.1527,65.0
1832.8856,61.0
1833.6188,70.0
1834.3522,56.0
1835.0859,50.0
1835.82,60.0
1836.5543,83.0
1837.289,66.0
1838.0238,64.0
1838.759,80.0
1839.4945,72.0
1840.2303,65.0
1840.9664,103.0
1841.7028,89.0
1842.4395,87.0
1843.1764,59.0
1843.9137,63.0
1844.6512,81.0
1845.3892,85.0
1846.1273,64.0
1846.8657,90.0
1847.6045,70.0
1848.3435,70.0
1849.0829,60.0
1849.8225,79.0
1850.5624,83.0
1851.3026,81.0
1852.0431,62.0
1852.7839,80.0
1853.525,77.0
1854.2665,69.0
1855.0082,79.0
1855.7501,97.0
1856.4924,85.0
1857.235,80.0
1857.9779,137.0
1858.7211,153.0
1859.4646,110.0
1860.2084,72.0
1860.9525,83.0
1861.6969,91.0
1862.4415,56.0
1863.1865,64.0
1863.9318,61.0
1864.6774,58.0
1865.4232,69.0
1866.1694,58.0
1866.9159,71.0
1867.6627,84.0
1868.4098,77.0
1869.1571,66.0
1869.9048,89.0
1870.6527,64.0
1871.401,74.0
1872.1495,64.0
1872.8984,48.0
1873.6476,109.0
1874.3971,75.0
1875.1469,72.0
1875.8969,116.0
1876.6472,97.0
1877.3978,81.0
1878.1488,75.0
1878.9,84.0
1879.6516,76.0
1880.4034,78.0
1881.1556,53.0
1881.9081,70.0
1882.6609,70.0
1883.414,74.0
1884.1674,82.0
1884.921,183.0
1885.675,191.0
1886.4293,149.0
1887.1838,92.0
1887.9387,95.0
1888.6938,88.0
1889.4493,78.0
1890.2051,73.0
1890.9612,63.0
1891.7175,62.0
1892.4742,78.0
1893.2312,71.0
1893.9885,64.0
1894.7461,92.0
1895.504,79.0
1896.2622,84.0
1897.0208,91.0
1897.7795,88.0
1898.5387,75.0
1899.2981,58.0
1900.0579,47.0
1900.8179,75.0
1901.5782,79.0
1902.3389,71.0
1903.0999,55.0
1903.8611,67.0
1904.6227,65.0
1905.3845,71.0
1906.1467,58.0
1906.9092,64.0
1907.672,80.0
1908.435,69.0
1909.1985,58.0
1909.9622,66.0
1910.7262,73.0
1911.4905,88.0
1912.2551,73.0
1913.02,88.0
1913.7853,202.0
1914.5508,179.0
1915.3167,102.0
1916.0828,117.0
1916.8492,82.0
1917.616,82.0
1918.383,65.0
1919.1504,60.0
1919.9181,67.0
1920.686,83.0
1921.4543,73.0
1922.2229,72.0
1922.9918,66.0
1923.761,60.0
1924.5305,72.0
1925.3003,69.0
1926.0704,62.0
1926.8408,51.0
1927.6116,66.0
1928.3826,62.0
1929.1539,43.0
1929.9255,74.0
1930.6975,75.0
1931.4698,68.0
1932.2424,62.0
1933.0154,64.0
1933.7886,65.0
1934.5621,73.0
1935.3359,66.0
1936.1101,58.0
1936.8845,82.0
1937.6593,79.0
1938.4343,82.0
1939.2097,74.0
1939.9854,72.0
1940.7614,70.0
1941.5376,76.0
1942.3142,59.0
1943.0912,67.0
1943.8684,67.0
1944.646,57.0
1945.4238,78.0
1946.202,68.0
1946.9805,62.0
1947.7593,63.0
1948.5383,68.0
1949.3177,77.0
1950.0975,43.0
1950.8776,64.0
1951.658,70.0
1952.4386,68.0
1953.2196,64.0
1954.0009,55.0
1954.7825,62.0
1955.5643,63.0
1956.3466,57.0
1957.1292,53.0
1957.912,69.0
1958.6952,58.0
1959.4786,67.0
1960.2625,73.0
1961.0465,70.0
1961.8309,73.0
1962.6157,65.0
1963.4008,60.0
1964.1862,54.0
1964.9718,55.0
1965.7578,71.0
1966.5441,64.0
1967.3307,71.0
1968.1177,75.0
1968.9049,82.0
1969.6925,64.0
1970.4803,69.0
1971.2686,59.0
1972.057,62.0
1972.8458,80.0
1973.635,62.0
1974.4244,61.0
1975.2142,58.0
1976.0043,66.0
1976.7947,66.0
1977.5854,81.0
1978.3765,57.0
1979.1678,64.0
1979.9595,48.0
1980.7515,68.0
1981.5438,76.0
1982.3364,76.0
1983.1294,75.0
1983.9226,53.0
1984.7162,67.0
1985.5101,78.0
1986.3043,70.0
1987.0989,62.0
1987.8937,72.0
1988.6888,66.0
1989.4844,67.0
1990.2802,65.0
1991.0763,60.0
1991.8727,70.0
1992.6694,78.0
1993.4666,77.0
1994.2639,80.0
1995.0616,79.0
1995.8596,79.0
1996.658,67.0
1997.4567,58.0
1998.2556,63.0
1999.0549,75.0
1999.8546,86.0
2000.6545,72.0
2001.4548,64.0
2002.2554,52.0
2003.0563,70.0
2003.8575,69.0
2004.659,70.0
2005.4609,67.0
2006.2631,54.0
2007.0656,58.0
2007.8684,57.0
2008.6715,62.0
2009.475,105.0
2010.2788,98.0
2011.0829,75.0
2011.8873,95.0
2012.6921,89.0
2013.4972,77.0
2014.3026,62.0
2015.1083,59.0
2015.9143,68.0
2016.7207,66.0
2017.5273,56.0
2018.3344,56.0
2019.1417,56.0
2019.9493,70.0
2020.7573,62.0
2021.5657,63.0
2022.3743,63.0
2023.1832,49.0
2023.9926,49.0
2024.8021,64.0
2025.612,67.0
2026.4224,83.0
2027.2329,71.0
2028.0438,54.0
2028.855,81.0
2029.6665,65.0
2030.4784,77.0
2031.2905,64.0
2032.103,56.0
2032.9159,76.0
2033.729,71.0
2034.5425,78.0
2035.3563,64.0
2036.1704,50.0
2036.9849,70.0
2037.7997,53.0
2038.6147,86.0
2039.4302,62.0
2040.246,54.0
2041.062,62.0
2041.8784,79.0
2042.6952,74.0
2043.5123,73.0
2044.3297,61.0
2045.1475,59.0
2045.9656,64.0
2046.7839,71.0
2047.6027,70.0
2048.4216,59.0
2049.241,56.0
2050.0605,63.0
2050.8806,78.0
2051.701,86.0
2052.5217,78.0
2053.3428,73.0
2054.164,67.0
2054.9858,80.0
2055.8079,77.0
2056.6301,71.0
2057.453,67.0
2058.276,51.0
2059.099,66.0
2059.9229,65.0
2060.7468,71.0
2061.571,69.0
2062.3958,61.0
2063.2207,63.0
2064.046,51.0
2064.8716,65.0
2065.6975,55.0
2066.5237,65.0
2067.3503,64.0
2068.1772,64.0
2069.0046,79.0
2069.8323,65.0
2070.6602,57.0
2071.4885,55.0
2072.3171,76.0
2073.146,53.0
2073.9753,58.0
2074.805,61.0
2075.6348,74.0
2076.465,50.0
2077.2957,64.0
2078.1265,60.0
2078.9578,53.0
2079.7893,69.0
2080.6213,61.0
2081.4536,74.0
2082.2861,67.0
2083.1191,86.0
2083.9524,95.0
2084.786,87.0
2085.6199,75.0
2086.454,69.0
2087.2886,60.0
2088.1235,65.0
2088.9587,52.0
2089.7944,64.0
2090.6304,73.0
2091.4666,63.0
2092.3032,51.0
2093.1401,63.0
2093.9773,69.0
2094.815,67.0
2095.6528,70.0
2096.4912,65.0
2097.3298,66.0
2098.1687,60.0
2099.008,58.0
2099.8477,69.0
2100.6875,69.0
2101.5278,65.0
2102.3684,68.0
2103.2095,47.0
2104.0508,61.0
2104.8923,67.0
2105.7344,71.0
2106.5767,66.0
2107.4192,73.0
2108.2622,73.0
2109.1055,61.0
2109.9492,80.0
2110.7932,65.0
2111.6375,70.0
2112.4822,81.0
2113.3271,76.0
2114.1724,58.0
2115.018,72.0
2115.864,78.0
2116.7104,73.0
2117.5571,67.0
2118.404,68.0
2119.2515,61.0
2120.099,73.0
2120.9473,93.0
2121.7957,70.0
2122.6443,51.0
2123.4934,63.0
2124.3428,49.0
2125.1926,59.0
2126.0427,71.0
2126.893,73.0
2127.744,77.0
2128.595,75.0
2129.4463,66.0
2130.298,51.0
2131.1501,53.0
2132.0027,56.0
2132.8555,66.0
2133.7085,63.0
2134.562,71.0
2135.4158,72.0
2136.27,70.0
2137.1245,73.0
2137.9792,88.0
2138.8345,70.0
2139.69,76.0
2140.546,64.0
2141.402,74.0
2142.2585,63.0
2143.1155,98.0
2143.9727,87.0
2144.8303,76.0
2145.6882,80.0
2146.5464,70.0
2147.405,67.0
2148.264,55.0
2149.1233,59.0
2149.983,62.0
2150.843,73.0
2151.7034,72.0
2152.564,65.0
2153.425,61.0
2154.2864,63.0
2155.1482,82.0
2156.0103,54.0
2156.8726,71.0
2157.7354,74.0
2158.5984,70.0
2159.462,76.0
2160.3257,70.0
2161.1897,79.0
2162.0542,88.0
2162.919,102.0
2163.7842,93.0
2164.6497,83.0
2165.5156,74.0
2166.3818,74.0
2167.2483,56.0
2168.1152,70.0
2168.9824,89.0
2169.85,77.0
2170.718,78.0
2171.5864,71.0
2172.455,87.0
2173.324,64.0
2174.1934,45.0
2175.063,77.0
2175.933,72.0
2176.8035,88.0
2177.674,66.0
2178.5452,84.0
2179.4165,94.0
2180.2883,79.0
2181.1604,90.0
2182.033,83.0
2182.9058,65.0
2183.7788,51.0
2184.6523,83.0
2185.5261,68.0
2186.4004,64.0
2187.275,67.0
2188.15,79.0
2189.0251,61.0
2189.9006,76.0
2190.7766,71.0
2191.6528,67.0
2192.5295,68.0
2193.4065,63.0
2194.284,89.0
2195.1616,71.0
2196.0398,85.0
2196.9182,74.0
2197.7969,73.0
2198.676,68.0
2199.5554,77.0
2200.4353,58.0
2201.3154,70.0
2202.196,72.0
2203.077,66.0
2203.9583,65.0
2204.8398,62.0
2205.7217,85.0
2206.604,81.0
2207.4866,78.0
2208.3696,54.0
2209.253,88.0
2210.1367,82.0
2211.0208,79.0
2211.9053,91.0
2212.79,69.0
2213.675,91.0
2214.5605,91.0
2215.4463,106.0
2216.3325,70.0
2217.219,78.0
2218.106,85.0
2218.9932,78.0
2219.8809,65.0
2220.7688,78.0
2221.6572,87.0
2222.546,73.0
2223.4348,72.0
2224.3242,67.0
2225.2139,79.0
2226.104,55.0
2226.9944,72.0
2227.8853,68.0
2228.7764,83.0
2229.668,78.0
2230.5598,78.0
2231.4521,59.0
2232.3447,79.0
2233.2375,85.0
2234.1309,82.0
2235.0244,89.0
2235.9185,89.0
2236.8127,72.0
2237.7075,72.0
2238.6025,69.0
2239.498,86.0
2240.3938,72.0
2241.29,79.0
2242.1865,82.0
2243.0835,95.0
2243.9807,86.0
2244.8784,75.0
2245.7764,74.0
2246.6746,81.0
2247.5732,76.0
2248.4722,80.0
2249.3716,101.0
2250.2712,67.0
2251.1714,79.0
2252.0718,73.0
2252.9727,86.0
2253.8738,84.0
2254.7754,76.0
2255.6772,75.0
2256.5796,83.0
2257.4822,94.0
2258.3853,96.0
2259.2886,92.0
2260.1924,105.0
2261.0964,92.0
2262.001,91.0
2262.9058,85.0
2263.811,68.0
2264.7166,65.0
2265.6226,67.0
2266.5288,89.0
2267.4353,72.0
2268.3423,82.0
2269.2495,70.0
2270.1572,56.0
2271.0652,68.0
2271.9736,79.0
2272.8823,65.0
2273.7915,91.0
2274.701,90.0
2275.6108,142.0
2276.521,160.0
2277.4316,116.0
2278.3425,107.0
2279.254,104.0
2280.1655,86.0
2281.0776,82.0
2281.99,81.0
2282.9028,86.0
2283.816,74.0
2284.7295,94.0
2285.6433,83.0
2286.5576,92.0
2287.4722,68.0
2288.3872,81.0
2289.3025,69.0
2290.2183,75.0
2291.1343,84.0
2292.0508,89.0
2292.9675,112.0
2293.8848,109.0
2294.8022,99.0
2295.7202,83.0
2296.6384,78.0
2297.5571,94.0
2298.476,94.0
2299.3955,64.0
2300.3152,68.0
2301.2354,86.0
2302.1558,105.0
2303.0767,110.0
2303.9978,92.0
2304.9194,93.0
2305.8413,78.0
2306.7637,80.0
2307.6863,80.0
2308.6094,75.0
2309.5327,84.0
2310.4565,73.0
2311.3806,87.0
2312.3052,105.0
2313.23,88.0
2314.1553,86.0
2315.081,84.0
2316.007,114.0
2316.9336,81.0
2317.8604,86.0
2318.7876,112.0
2319.715,138.0
2320.643,124.0
2321.5713,94.0
2322.5,106.0
2323.429,74.0
2324.3584,89.0
2325.288,76.0
2326.2183,75.0
2327.1487,93.0
2328.0796,120.0
2329.0107,107.0
2329.9424,115.0
2330.8743,87.0
2331.8066,101.0
2332.7393,93.0
2333.6724,88.0
2334.6057,93.0
2335.5396,77.0
2336.4739,69.0
2337.4084,90.0
2338.3435,76.0
2339.2788,76.0
2340.2146,71.0
2341.1506,71.0
2342.0872,77.0
2343.024,89.0
2343.9612,100.0
2344.8987,113.0
2345.8367,124.0
2346.775,106.0
2347.7136,122.0
2348.6526,99.0
2349.592,90.0
2350.532,83.0
2351.4722,79.0
2352.4128,85.0
2353.3538,85.0
2354.2952,74.0
2355.2368,84.0
2356.179,87.0
2357.1213,76.0
2358.0642,83.0
2359.0073,71.0
2359.951,82.0
2360.895,74.0
2361.8394,99.0
2362.7842,103.0
2363.7292,92.0
2364.6748,81.0
2365.6206,84.0
2366.567,89.0
2367.5134,73.0
2368.4604,80.0
2369.4077,98.0
2370.3555,77.0
2371.3037,79.0
2372.2522,92.0
2373.2012,75.0
2374.1504,87.0
2375.1,79.0
2376.05,70.0
2377.0005,73.0
2377.9512,75.0
2378.9023,86.0
2379.854,77.0
2380.806,84.0
2381.7583,68.0
2382.711,92.0
2383.664,77.0
2384.6174,76.0
2385.5713,76.0
2386.5256,88.0
2387.4802,98.0
2388.4353,113.0
2389.3906,107.0
2390.3464,87.0
2391.3025,85.0
2392.259,80.0
2393.2158,69.0
2394.173,80.0
2395.1309,84.0
2396.0889,85.0
2397.0474,83.0
2398.006,74.0
2398.9653,94.0
2399.9248,76.0
2400.8848,72.0
2401.8452,69.0
2402.806,65.0
2403.767,87.0
2404.7285,79.0
2405.6904,91.0
2406.6526,91.0
2407.6152,89.0
2408.5784,65.0
2409.5417,84.0
2410.5056,60.0
2411.4697,73.0
2412.4343,82.0
2413.3994,87.0
2414.3647,93.0
2415.3306,94.0
2416.2966,79.0
2417.2632,61.0
2418.23,77.0
2419.1973,66.0
2420.165,62.0
2421.133,81.0
2422.1016,89.0
2423.0703,91.0
2424.0396,91.0
2425.0093,72.0
2425.9792,78.0
2426.9497,71.0
2427.9204,80.0
2428.8916,78.0
2429.863,90.0
2430.835,84.0
2431.8074,111.0
2432.78,91.0
2433.7532,69.0
2434.7266,86.0
2435.7004,65.0
2436.6748,72.0
2437.6494,69.0
2438.6245,76.0
2439.5999,71.0
2440.5757,80.0
2441.552,66.0
2442.5286,84.0
2443.5056,76.0
2444.483,82.0
2445.4607,76.0
2446.439,81.0
2447.4175,84.0
2448.3965,89.0
2449.3757,97.0
2450.3555,78.0
2451.3357,74.0
2452.3162,78.0
2453.297,78.0
2454.2783,71.0
2455.26,86.0
2456.2422,89.0
2457.2246,69.0
2458.2075,67.0
2459.191,59.0
2460.1746,68.0
2461.1587,67.0
2462.143,58.0
2463.128,98.0
2464.1133,81.0
2465.0989,102.0
2466.085,103.0
2467.0713,96.0
2468.058,62.0
2469.0454,74.0
2470.033,81.0
2471.021,68.0
2472.0095,71.0
2472.9983,70.0
2473.9875,64.0
2474.977,57.0
2475.967,65.0
2476.9575,68.0
2477.9482,79.0
2478.9395,72.0
2479.931,84.0
2480.9229,79.0
2481.9153,101.0
2482.908,85.0
2483.9011,74.0
2484.8948,68.0
2485.8887,76.0
2486.883,61.0
2487.878,71.0
2488.873,82.0
2489.8687,79.0
2490.8645,72.0
2491.8608,73.0
2492.8577,61.0
2493.8547,74.0
2494.8523,87.0
2495.8503,90.0
2496.8486,84.0
2497.8474,94.0
2498.8464,107.0
2499.846,91.0
2500.846,94.0
2501.8462,74.0
2502.847,60.0
2503.8481,75.0
2504.8496,71.0
2505.8516,68.0
2506.854,67.0
2507.8567,67.0
2508.8599,68.0
2509.8635,69.0
2510.8674,77.0
2511.8718,79.0
2512.8765,63.0
2513.8816,55.0
2514.8872,77.0
2515.893,71.0
2516.8994,79.0
2517.9062,79.0
2518.9133,85.0
2519.921,72.0
2520.929,85.0
2521.9373,76.0
2522.946,69.0
2523.9553,81.0
2524.9648,71.0
2525.9749,78.0
2526.9854,65.0
2527.996,72.0
2529.0073,76.0
2530.019,84.0
2531.031,64.0
2532.0435,81.0
2533.0562,60.0
2534.0693,72.0
2535.083,79.0
2536.097,70.0
2537.1113,77.0
2538.1262,70.0
2539.1414,82.0
2540.157,63.0
2541.173,67.0
2542.1895,59.0
2543.2063,74.0
2544.2236,70.0
2545.2412,79.0
2546.2593,78.0
2547.2778,73.0
2548.2966,79.0
2549.316,91.0
2550.3357,86.0
2551.3557,83.0
2552.3762,69.0
2553.3972,80.0
2554.4185,70.0
2555.4402,60.0
2556.4624,67.0
2557.485,76.0
2558.508,91.0
2559.5315,72.0
2560.5554,79.0
2561.5796,56.0
2562.6042,87.0
2563.6294,107.0
2564.6548,106.0
2565.6807,98.0
2566.707,94.0
2567.7336,79.0
2568.7607,79.0
2569.7883,73.0
2570.8162,78.0
2571.8445,72.0
2572.8733,74.0
2573.9023,69.0
2574.932,79.0
2575.962,83.0
2576.9922,80.0
2578.023,84.0
2579.0542,84.0
2580.086,82.0
2581.118,75.0
2582.1504,60.0
2583.1833,66.0
2584.2166,90.0
2585.2502,67.0
2586.2844,68.0
2587.3188,86.0
2588.3538,75.0
2589.3892,90.0
2590.4248,85.0
2591.461,71.0
2592.4976,84.0
2593.5347,97.0
2594.572,93.0
2595.6099,76.0
2596.6482,70.0
2597.6868,85.0
2598.7258,77.0
2599.7654,68.0
2600.8052,69.0
2601.8455,73.0
2602.8862,92.0
2603.9275,69.0
2604.969,91.0
2606.011,74.0
2607.0535,89.0
2608.0962,78.0
2609.1394,91.0
2610.183,89.0
2611.2273,102.0
2612.2717,89.0
2613.3167,75.0
2614.362,58.0
2615.4077,87.0
2616.4539,74.0
2617.5005,87.0
2618.5476,85.0
2619.595,71.0
2620.6428,92.0
2621.6912,90.0
2622.7397,82.0
2623.7888,75.0
2624.8384,66.0
2625.8884,87.0
2626.9387,77.0
2627.9895,76.0
2629.0408,101.0
2630.0923,89.0
2631.1443,93.0
2632.1968,96.0
2633.2498,94.0
2634.303,100.0
2635.3567,93.0
2636.411,99.0
2637.4653,100.0
2638.5203,88.0
2639.5757,75.0
2640.6316,64.0
2641.6877,57.0
2642.7444,78.0
2643.8015,82.0
2644.8591,84.0
2645.917,78.0
2646.9753,98.0
2648.0342,78.0
2649.0935,89.0
2650.153,83.0
2651.2131,75.0
2652.2737,72.0
2653.3345,85.0
2654.3958,82.0
2655.4575,61.0
2656.5198,77.0
2657.5823,62.0
2658.6453,61.0
2659.7087,86.0
2660.7727,77.0
2661.837,114.0
2662.9016,92.0
2663.9668,105.0
2665.0325,110.0
2666.0984,101.0
2667.1648,97.0
2668.2317,102.0
2669.299,88.0
2670.3667,75.0
2671.4348,77.0
2672.5034,80.0
2673.5725,59.0
2674.6418,78.0
2675.7117,75.0
2676.782,88.0
2677.8528,81.0
2678.9238,82.0
2679.9954,73.0
2681.0674,78.0
2682.14,74.0
2683.2126,74.0
2684.286,74.0
2685.3596,85.0
2686.4338,94.0
2687.5083,75.0
2688.5833,65.0
2689.6587,80.0
2690.7346,79.0
2691.8108,94.0
2692.8875,99.0
2693.9646,91.0
2695.0422,95.0
2696.1204,80.0
2697.1987,73.0
2698.2776,83.0
2699.357,96.0
2700.4368,86.0
2701.5168,85.0
2702.5974,89.0
2703.6785,79.0
2704.76,93.0
2705.8418,77.0
2706.924,70.0
2708.0068,71.0
2709.09,85.0
2710.1738,83.0
2711.2578,85.0
2712.3423,84.0
2713.4272,77.0
2714.5127,86.0
2715.5984,80.0
2716.6846,71.0
2717.7712,83.0
2718.8584,83.0
2719.946,91.0
2721.034,82.0
2722.1223,99.0
2723.2112,89.0
2724.3005,77.0
2725.3901,80.0
2726.4802,79.0
2727.5708,80.0
2728.6619,75.0
2729.7534,124.0
2730.8452,97.0
2731.9375,102.0
2733.0303,80.0
2734.1235,69.0
2735.2173,142.0
2736.3113,118.0
2737.4058,102.0
2738.5007,94.0
2739.5962,79.0
2740.6921,64.0
2741.7883,63.0
2742.885,69.0
2743.9822,79.0
2745.0798,89.0
2746.178,91.0
2747.2764,81.0
2748.3752,77.0
2749.4746,78.0
2750.5745,99.0
2751.6748,67.0
2752.7754,86.0
2753.8765,86.0
2754.978,73.0
2756.08,65.0
2757.1826,53.0
2758.2854,74.0
2759.3887,88.0
2760.4924,72.0
2761.5967,93.0
2762.7014,81.0
2763.8064,91.0
2764.9119,75.0
2766.0178,84.0
2767.1243,86.0
2768.2312,81.0
2769.3384,70.0
2770.446,73.0
2771.5542,75.0
2772.6628,75.0
2773.772,75.0
2774.8816,81.0
2775.9915,121.0
2777.1018,90.0
2778.2126,120.0
2779.324,95.0
2780.4358,93.0
2781.5479,84.0
2782.6604,78.0
2783.7734,69.0
2784.887,75.0
2786.001,77.0
2787.1155,78.0
2788.2302,51.0
2789.3455,83.0
2790.4612,98.0
2791.5774,176.0
2792.694,260.0
2793.8113,299.0
2794.9287,321.0
2796.0466,212.0
2797.165,157.0
2798.284,155.0
2799.4033,154.0
2800.5232,117.0
2801.6433,101.0
2802.764,122.0
2803.885,114.0
2805.0066,117.0
2806.1287,123.0
2807.2512,210.0
2808.374,221.0
2809.4973,175.0
2810.621,130.0
2811.7454,131.0
2812.87,136.0
2813.9954,103.0
2815.1208,136.0
2816.2468,104.0
2817.3733,121.0
2818.5002,113.0
2819.6277,92.0
2820.7556,112.0
2821.884,115.0
2823.0127,123.0
2824.1418,117.0
2825.2715,110.0
2826.4016,112.0
2827.5322,105.0
2828.6633,104.0
2829.7947,135.0
2830.9265,132.0
2832.0588,122.0
2833.1917,129.0
2834.325,114.0
2835.4587,111.0
2836.593,115.0
2837.7275,106.0
2838.8625,136.0
2839.998,108.0
2841.134,103.0
2842.2705,106.0
2843.4075,130.0
2844.545,108.0
2845.6829,104.0
2846.821,149.0
2847.9597,112.0
2849.0989,128.0
2850.2385,125.0
2851.3787,129.0
2852.5193,126.0
2853.6604,126.0
2854.8018,121.0
2855.9436,103.0
2857.086,129.0
2858.2288,138.0
2859.372,129.0
2860.5159,102.0
2861.6602,143.0
2862.805,103.0
2863.95,131.0
2865.0955,183.0
2866.2415,159.0
2867.388,141.0
2868.535,126.0
2869.6824,111.0
2870.8303,114.0
2871.9788,142.0
2873.1274,114.0
2874.2766,139.0
2875.4263,140.0
2876.5764,140.0
2877.727,129.0
2878.8782,108.0
2880.0298,126.0
2881.182,125.0
2882.3345,133.0
2883.4873,120.0
2884.6406,106.0
2885.7944,113.0
2886.9487,117.0
2888.1035,125.0
2889.2588,162.0
2890.4146,180.0
2891.5708,192.0
2892.7275,169.0
2893.8845,124.0
2895.042,118.0
2896.2,116.0
2897.3584,120.0
2898.5173,122.0
2899.6768,120.0
2900.8367,103.0
2901.997,96.0
2903.158,127.0
2904.3193,125.0
2905.481,140.0
2906.643,137.0
2907.8057,209.0
2908.9688,250.0
2910.1323,234.0
2911.2964,185.0
2912.461,138.0
2913.626,119.0
2914.7915,118.0
2915.9575,94.0
2917.124,129.0
2918.2908,109.0
2919.458,131.0
2920.6257,107.0
2921.794,167.0
2922.9626,166.0
2924.1318,200.0
2925.3015,164.0
2926.4717,185.0
2927.6423,133.0
2928.8135,126.0
2929.985,117.0
2931.157,106.0
2932.3293,118.0
2933.5022,130.0
2934.6755,123.0
2935.8494,116.0
2937.0237,102.0
2938.1985,104.0
2939.3738,143.0
2940.5496,148.0
2941.7258,124.0
2942.9026,129.0
2944.0798,140.0
2945.2576,137.0
2946.4358,136.0
2947.6143,102.0
2948.7932,144.0
2949.9727,99.0
2951.1526,129.0
2952.333,120.0
2953.514,120.0
2954.6953,91.0
2955.8772,111.0
2957.0596,109.0
2958.2424,135.0
2959.4258,135.0
2960.6096,123.0
2961.794,122.0
2962.9788,98.0
2964.164,100.0
2965.3496,129.0
2966.5356,105.0
2967.7222,100.0
2968.9092,92.0
2970.0967,95.0
2971.2847,121.0
2972.4731,108.0
2973.662,123.0
2974.8516,114.0
2976.0415,107.0
2977.232,119.0
2978.4229,127.0
2979.6143,134.0
2980.8062,127.0
2981.9985,114.0
2983.1914,114.0
2984.3848,105.0
2985.5786,117.0
2986.773,119.0
2987.9678,112.0
2989.1628,127.0
2990.3584,146.0
2991.5544,120.0
2992.751,139.0
2993.948,128.0
2995.1455,139.0
2996.3435,133.0
2997.542,128.0
2998.741,107.0
2999.9404,116.0
3001.1404,115.0
3002.3408,121.0
3003.5417,130.0
3004.7432,127.0
3005.945,135.0
3007.1475,117.0
3008.3503,145.0
3009.5537,133.0
3010.7576,157.0
3011.962,99.0
3013.1667,126.0
3014.372,136.0
3015.578,118.0
3016.7842,124.0
3017.991,84.0
3019.1982,102.0
3020.406,155.0
3021.6143,165.0
3022.823,147.0
3024.0322,107.0
3025.242,112.0
3026.4521,133.0
3027.6628,137.0
3028.874,107.0
3030.0857,110.0
3031.2976,121.0
3032.51,126.0
3033.723,123.0
3034.9363,112.0
3036.1501,113.0
3037.3645,95.0
3038.5793,129.0
3039.7947,99.0
3041.0105,137.0
3042.2268,123.0
3043.4436,127.0
3044.661,112.0
3045.8787,114.0
3047.097,108.0
3048.3157,108.0
3049.535,119.0
3050.7546,107.0
3051.9749,114.0
3053.1956,105.0
3054.4167,107.0
3055.6384,104.0
3056.8606,125.0
3058.0833,102.0
3059.3064,128.0
3060.53,133.0
3061.7542,118.0
3062.9788,104.0
3064.2039,119.0
3065.4294,134.0
3066.6555,101.0
3067.882,112.0
3069.1091,113.0
3070.3367,116.0
3071.5647,127.0
3072.7932,111.0
3074.0222,125.0
3075.2517,119.0
3076.4817,110.0
3077.7124,116.0
3078.9436,106.0
3080.1753,101.0
3081.4075,124.0
3082.6401,123.0
3083.8733,110.0
3085.107,96.0
3086.341,116.0
3087.5757,108.0
3088.8108,126.0
3090.0464,148.0
3091.2825,118.0
3092.519,128.0
3093.756,125.0
3094.9937,127.0
3096.2317,116.0
3097.4702,134.0
3098.7092,102.0
3099.9487,101.0
3101.1887,106.0
3102.4292,126.0
3103.6702,103.0
3104.9116,108.0
3106.1536,112.0
3107.396,107.0
3108.639,116.0
3109.8823,128.0
3111.1262,143.0
3112.3706,145.0
3113.6155,139.0
3114.8608,99.0
3116.1067,121.0
3117.353,125.0
3118.5999,114.0
3119.8474,119.0
3121.0955,106.0
3122.344,131.0
3123.593,122.0
3124.8425,109.0
3126.0925,84.0
3127.343,143.0
3128.594,120.0
3129.8455,121.0
3131.0974,117.0
3132.3499,83.0
3133.6028,118.0
3134.8562,106.0
3136.11,111.0
3137.3645,124.0
3138.6194,116.0
3139.8748,121.0
3141.1306,106.0
3142.387,115.0
3143.6438,103.0
3144.9014,121.0
3146.1594,126.0
3147.418,144.0
3148.677,129.0
3149.9365,114.0
3151.1965,127.0
3152.457,131.0
3153.718,138.0
3154.9795,111.0
3156.2415,122.0
3157.504,134.0
3158.7668,110.0
3160.0303,121.0
3161.2942,108.0
3162.5586,132.0
3163.8237,94.0
3165.0894,107.0
3166.3555,105.0
3167.622,137.0
3168.8892,100.0
3170.1567,103.0
3171.4248,130.0
3172.6934,131.0
3173.9624,99.0
3175.232,93.0
3176.502,106.0
3177.7725,113.0
3179.0435,115.0
3180.3152,113.0
3181.5874,129.0
3182.86,95.0
3184.1333,120.0
3185.407,129.0
3186.6812,125.0
3187.9558,138.0
3189.231,111.0
3190.5066,133.0
3191.7827,118.0
3193.0593,114.0
3194.3367,129.0
3195.6145,116.0
3196.8928,123.0
3198.1716,101.0
3199.451,138.0
3200.7307,129.0
3202.011,107.0
3203.2917,110.0
3204.573,119.0
3205.8547,106.0
3207.137,109.0
3208.42,136.0
3209.7034,132.0
3210.9873,129.0
3212.2717,106.0
3213.5566,117.0
3214.842,122.0
3216.128,115.0
3217.4143,124.0
3218.7012,126.0
3219.9888,105.0
3221.2769,116.0
3222.5654,140.0
3223.8545,131.0
3225.144,100.0
3226.434,135.0
3227.7246,120.0
3229.0156,118.0
3230.3071,108.0
3231.5994,106.0
3232.892,108.0
3234.1853,111.0
3235.479,140.0
3236.7732,117.0
3238.0679,111.0
3239.363,132.0
3240.6587,105.0
3241.9548,131.0
3243.2517,104.0
3244.549,128.0
3245.847,122.0
3247.1453,99.0
3248.444,101.0
3249.7434,101.0
3251.0432,98.0
3252.3438,114.0
3253.6448,149.0
3254.9463,104.0
3256.2483,109.0
3257.5508,95.0
3258.8538,108.0
3260.1572,128.0
3261.4612,122.0
3262.7659,99.0
3264.071,120.0
3265.3767,102.0
3266.6829,113.0
3267.9895,108.0
3269.2966,137.0
3270.6042,150.0
3271.9126,121.0
3273.2214,107.0
3274.5308,125.0
3275.8406,111.0
3277.151,111.0
3278.4617,126.0
3279.773,119.0
3281.085,99.0
3282.3975,121.0
3283.7104,116.0
3285.024,107.0
3286.338,113.0
3287.6523,124.0
3288.9673,112.0
3290.283,133.0
3291.599,122.0
3292.9158,110.0
3294.233,123.0
3295.5505,117.0
3296.8687,127.0
3298.1875,125.0
3299.5068,96.0
3300.8267,116.0
3302.147,100.0
3303.4678,119.0
3304.789,116.0
3306.111,111.0
3307.4336,126.0
3308.7566,109.0
3310.08,127.0
3311.404,114.0
3312.7285,117.0
3314.0537,105.0
3315.3794,118.0
3316.7056,115.0
3318.0322,120.0
3319.3594,129.0
3320.687,131.0
3322.0154,102.0
3323.3442,128.0
3324.6736,91.0
3326.0034,109.0
3327.3337,111.0
3328.6648,145.0
3329.9963,92.0
3331.3284,122.0
3332.661,142.0
3333.994,119.0
3335.3274,115.0
3336.6616,143.0
3337.9963,116.0
3339.3315,121.0
3340.6672,127.0
3342.0034,114.0
3343.3403,119.0
3344.6777,128.0
3346.0156,110.0
3347.354,124.0
3348.6929,112.0
3350.0322,111.0
3351.3723,151.0
3352.713,157.0
3354.054,132.0
3355.3955,150.0
3356.7375,115.0
3358.0803,110.0
3359.4236,124.0
3360.7673,106.0
3362.1116,120.0
3363.4563,84.0
3364.8018,117.0
3366.1477,128.0
3367.4941,110.0
3368.841,147.0
3370.1887,130.0
3371.5369,142.0
3372.8855,122.0
3374.2346,118.0
3375.5842,114.0
3376.9346,110.0
3378.2854,127.0
3379.6367,106.0
3380.9885,119.0
3382.3408,127.0
3383.6938,150.0
3385.0474,144.0
3386.4014,150.0
3387.7559,128.0
3389.1108,112.0
3390.4666,118.0
3391.8228,109.0
3393.1794,90.0
3394.5366,137.0
3395.8945,130.0
3397.253,131.0
3398.6118,134.0
3399.9712,110.0
3401.3313,115.0
3402.692,136.0
3404.053,125.0
3405.4146,128.0
3406.7766,136.0
3408.1394,121.0
3409.5027,112.0
3410.8665,109.0
3412.2307,147.0
3413.5957,165.0
3414.9612,132.0
3416.3271,151.0
3417.6936,147.0
3419.0608,113.0
3420.4285,126.0
3421.7966,132.0
3423.1653,138.0
3424.5347,117.0
3425.9045,106.0
3427.275,134.0
3428.6458,137.0
3430.017,118.0
3431.3892,139.0
3432.7617,121.0
3434.1348,125.0
3435.5083,134.0
3436.8826,118.0
3438.2573,111.0
3439.6326,113.0
3441.0083,115.0
3442.3848,113.0
3443.7617,104.0
3445.1392,102.0
3446.5173,114.0
3447.896,118.0
3449.2751,130.0
3450.6548,133.0
3452.0352,128.0
3453.416,133.0
3454.7974,100.0
3456.1792,113.0
3457.5618,122.0
3458.9448,128.0
3460.3284,103.0
3461.7124,132.0
3463.0972,108.0
3464.4824,117.0
3465.8682,111.0
3467.2544,130.0
3468.6414,138.0
3470.0288,119.0
3471.4167,122.0
3472.8054,111.0
3474.1946,133.0
3475.5842,133.0
3476.9744,110.0
3478.3652,134.0
3479.7566,157.0
3481.1484,123.0
3482.541,147.0
3483.934,133.0
3485.3276,113.0
3486.7217,134.0
3488.1165,132.0
3489.5117,124.0
3490.9075,101.0
3492.304,139.0
3493.701,131.0
3495.0984,129.0
3496.4963,122.0
3497.895,138.0
3499.2942,137.0
3500.6938,129.0
3502.0942,158.0
3503.495,152.0
3504.8965,118.0
3506.2983,130.0
3507.701,141.0
3509.104,124.0
3510.5076,139.0
3511.9119,132.0
3513.3167,139.0
3514.722,125.0
3516.128,111.0
3517.5344,145.0
3518.9414,127.0
3520.3489,141.0
3521.757,153.0
3523.1658,136.0
3524.575,137.0
3525.9849,129.0
3527.3953,124.0
3528.8062,153.0
3530.2178,150.0
3531.63,176.0
3533.0425,129.0
3534.4558,135.0
3535.8696,116.0
3537.284,128.0
3538.6987,104.0
3540.1143,122.0
3541.5303,107.0
3542.9468,105.0
3544.364,113.0
3545.7817,129.0
3547.2,112.0
3548.619,130.0
3550.0383,111.0
3551.4583,137.0
3552.879,116.0
3554.3,103.0
3555.7217,147.0
3557.144,130.0
3558.567,151.0
3559.9902,115.0
3561.4143,138.0
3562.8389,137.0
3564.264,139.0
3565.6897,134.0
3567.116,124.0
3568.5427,139.0
3569.9702,124.0
3571.3982,156.0
3572.8267,149.0
3574.2559,138.0
3575.6855,133.0
3577.1157,120.0
3578.5466,153.0
3579.978,117.0
3581.41,143.0
3582.8425,145.0
3584.2756,143.0
3585.7092,136.0
3587.1436,151.0
3588.5784,150.0
3590.014,137.0
3591.45,134.0
3592.8865,153.0
3594.3237,148.0
3595.7615,148.0
3597.1997,149.0
3598.6387,142.0
3600.0781,149.0
3601.518,160.0
3602.9587,139.0
3604.4,163.0
3605.8416,116.0
3607.284,162.0
3608.7268,188.0
3610.1704,144.0
3611.6145,146.0
3613.059,133.0
3614.5044,135.0
3615.9502,177.0
3617.3965,235.0
3618.8435,182.0
3620.291,153.0
3621.739,147.0
3623.1877,105.0
3624.637,134.0
3626.087,117.0
3627.5374,145.0
3628.9883,125.0
3630.44,143.0
3631.892,155.0
3633.3447,150.0
3634.798,160.0
3636.252,143.0
3637.7065,148.0
3639.1616,122.0
3640.6172,130.0
3642.0735,137.0
3643.5303,155.0
3644.9878,153.0
3646.4458,163.0
3647.9043,162.0
3649.3635,151.0
3650.8232,147.0
3652.2837,151.0
3653.7446,136.0
3655.206,129.0
3656.6682,134.0
3658.1309,125.0
3659.594,151.0
3661.0579,139.0
3662.5222,142.0
3663.9873,147.0
3665.453,169.0
3666.919,144.0
3668.3857,140.0
3669.853,112.0
3671.321,125.0
3672.7896,150.0
3674.2585,144.0
3675.7283,143.0
3677.1985,154.0
3678.6694,155.0
3680.1409,153.0
3681.613,144.0
3683.0857,138.0
3684.5588,129.0
3686.0327,129.0
3687.507,132.0
3688.9822,129.0
3690.4578,139.0
3691.9338,155.0
3693.4106,149.0
3694.888,120.0
3696.366,143.0
3697.8445,156.0
3699.3237,123.0
3700.8035,170.0
3702.2837,139.0
3703.7646,128.0
3705.246,138.0
3706.7283,165.0
3708.211,151.0
3709.6943,190.0
3711.1782,172.0
3712.6626,172.0
3714.1477,165.0
3715.6333,149.0
3717.1196,180.0
3718.6064,151.0
3720.094,154.0
3721.582,166.0
3723.0706,137.0
3724.5598,136.0
3726.0496,124.0
3727.54,161.0
3729.031,151.0
3730.5227,157.0
3732.015,165.0
3733.5078,199.0
3735.0012,223.0
3736.495,194.0
3737.9897,165.0
3739.4849,157.0
3740.9807,147.0
3742.477,178.0
3743.974,191.0
3745.4717,158.0
3746.97,149.0
3748.4688,160.0
3749.968,275.0
3751.468,418.0
3752.9685,482.0
3754.4697,317.0
3755.9714,183.0
3757.4739,197.0
3758.9768,178.0
3760.4805,145.0
3761.9846,149.0
3763.4895,136.0
3764.9949,164.0
3766.501,167.0
3768.0076,159.0
3769.515,170.0
3771.0227,159.0
3772.531,177.0
3774.04,154.0
3775.5496,158.0
3777.0598,154.0
3778.5706,159.0
3780.082,166.0
3781.594,158.0
3783.1067,197.0
3784.6199,209.0
3786.1338,163.0
3787.6482,171.0
3789.1633,175.0
3790.679,175.0
3792.1953,155.0
3793.7122,143.0
3795.2297,133.0
3796.7478,161.0
3798.2666,168.0
3799.786,170.0
3801.306,175.0
3802.8264,141.0
3804.3477,159.0
3805.8694,164.0
3807.3918,140.0
3808.9148,212.0
3810.4385,188.0
3811.9626,149.0
3813.4875,154.0
3815.013,212.0
3816.539,199.0
3818.0657,170.0
3819.593,176.0
3821.1208,141.0
3822.6494,187.0
3824.1785,129.0
3825.7083,140.0
3827.2385,140.0
3828.7695,179.0
3830.301,174.0
3831.8333,190.0
3833.366,174.0
3834.8994,168.0
3836.4333,157.0
3837.968,173.0
3839.5032,155.0
3841.039,176.0
3842.5754,173.0
3844.1125,167.0
3845.6501,178.0
3847.1885,174.0
3848.7273,177.0
3850.2668,197.0
3851.807,203.0
3853.3477,165.0
3854.889,153.0
3856.431,155.0
3857.9734,149.0
3859.5166,161.0
3861.0603,133.0
3862.6047,191.0
3864.1497,162.0
3865.6953,174.0
3867.2417,160.0
3868.7886,190.0
3870.3362,167.0
3871.8843,161.0
3873.433,168.0
3874.9824,177.0
3876.5325,187.0
3878.083,161.0
3879.6343,143.0
3881.186,193.0
3882.7385,195.0
3884.2915,193.0
3885.8452,202.0
3887.3997,195.0
3888.9546,180.0
3890.5103,180.0
3892.0664,125.0
3893.6233,190.0
3895.1807,172.0
3896.7388,188.0
3898.2974,155.0
3899.8567,182.0
3901.4167,164.0
3902.9773,179.0
3904.5386,173.0
3906.1003,149.0
3907.6628,171.0
3909.2258,149.0
3910.7896,177.0
3912.3538,170.0
3913.9187,165.0
3915.4844,176.0
3917.0505,192.0
3918.6174,165.0
3920.1848,172.0
3921.753,171.0
3923.3215,154.0
3924.8909,171.0
3926.461,130.0
3928.0315,167.0
3929.6028,145.0
3931.1746,167.0
3932.747,166.0
3934.32,163.0
3935.8938,153.0
3937.4683,139.0
3939.0432,164.0
3940.619,183.0
3942.195,153.0
3943.772,170.0
3945.3494,146.0
3946.9275,143.0
3948.5063,155.0
3950.0857,154.0
3951.6658,141.0
3953.2463,164.0
3954.8276,168.0
3956.4097,138.0
3957.9922,159.0
3959.5754,157.0
3961.1592,175.0
3962.7437,160.0
3964.3289,171.0
3965.9146,151.0
3967.501,154.0
3969.088,153.0
3970.6755,175.0
3972.264,171.0
3973.8528,184.0
3975.4424,134.0
3977.0325,144.0
3978.6233,168.0
3980.2148,161.0
3981.807,175.0
3983.3997,166.0
3984.993,182.0
3986.587,149.0
3988.1816,150.0
3989.7769,182.0
3991.3728,209.0
3992.9692,219.0
3994.5664,172.0
3996.1643,169.0
3997.7627,167.0
3999.3618,161.0
4000.9617,164.0
4002.562,162.0
4004.163,164.0
4005.7646,188.0
4007.367,166.0
4008.97,158.0
4010.5735,170.0
4012.1777,141.0
4013.7827,191.0
4015.3882,161.0
4016.9944,174.0
4018.601,192.0
4020.2085,179.0
4021.8167,173.0
4023.4253,192.0
4025.0347,165.0
4026.6448,173.0
4028.2554,201.0
4029.8667,204.0
4031.4788,180.0
4033.0913,194.0
4034.7046,211.0
4036.3184,217.0
4037.9329,257.0
4039.548,251.0
4041.1638,234.0
4042.7803,262.0
4044.3975,235.0
4046.0151,195.0
4047.6335,207.0
4049.2527,218.0
4050.8723,301.0
4052.4927,290.0
4054.1138,253.0
4055.7354,251.0
4057.3577,213.0
4058.9807,375.0
4060.6042,502.0
4062.2285,317.0
4063.8535,255.0
4065.479,261.0
4067.1052,286.0
4068.7322,316.0
4070.3596,316.0
4071.9878,379.0
4073.6167,390.0
4075.246,261.0
4076.8762,259.0
4078.507,302.0
4080.1384,334.0
4081.7705,380.0
4083.4033,409.0
4085.0366,458.0
4086.6707,516.0
4088.3054,367.0
4089.9407,250.0
4091.5767,270.0
4093.2134,638.0
4094.8506,976.0
4096.489,563.0
4098.1274,315.0
4099.7666,259.0
4101.4067,675.0
4103.0474,1798.0
4104.6885,1409.0
4106.3306,498.0
4107.973,311.0
4109.616,258.0
4111.2603,227.0
4112.905,242.0
4114.55,273.0
4116.196,232.0
4117.8423,222.0
4119.4893,187.0
4121.137,174.0
4122.7856,188.0
4124.4346,208.0
4126.0845,202.0
4127.735,207.0
4129.3857,176.0
4131.0376,179.0
4132.69,183.0
4134.343,169.0
4135.9966,181.0
4137.651,189.0
4139.306,162.0
4140.962,220.0
4142.618,185.0
4144.2754,187.0
4145.933,221.0
4147.5913,208.0
4149.2505,191.0
4150.91,202.0
4152.5703,191.0
4154.2314,198.0
4155.893,181.0
4157.5557,196.0
4159.2188,200.0
4160.8823,178.0
4162.547,187.0
4164.212,187.0
4165.8774,233.0
4167.544,189.0
4169.211,163.0
4170.8784,180.0
4172.547,194.0
4174.216,204.0
4175.8857,236.0
4177.556,232.0
4179.227,190.0
4180.899,196.0
4182.5713,196.0
4184.244,191.0
4185.918,186.0
4187.5923,217.0
4189.267,203.0
4190.943,200.0
4192.619,203.0
4194.2964,183.0
4195.974,210.0
4197.6523,230.0
4199.3315,209.0
4201.011,226.0
4202.6914,178.0
4204.3726,184.0
4206.054,205.0
4207.737,202.0
4209.42,184.0
4211.1035,152.0
4212.788,166.0
4214.473,193.0
4216.1587,177.0
4217.845,231.0
4219.532,197.0
4221.22,166.0
4222.9087,191.0
4224.5977,182.0
4226.2876,188.0
4227.978,189.0
4229.6694,191.0
4231.3613,182.0
4233.0537,196.0
4234.747,214.0
4236.441,178.0
4238.1353,163.0
4239.8306,185.0
4241.5264,171.0
4243.223,185.0
4244.9204,159.0
4246.618,208.0
4248.317,206.0
4250.016,197.0
4251.7163,195.0
4253.417,165.0
4255.118,188.0
4256.8203,227.0
4258.523,195.0
4260.2266,242.0
4261.9307,171.0
4263.6353,200.0
4265.341,213.0
4267.047,253.0
4268.754,260.0
4270.4614,245.0
4272.1694,174.0
4273.8784,179.0
4275.588,243.0
4277.2983,302.0
4279.0093,229.0
4280.7207,223.0
4282.433,189.0
4284.146,270.0
4285.86,438.0
4287.574,317.0
4289.289,242.0
4291.005,194.0
4292.721,197.0
4294.4385,151.0
4296.1562,190.0
4297.8745,232.0
4299.5938,199.0
4301.3135,185.0
4303.034,199.0
4304.7554,190.0
4306.477,166.0
4308.1997,144.0
4309.923,204.0
4311.647,180.0
4313.3716,141.0
4315.097,184.0
4316.823,158.0
4318.55,162.0
4320.2773,173.0
4322.0054,166.0
4323.7344,178.0
4325.464,200.0
4327.194,149.0
4328.925,187.0
4330.6562,202.0
4332.3887,166.0
4334.1216,173.0
4335.8555,188.0
4337.59,207.0
4339.3247,179.0
4341.0605,160.0
4342.797,173.0
4344.534,177.0
4346.272,141.0
4348.0103,191.0
4349.7495,181.0
4351.4893,178.0
4353.23,136.0
4354.971,227.0
4356.7134,209.0
4358.456,202.0
4360.199,172.0
4361.9434,201.0
4363.688,198.0
4365.4336,173.0
4367.1797,199.0
4368.927,176.0
4370.6743,220.0
4372.4224,190.0
4374.1714,191.0
4375.921,192.0
4377.6714,203.0
4379.4224,180.0
4381.1743,203.0
4382.927,189.0
4384.6797,193.0
4386.4336,188.0
4388.188,190.0
4389.9434,190.0
4391.699,225.0
4393.456,203.0
4395.2134,207.0
4396.9717,222.0
4398.7305,221.0
4400.4897,220.0
4402.25,216.0
4404.0107,204.0
4405.7725,204.0
4407.5347,251.0
4409.298,250.0
4411.0615,254.0
4412.826,216.0
4414.5913,222.0
4416.357,262.0
4418.1235,290.0
4419.8906,265.0
4421.6587,283.0
4423.4272,225.0
4425.197,225.0
4426.967,279.0
4428.738,264.0
4430.5093,291.0
4432.2812,261.0
4434.054,260.0
4435.8276,235.0
4437.602,286.0
4439.377,341.0
4441.153,296.0
4442.929,273.0
4444.7065,292.0
4446.4844,257.0
4448.263,303.0
4450.0425,301.0
4451.8223,313.0
4453.603,267.0
4455.3843,298.0
4457.1665,290.0
4458.949,330.0
4460.733,327.0
4462.517,313.0
4464.3022,319.0
4466.088,338.0
4467.8745,409.0
4469.6616,418.0
4471.4497,376.0
4473.2383,346.0
4475.0273,320.0
4476.8174,277.0
4478.608,286.0
4480.3994,369.0
4482.1914,371.0
4483.9844,325.0
4485.778,253.0
4487.5723,318.0
4489.367,389.0
4491.163,382.0
4492.9595,338.0
4494.757,311.0
4496.5547,380.0
4498.3535,427.0
4500.153,379.0
4501.953,329.0
4503.754,360.0
4505.555,388.0
4507.3574,356.0
4509.16,354.0
4510.964,292.0
4512.768,372.0
4514.573,426.0
4516.379,348.0
4518.1855,281.0
4519.9927,352.0
4521.801,493.0
4523.6094,443.0
4525.419,296.0
4527.229,243.0
4529.04,382.0
4530.8516,628.0
4532.664,532.0
4534.477,344.0
4536.291,242.0
4538.1055,344.0
4539.921,365.0
4541.737,310.0
4543.5537,285.0
4545.371,244.0
4547.1895,252.0
4549.0083,258.0
4550.828,249.0
4552.6484,219.0
4554.4697,282.0
4556.2915,232.0
4558.1143,221.0
4559.9375,229.0
4561.7617,216.0
4563.5864,223.0
4565.4116,219.0
4567.238,219.0
4569.0645,222.0
4570.892,250.0
4572.72,230.0
4574.5493,214.0
4576.379,247.0
4578.2095,230.0
4580.0405,201.0
4581.8726,219.0
4583.705,248.0
4585.5386,226.0
4587.3726,229.0
4589.2075,218.0
4591.043,239.0
4592.8794,264.0
4594.7163,270.0
4596.554,207.0
4598.3926,248.0
4600.232,255.0
4602.0723,261.0
4603.913,287.0
4605.755,255.0
4607.597,252.0
4609.4404,256.0
4611.284,237.0
4613.129,257.0
4614.974,242.0
4616.8203,246.0
4618.667,278.0
4620.5146,230.0
4622.363,250.0
4624.212,244.0
4626.0615,258.0
4627.912,246.0
4629.763,234.0
4631.615,246.0
4633.468,225.0
4635.3213,255.0
4637.1753,268.0
4639.0303,229.0
4640.8857,206.0
4642.742,273.0
4644.599,236.0
4646.457,235.0
4648.3154,250.0
4650.175,233.0
4652.0347,247.0
4653.8955,255.0
4655.757,240.0
4657.619,206.0
4659.4824,236.0
4661.346,246.0
4663.211,269.0
4665.076,242.0
4666.9424,247.0
4668.809,241.0
4670.677,264.0
4672.545,226.0
4674.414,230.0
4676.2837,218.0
4678.1543,252.0
4680.0254,253.0
4681.8975,248.0
4683.77,254.0
4685.6436,259.0
4687.5176,246.0
4689.3926,288.0
4691.2686,212.0
4693.145,253.0
4695.0225,236.0
4696.9004,250.0
4698.7793,251.0
4700.6587,249.0
4702.539,212.0
4704.42,257.0
4706.302,241.0
4708.184,241.0
4710.0674,263.0
4711.951,287.0
4713.836,257.0
4715.7217,218.0
4717.608,219.0
4719.495,220.0
4721.383,231.0
4723.2715,244.0
4725.1606,232.0
4727.051,270.0
4728.9414,247.0
4730.833,247.0
4732.725,227.0
4734.618,219.0
4736.512,199.0
4738.4067,203.0
4740.3022,199.0
4742.198,190.0
4744.095,234.0
4745.9927,248.0
4747.891,218.0
4749.79,189.0
4751.69,204.0
4753.591,190.0
4755.492,227.0
4757.3945,218.0
4759.2974,187.0
4761.201,216.0
4763.1055,242.0
4765.0107,233.0
4766.9165,218.0
4768.823,187.0
4770.731,162.0
4772.639,177.0
4774.5483,180.0
4776.458,181.0
4778.3687,199.0
4780.28,185.0
4782.192,181.0
4784.105,190.0
4786.0186,164.0
4787.933,163.0
4789.848,184.0
4791.764,180.0
4793.6807,169.0
4795.598,196.0
4797.5166,178.0
4799.4355,196.0
4801.3555,168.0
4803.276,172.0
4805.1973,157.0
4807.119,165.0
4809.042,174.0
4810.966,186.0
4812.89,156.0
4814.8154,181.0
4816.741,162.0
4818.668,167.0
4820.595,167.0
4822.5234,159.0
4824.4526,159.0
4826.3823,172.0
4828.313,163.0
4830.244,161.0
4832.1763,168.0
4834.1094,165.0
4836.043,170.0
4837.9775,178.0
4839.9126,155.0
4841.8486,141.0
4843.785,136.0
4845.7227,151.0
4847.661,144.0
4849.6,143.0
4851.54,146.0
4853.4805,160.0
4855.422,141.0
4857.3643,167.0
4859.307,132.0
4861.251,131.0
4863.1953,142.0
4865.1406,152.0
4867.087,173.0
4869.0337,181.0
4870.9814,159.0
4872.9297,154.0
4874.879,137.0
4876.829,164.0
4878.78,200.0
4880.7314,130.0
4882.6836,136.0
4884.6367,134.0
4886.5903,149.0
4888.545,153.0
4890.5005,168.0
4892.4565,119.0
4894.4136,159.0
4896.3716,144.0
4898.33,149.0
4900.2896,165.0
4902.2495,140.0
4904.2104,167.0
4906.1724,155.0
4908.135,151.0
4910.098,150.0
4912.062,158.0
4914.027,140.0
4915.9927,156.0
4917.959,143.0
4919.9263,170.0
4921.894,139.0
4923.863,155.0
4925.8325,147.0
4927.8027,153.0
4929.774,147.0
4931.7456,153.0
4933.7183,160.0
4935.692,156.0
4937.666,151.0
4939.641,157.0
4941.617,157.0
4943.5938,146.0
4945.5713,152.0
4947.5493,161.0
4949.5283,152.0
4951.5083,129.0
4953.489,143.0
4955.47,158.0
4957.4526,145.0
4959.4355,148.0
4961.4194,165.0
4963.404,154.0
4965.389,152.0
4967.3755,136.0
4969.3623,161.0
4971.35,155.0
4973.339,155.0
4975.328,143.0
4977.3184,147.0
4979.309,143.0
4981.301,169.0
4983.2935,152.0
4985.2866,147.0
4987.281,168.0
4989.276,147.0
4991.2715,151.0
4993.268,146.0
4995.265,173.0
4997.263,170.0
4999.262,144.0
5001.2617,134.0
5003.262,149.0
5005.2637,171.0
5007.2656,171.0
5009.2686,144.0
5011.2725,173.0
5013.277,152.0
5015.282,188.0
5017.2886,155.0
5019.2954,157.0
5021.303,180.0
5023.3115,193.0
5025.321,167.0
5027.331,175.0
5029.342,165.0
5031.3535,156.0
5033.366,166.0
5035.3794,162.0
5037.3936,140.0
5039.4087,174.0
5041.4243,154.0
5043.441,169.0
5045.4585,159.0
5047.4766,181.0
5049.4956,159.0
5051.5156,157.0
5053.536,156.0
5055.5576,137.0
5057.58,168.0
5059.603,136.0
5061.627,147.0
5063.6514,153.0
5065.677,150.0
5067.703,148.0
5069.73,162.0
5071.758,147.0
5073.7866,145.0
5075.816,164.0
5077.846,146.0
5079.8774,176.0
5081.909,152.0
5083.942,145.0
5085.9756,136.0
5088.01,165.0
5090.045,172.0
5092.081,181.0
5094.1177,154.0
5096.1553,156.0
5098.194,151.0
5100.233,151.0
5102.273,154.0
5104.314,190.0
5106.3555,171.0
5108.398,193.0
5110.4414,178.0
5112.4854,170.0
5114.5303,142.0
5116.576,133.0
5118.6226,172.0
5120.67,154.0
5122.7183,162.0
5124.7676,175.0
5126.8174,169.0
5128.868,184.0
5130.92,172.0
5132.972,163.0
5135.0254,178.0
5137.0796,161.0
5139.1343,182.0
5141.19,144.0
5143.2466,178.0
5145.3037,198.0
5147.362,178.0
5149.421,213.0
5151.4805,168.0
5153.541,153.0
5155.6025,163.0
5157.6646,146.0
5159.7275,152.0
5161.7915,173.0
5163.8564,164.0
5165.922,170.0
5167.9883,165.0
5170.0557,153.0
5172.1235,158.0
5174.1924,155.0
5176.262,169.0
5178.3325,170.0
5180.404,176.0
5182.476,168.0
5184.549,166.0
5186.6226,202.0
5188.6973,161.0
5190.773,191.0
5192.849,174.0
5194.9263,175.0
5197.0044,147.0
5199.083,162.0
5201.1626,179.0
5203.243,217.0
5205.324,166.0
5207.4062,189.0
5209.4893,180.0
5211.573,161.0
5213.6577,190.0
5215.743,178.0
5217.8296,185.0
5219.9165,206.0
5222.0044,194.0
5224.0933,211.0
5226.183,171.0
5228.2734,171.0
5230.3647,164.0
5232.457,207.0
5234.55,208.0
5236.6436,193.0
5238.7383,194.0
5240.834,177.0
5242.93,189.0
5245.0273,180.0
5247.1255,196.0
5249.224,181.0
5251.3237,191.0
5253.4243,205.0
5255.526,187.0
5257.628,202.0
5259.731,179.0
5261.835,172.0
5263.9395,203.0
5266.045,179.0
5268.1514,177.0
5270.259,188.0
5272.3667,197.0
5274.4756,203.0
5276.5854,203.0
5278.6963,199.0
5280.8076,206.0
5282.92,229.0
5285.033,210.0
5287.147,201.0
5289.2617,204.0
5291.3774,171.0
5293.494,173.0
5295.6113,196.0
5297.7295,190.0
5299.8486,196.0
5301.9688,204.0
5304.0894,207.0
5306.211,210.0
5308.3335,209.0
5310.457,194.0
5312.581,193.0
5314.706,181.0
5316.832,218.0
5318.959,229.0
5321.0864,206.0
5323.215,220.0
5325.344,189.0
5327.4746,187.0
5329.6055,202.0
5331.7373,204.0
5333.87,206.0
5336.004,189.0
5338.138,212.0
5340.2734,225.0
5342.4097,203.0
5344.547,206.0
5346.6846,222.0
5348.823,231.0
5350.963,207.0
5353.1035,213.0
5355.2446,215.0
5357.3867,215.0
5359.53,200.0
5361.674,205.0
5363.8184,191.0
5365.964,228.0
5368.1104,185.0
5370.258,218.0
5372.406,231.0
5374.5547,224.0
5376.7046,246.0
5378.8555,245.0
5381.007,235.0
5383.159,221.0
5385.3125,207.0
5387.467,226.0
5389.6216,216.0
5391.7773,244.0
5393.934,219.0
5396.092,218.0
5398.25,251.0
5400.409,223.0
5402.5693,233.0
5404.7305,183.0
5406.8926,212.0
5409.055,226.0
5411.2188,238.0
5413.3833,265.0
5415.549,234.0
5417.715,253.0
5419.882,218.0
5422.05,218.0
5424.2188,250.0
5426.3887,246.0
5428.559,201.0
5430.7305,219.0
5432.903,214.0
5435.076,209.0
5437.25,221.0
5439.425,230.0
5441.6006,266.0
5443.7773,265.0
5445.955,208.0
5448.1333,225.0
5450.3125,215.0
5452.4927,212.0
5454.674,243.0
5456.8555,213.0
5459.038,231.0
5461.2217,223.0
5463.4062,234.0
5465.592,229.0
5467.778,214.0
5469.965,239.0
5472.153,220.0
5474.342,236.0
5476.5317,245.0
5478.722,229.0
5480.9136,248.0
5483.106,229.0
5485.2993,253.0
5487.4937,250.0
5489.6885,252.0
5491.8843,247.0
5494.081,248.0
5496.279,255.0
5498.4775,240.0
5500.677,239.0
5502.877,253.0
5505.078,244.0
5507.2803,235.0
5509.4834,271.0
5511.687,246.0
5513.8916,261.0
5516.097,206.0
5518.3037,237.0
5520.511,253.0
5522.719,274.0
5524.928,224.0
5527.138,238.0
5529.349,247.0
5531.561,271.0
5533.7734,248.0
5535.987,219.0
5538.201,239.0
5540.4165,256.0
5542.633,271.0
5544.85,246.0
5547.068,238.0
5549.2866,243.0
5551.5063,246.0
5553.727,267.0
5555.9487,238.0
5558.171,262.0
5560.394,255.0
5562.618,229.0
5564.8433,253.0
5567.0693,240.0
5569.2964,238.0
5571.524,249.0
5573.7524,223.0
5575.982,247.0
5578.2124,233.0
5580.444,227.0
5582.676,266.0
5584.9087,225.0
5587.1426,230.0
5589.3774,241.0
5591.6133,265.0
5593.85,226.0
5596.0874,244.0
5598.3257,251.0
5600.565,273.0
5602.805,245.0
5605.0464,223.0
5607.2886,217.0
5609.5312,247.0
5611.775,250.0
5614.0195,238.0
5616.265,213.0
5618.5117,223.0
5620.7593,226.0
5623.008,213.0
5625.257,239.0
5627.507,222.0
5629.758,246.0
5632.01,208.0
5634.2627,214.0
5636.5166,234.0
5638.771,226.0
5641.0264,241.0
5643.2827,236.0
5645.54,220.0
5647.7983,233.0
5650.0576,202.0
5652.318,213.0
5654.5786,233.0
5656.8403,227.0
5659.103,219.0
5661.3667,224.0
5663.6313,219.0
5665.897,219.0
5668.1636,229.0
5670.4307,211.0
5672.6987,197.0
5674.968,215.0
5677.238,215.0
5679.509,213.0
5681.781,225.0
5684.0537,217.0
5686.327,231.0
5688.6016,216.0
5690.877,248.0
5693.1533,235.0
5695.4307,240.0
5697.709,220.0
5699.9883,223.0
5702.268,235.0
5704.549,227.0
5706.8306,247.0
5709.1133,235.0
5711.397,225.0
5713.6816,202.0
5715.9673,229.0
5718.254,226.0
5720.541,237.0
5722.829,254.0
5725.118,240.0
5727.408,226.0
5729.699,224.0
5731.991,221.0
5734.284,225.0
5736.578,224.0
5738.8726,239.0
5741.168,237.0
5743.4644,275.0
5745.7617,246.0
5748.06,247.0
5750.3594,259.0
5752.6597,238.0
5754.961,257.0
5757.2627,239.0
5759.5654,260.0
5761.869,247.0
5764.174,225.0
5766.4795,254.0
5768.786,251.0
5771.0938,269.0
5773.4023,233.0
5775.712,242.0
5778.022,235.0
5780.333,276.0
5782.645,229.0
5784.958,238.0
5787.272,256.0
5789.587,276.0
5791.903,259.0
5794.2197,245.0
5796.5376,286.0
5798.8564,269.0
5801.176,258.0
5803.496,244.0
5805.8174,289.0
5808.1396,251.0
5810.463,260.0
5812.787,291.0
5815.1123,311.0
5817.4385,277.0
5819.7656,320.0
5822.0938,317.0
5824.4224,286.0
5826.752,263.0
5829.0825,281.0
5831.414,307.0
5833.7466,298.0
5836.08,274.0
5838.4146,353.0
5840.75,395.0
5843.0864,300.0
5845.424,280.0
5847.762,304.0
5850.101,278.0
5852.441,296.0
5854.7817,296.0
5857.1235,277.0
5859.4663,265.0
5861.81,265.0
5864.155,273.0
5866.5005,308.0
5868.847,277.0
5871.195,282.0
5873.5435,298.0
5875.893,298.0
5878.2437,259.0
5880.5947,271.0
5882.947,279.0
5885.3,324.0
5887.654,296.0
5890.009,282.0
5892.3647,285.0
5894.7217,277.0
5897.0796,276.0
5899.4385,314.0
5901.7983,308.0
5904.159,291.0
5906.521,337.0
5908.884,325.0
5911.2476,300.0
5913.612,302.0
5915.977,344.0
5918.3433,324.0
5920.7104,308.0
5923.0786,318.0
5925.4478,321.0
5927.818,328.0
5930.189,317.0
5932.561,335.0
5934.934,332.0
5937.308,329.0
5939.683,351.0
5942.059,321.0
5944.436,320.0
5946.814,349.0
5949.193,303.0
5951.5728,334.0
5953.9536,346.0
5956.335,334.0
5958.7173,345.0
5961.1006,356.0
5963.485,376.0
5965.87,320.0
5968.2563,313.0
5970.6436,348.0
5973.0317,353.0
5975.421,378.0
5977.811,324.0
5980.202,303.0
5982.594,322.0
5984.9873,368.0
5987.3813,329.0
5989.7764,366.0
5992.1724,344.0
5994.5693,370.0
5996.9673,318.0
5999.366,384.0
6001.766,419.0
6004.167,365.0
6006.569,357.0
6008.9717,358.0
6011.3755,341.0
6013.7803,389.0
6016.1855,337.0
6018.592,349.0
6020.999,355.0
6023.407,330.0
6025.8164,332.0
6028.2266,329.0
6030.6377,354.0
6033.05,327.0
6035.463,385.0
6037.877,384.0
6040.292,364.0
6042.708,327.0
6045.125,353.0
6047.543,345.0
6049.962,342.0
6052.382,331.0
6054.8027,339.0
6057.2246,285.0
6059.6475,343.0
6062.0713,388.0
6064.496,394.0
6066.922,314.0
6069.3486,334.0
6071.7764,352.0
6074.205,320.0
6076.635,332.0
6079.0654,338.0
6081.497,352.0
6083.9297,346.0
6086.3633,360.0
6088.798,321.0
6091.2334,361.0
6093.67,327.0
6096.1074,341.0
6098.546,368.0
6100.9854,368.0
6103.426,370.0
6105.867,368.0
6108.3096,329.0
6110.753,364.0
6113.1973,334.0
6115.6426,382.0
6118.089,411.0
6120.536,424.0
6122.9844,369.0
6125.4336,361.0
6127.884,396.0
6130.335,410.0
6132.787,454.0
6135.24,419.0
6137.6943,468.0
6140.1494,407.0
6142.6055,432.0
6145.0625,454.0
6147.5205,461.0
6149.9795,538.0
6152.4395,464.0
6154.9004,407.0
6157.3623,488.0
6159.825,463.0
6162.289,433.0
6164.754,415.0
6167.2197,424.0
6169.6865,441.0
6172.1543,459.0
6174.623,584.0
6177.093,613.0
6179.5635,500.0
6182.035,445.0
6184.508,484.0
6186.9814,482.0
6189.456,523.0
6191.9316,666.0
6194.408,673.0
6196.8857,581.0
6199.3643,600.0
6201.844,515.0
6204.325,490.0
6206.807,467.0
6209.29,412.0
6211.774,409.0
6214.259,526.0
6216.7446,630.0
6219.2314,543.0
6221.719,485.0
6224.208,429.0
6226.6978,441.0
6229.1885,484.0
6231.68,600.0
6234.173,681.0
6236.6665,601.0
6239.161,498.0
6241.6567,429.0
6244.1533,466.0
6246.651,513.0
6249.1494,594.0
6251.649,531.0
6254.1494,523.0
6256.651,578.0
6259.1533,513.0
6261.6567,494.0
6264.1616,474.0
6266.6675,402.0
6269.1743,398.0
6271.682,540.0
6274.191,759.0
6276.7007,647.0
6279.2114,476.0
6281.723,399.0
6284.236,388.0
6286.7495,431.0
6289.264,679.0
6291.78,992.0
6294.2964,739.0
6296.814,500.0
6299.3325,442.0
6301.852,440.0
6304.3726,340.0
6306.8945,433.0
6309.4175,440.0
6311.9414,403.0
6314.4663,412.0
6316.992,402.0
6319.519,414.0
6322.047,392.0
6324.5757,376.0
6327.1055,382.0
6329.636,377.0
6332.168,392.0
6334.7007,413.0
6337.2344,390.0
6339.769,405.0
6342.305,416.0
6344.8423,405.0
6347.3804,395.0
6349.9194,393.0
6352.4595,404.0
6355.0005,367.0
6357.5425,390.0
6360.0854,380.0
6362.6294,411.0
6365.1743,385.0
6367.72,408.0
6370.267,412.0
6372.8154,381.0
6375.3647,350.0
6377.915,362.0
6380.4663,443.0
6383.0186,448.0
6385.572,461.0
6388.126,410.0
6390.681,390.0
6393.2373,412.0
6395.7944,374.0
6398.3525,419.0
6400.912,463.0
6403.4727,482.0
6406.034,457.0
6408.5967,447.0
6411.16,381.0
6413.7246,393.0
6416.29,390.0
6418.8564,400.0
6421.424,381.0
6423.992,417.0
6426.562,382.0
6429.133,406.0
6431.7046,405.0
6434.2773,422.0
6436.851,417.0
6439.426,410.0
6442.0015,380.0
6444.578,350.0
6447.156,441.0
6449.735,416.0
6452.315,374.0
6454.896,394.0
6457.478,367.0
6460.061,393.0
6462.645,405.0
6465.23,417.0
6467.816,357.0
6470.403,455.0
6472.991,413.0
6475.5806,381.0
6478.171,395.0
6480.762,374.0
6483.3545,411.0
6485.9478,395.0
6488.542,386.0
6491.137,383.0
6493.734,354.0
6496.3315,435.0
6498.93,439.0
6501.53,424.0
6504.1304,419.0
6506.732,388.0
6509.3345,413.0
6511.938,410.0
6514.543,406.0
6517.149,445.0
6519.756,378.0
6522.364,442.0
6524.9727,486.0
6527.5825,432.0
6530.1934,426.0
6532.8057,454.0
6535.419,435.0
6538.033,446.0
6540.6484,489.0
6543.2646,439.0
6545.882,427.0
6548.5,440.0
6551.1196,427.0
6553.74,421.0
6556.362,503.0
6558.9844,525.0
6561.608,463.0
6564.2324,428.0
6566.858,411.0
6569.485,427.0
6572.113,390.0
6574.7417,447.0
6577.3716,432.0
6580.0024,474.0
6582.6343,428.0
6585.267,440.0
6587.9014,432.0
6590.5366,453.0
6593.173,460.0
6595.81,452.0
6598.448,436.0
6601.0874,386.0
6603.728,461.0
6606.3696,413.0
6609.012,437.0
6611.656,443.0
6614.3003,416.0
6616.946,464.0
6619.593,469.0
6622.2407,485.0
6624.8896,414.0
6627.5396,438.0
6630.1904,431.0
6632.8423,437.0
6635.4956,422.0
6638.15,502.0
6640.805,496.0
6643.4614,439.0
6646.1187,419.0
6648.7773,414.0
6651.437,376.0
6654.0977,416.0
6656.7593,473.0
6659.422,430.0
6662.0854,372.0
6664.7505,414.0
6667.4165,365.0
6670.0835,385.0
6672.7515,383.0
6675.4204,365.0
6678.091,393.0
6680.762,393.0
6683.4346,368.0
6686.108,390.0
6688.782,370.0
6691.4575,387.0
6694.1343,390.0
6696.812,421.0
6699.4907,420.0
6702.1704,349.0
6704.851,369.0
6707.533,403.0
6710.2163,338.0
6712.9004,348.0
6715.5854,414.0
6718.2715,386.0
6720.959,384.0
6723.6475,435.0
6726.337,423.0
6729.0273,350.0
6731.7188,379.0
6734.4116,375.0
6737.1055,382.0
6739.8003,460.0
6742.496,450.0
6745.193,401.0
6747.891,376.0
6750.5903,384.0
6753.2905,346.0
6755.9917,378.0
6758.6943,472.0
6761.398,457.0
6764.1025,438.0
6766.808,445.0
6769.5146,358.0
6772.2227,402.0
6774.9316,398.0
6777.6416,439.0
6780.3525,455.0
6783.0645,466.0
6785.778,465.0
6788.492,434.0
6791.2075,452.0
6793.924,441.0
6796.6416,358.0
6799.3604,400.0
6802.08,361.0
6804.801,415.0
6807.5225,474.0
6810.2456,474.0
6812.9697,451.0
6815.695,402.0
6818.421,375.0
6821.1484,452.0
6823.877,678.0
6826.6064,675.0
6829.337,476.0
6832.069,366.0
6834.802,347.0
6837.5356,439.0
6840.2705,483.0
6843.007,587.0
6845.744,474.0
6848.4824,374.0
6851.2217,401.0
6853.9624,516.0
6856.704,605.0
6859.447,511.0
6862.1904,451.0
6864.9355,350.0
6867.6816,400.0
6870.4287,368.0
6873.177,339.0
6875.9263,371.0
6878.677,334.0
6881.428,353.0
6884.1807,362.0
6886.9346,355.0
6889.6895,334.0
6892.4453,355.0
6895.202,349.0
6897.9604,341.0
6900.7197,346.0
6903.48,357.0
6906.241,392.0
6909.004,352.0
6911.7676,396.0
6914.532,361.0
6917.298,367.0
6920.065,395.0
6922.833,346.0
6925.602,353.0
6928.372,392.0
6931.1436,415.0
6933.916,346.0
6936.6895,371.0
6939.4644,382.0
6942.24,379.0
6945.017,378.0
6947.795,401.0
6950.574,404.0
6953.3545,374.0
6956.1357,446.0
6958.918,407.0
6961.7017,366.0
6964.4863,363.0
6967.272,401.0
6970.059,373.0
6972.847,415.0
6975.636,432.0
6978.4263,426.0
6981.218,474.0
6984.0103,452.0
6986.8037,383.0
6989.5986,486.0
6992.3945,487.0
6995.1914,471.0
6997.9893,513.0
7000.7886,496.0
7003.589,447.0
7006.39,451.0
7009.193,448.0
7011.9966,434.0
7014.8013,412.0
7017.6074,539.0
7020.4146,518.0
7023.2227,510.0
7026.0317,621.0
7028.8423,500.0
7031.654,450.0
7034.4663,397.0
7037.2803,377.0
7040.095,446.0
7042.911,630.0
7045.7285,497.0
7048.547,426.0
7051.366,393.0
7054.1865,386.0
7057.0083,468.0
7059.831,794.0
7062.655,709.0
7065.48,516.0
7068.306,411.0
7071.1333,389.0
7073.962,361.0
7076.7915,347.0
7079.622,378.0
7082.454,351.0
7085.287,377.0
7088.121,349.0
7090.9565,387.0
7093.793,372.0
7096.6304,417.0
7099.469,386.0
7102.309,385.0
7105.15,376.0
7107.992,415.0
7110.8354,454.0
7113.6797,437.0
7116.5254,413.0
7119.372,406.0
7122.2197,433.0
7125.069,500.0
7127.919,504.0
7130.77,446.0
7133.6226,384.0
7136.476,402.0
7139.3306,509.0
7142.1865,539.0
7145.0435,468.0
7147.9014,447.0
7150.7607,475.0
7153.621,507.0
7156.4824,666.0
7159.345,678.0
7162.209,537.0
7165.0737,502.0
7167.94,463.0
7170.807,571.0
7173.6753,542.0
7176.545,471.0
7179.4155,486.0
7182.287,522.0
7185.16,459.0
7188.034,546.0
7190.909,561.0
7193.7856,481.0
7196.663,594.0
7199.542,672.0
7202.422,491.0
7205.3027,391.0
7208.185,336.0
7211.0684,367.0
7213.9526,852.0
7216.8384,822.0
7219.725,530.0
7222.613,439.0
7225.502,355.0
7228.392,518.0
7231.283,1063.0
7234.176,1140.0
7237.0693,632.0
7239.9644,412.0
7242.8604,380.0
7245.7573,358.0
7248.656,350.0
7251.555,372.0
7254.4556,372.0
7257.3574,338.0
7260.2603,321.0
7263.1646,349.0
7266.07,340.0
7268.976,346.0
7271.884,344.0
7274.7925,326.0
7277.7026,312.0
7280.614,318.0
7283.526,353.0
7286.4395,345.0
7289.354,359.0
7292.2695,355.0
7295.1865,413.0
7298.1045,358.0
7301.024,363.0
7303.9443,334.0
7306.8657,329.0
7309.7886,381.0
7312.7124,499.0
7315.6377,461.0
7318.564,395.0
7321.491,340.0
7324.42,314.0
7327.3496,367.0
7330.281,534.0
7333.213,469.0
7336.146,412.0
7339.0806,310.0
7342.016,329.0
7344.953,345.0
7347.891,421.0
7350.83,371.0
7353.7705,346.0
7356.712,364.0
7359.655,426.0
7362.5986,357.0
7365.5435,302.0
7368.4897,348.0
7371.437,337.0
7374.3857,369.0
7377.3354,359.0
7380.2866,361.0
7383.239,390.0
7386.192,370.0
7389.1465,391.0
7392.102,356.0
7395.059,386.0
7398.017,375.0
7400.976,424.0
7403.9365,380.0
7406.898,365.0
7409.861,353.0
7412.8247,286.0
7415.79,393.0
7418.7563,396.0
7421.7236,399.0
7424.6924,374.0
7427.662,347.0
7430.6333,321.0
7433.6055,417.0
7436.579,420.0
7439.5537,402.0
7442.5293,404.0
7445.5063,365.0
7448.4844,326.0
7451.464,364.0
7454.4443,338.0
7457.4263,320.0
7460.409,350.0
7463.3936,315.0
7466.379,329.0
7469.365,393.0
7472.353,322.0
7475.342,289.0
7478.332,287.0
7481.323,312.0
7484.316,460.0
7487.3096,488.0
7490.3047,351.0
7493.301,318.0
7496.2983,313.0
7499.297,290.0
7502.2964,326.0
7505.2974,332.0
7508.2993,317.0
7511.3027,332.0
7514.307,316.0
7517.313,268.0
7520.32,328.0
7523.328,338.0
7526.3374,363.0
7529.348,355.0
7532.36,378.0
7535.373,282.0
7538.387,350.0
7541.4023,326.0
7544.419,358.0
7547.4365,370.0
7550.4556,342.0
7553.4756,327.0
7556.497,356.0
7559.5195,366.0
7562.5435,384.0
7565.5684,380.0
7568.5947,386.0
7571.622,378.0
7574.651,413.0
7577.6807,371.0
7580.712,394.0
7583.744,419.0
7586.778,371.0
7589.8125,332.0
7592.8486,312.0
7595.8857,354.0
7598.9243,459.0
7601.964,419.0
7605.005,381.0
7608.047,310.0
7611.0903,303.0
7614.135,395.0
7617.18,569.0
7620.227,457.0
7623.275,341.0
7626.324,330.0
7629.3745,348.0
7632.4263,337.0
7635.479,311.0
7638.533,355.0
7641.5884,316.0
7644.645,339.0
7647.7026,338.0
7650.7617,310.0
7653.8223,323.0
7656.884,292.0
7659.947,316.0
7663.0107,306.0
7666.076,324.0
7669.1426,319.0
7672.2104,309.0
7675.2793,354.0
7678.3496,317.0
7681.421,374.0
7684.4937,375.0
7687.5674,331.0
7690.6426,336.0
7693.7188,307.0
7696.7964,337.0
7699.875,333.0
7702.955,363.0
7706.036,348.0
7709.1187,341.0
7712.202,369.0
7715.287,335.0
7718.373,321.0
7721.4604,361.0
7724.549,358.0
7727.6387,348.0
7730.7295,400.0
7733.822,371.0
7736.9155,378.0
7740.0103,388.0
7743.1064,402.0
7746.2036,428.0
7749.3022,415.0
7752.402,395.0
7755.503,410.0
7758.605,386.0
7761.7085,416.0
7764.813,402.0
7767.919,432.0
7771.026,481.0
7774.1343,377.0
7777.244,366.0
7780.355,406.0
7783.4673,419.0
7786.5806,504.0
7789.6953,539.0
7792.811,479.0
7795.928,412.0
7799.0464,392.0
7802.166,422.0
7805.287,404.0
7808.409,411.0
7811.5327,477.0
7814.657,454.0
7817.783,434.0
7820.91,386.0
7824.0386,409.0
7827.168,463.0
7830.299,471.0
7833.431,432.0
7836.5645,358.0
7839.699,424.0
7842.835,439.0
7845.972,513.0
7849.1104,462.0
7852.25,424.0
7855.391,434.0
7858.533,442.0
7861.677,399.0
7864.8213,442.0
7867.9673,435.0
7871.1143,399.0
7874.2627,414.0
7877.4126,438.0
7880.5635,423.0
7883.716,439.0
7886.869,505.0
7890.024,412.0
7893.18,445.0
7896.3374,443.0
7899.496,535.0
7902.656,575.0
7905.817,506.0
7908.979,480.0
7912.1426,456.0
7915.3076,535.0
7918.4736,637.0
7921.641,609.0
7924.8096,556.0
7927.9795,539.0
7931.151,509.0
7934.323,559.0
7937.497,647.0
7940.672,636.0
7943.848,593.0
7947.026,641.0
7950.2046,631.0
7953.385,599.0
7956.566,547.0
7959.7485,662.0
7962.9326,743.0
7966.1177,861.0
7969.304,748.0
7972.4917,738.0
7975.6807,709.0
7978.871,811.0
7982.0625,1113.0
7985.2554,931.0
7988.4497,865.0
7991.645,781.0
7994.842,865.0
7998.0396,783.0
8001.239,834.0
8004.4395,1019.0
8007.641,1035.0
8010.844,977.0
8014.0483,986.0
8017.254,1016.0
8020.461,1045.0
8023.669,1062.0
8026.8784,978.0
8030.0894,1032.0
8033.3013,1132.0
8036.5146,1251.0
8039.7295,1376.0
8042.9453,1303.0
8046.1626,1106.0
8049.381,1167.0
8052.6006,1467.0
8055.822,1743.0
8059.044,1710.0
8062.2676,1533.0
8065.4927,1489.0
8068.7188,1676.0
8071.9463,1899.0
8075.1753,2030.0
8078.4053,1977.0
8081.6367,2146.0
8084.869,2475.0
8088.103,2082.0
8091.3384,1694.0
8094.5747,1602.0
8097.8125,2199.0
8101.052,3484.0
8104.292,2959.0
8107.5337,2357.0
8110.777,1981.0
8114.021,1970.0
8117.2666,4090.0
8120.5137,5059.0
8123.7617,3719.0
8127.011,3221.0
8130.262,2576.0
8133.514,2618.0
8136.7676,2944.0
8140.0225,3269.0
8143.2783,4139.0
8146.5356,3816.0
8149.7944,3013.0
8153.054,3537.0
8156.3154,3320.0
8159.578,3594.0
8162.842,4267.0
8166.107,3985.0
8169.3735,6149.0
8172.641,5848.0
8175.91,3515.0
8179.1807,1988.0
8182.452,2327.0
8185.725,8992.0
8188.9995,11516.0
8192.275,5388.0
8195.553,2326.0
8198.831,1838.0
8202.11,8609.0
8205.392,20467.0
8208.674,12213.0
8211.957,4420.0
8215.242,2028.0
8218.528,1482.0
8221.815,1223.0
8225.1045,1490.0
8228.395,1932.0
8231.686,1467.0
8234.979,959.0
8238.272,760.0
8241.567,857.0
8244.864,939.0
8248.162,986.0
8251.461,823.0
8254.762,740.0
8258.063,726.0
8261.367,808.0
8264.672,870.0
8267.978,812.0
8271.285,802.0
8274.594,719.0
8277.903,651.0
8281.215,626.0
8284.527,708.0
8287.841,832.0
8291.156,885.0
8294.473,719.0
8297.79,645.0
8301.109,685.0
8304.43,734.0
8307.751,741.0
8311.074,755.0
8314.398,759.0
8317.725,715.0
8321.052,701.0
8324.38,701.0
8327.71,670.0
8331.041,877.0
8334.373,821.0
8337.707,670.0
8341.042,647.0
8344.378,673.0
8347.716,949.0
8351.055,969.0
8354.3955,780.0
8357.737,791.0
8361.08,714.0
8364.425,557.0
8367.7705,535.0
8371.117,581.0
8374.466,718.0
8377.815,798.0
8381.167,590.0
8384.52,466.0
8387.873,522.0
8391.229,638.0
8394.585,710.0
8397.942,574.0
8401.302,539.0
8404.662,491.0
8408.024,526.0
8411.388,533.0
8414.752,510.0
8418.118,491.0
8421.485,463.0
8424.854,438.0
8428.224,442.0
8431.595,492.0
8434.968,510.0
8438.342,468.0
8441.717,476.0
8445.094,500.0
8448.472,479.0
8451.851,483.0
8455.231,517.0
8458.613,542.0
8461.997,481.0
8465.382,587.0
8468.768,582.0
8472.155,563.0
8475.544,605.0
8478.935,569.0
8482.326,513.0
8485.719,598.0
8489.113,703.0
8492.509,742.0
8495.906,667.0
8499.305,652.0
8502.704,670.0
8506.105,775.0
8509.508,863.0
8512.911,758.0
8516.316,856.0
8519.723,940.0
8523.131,859.0
8526.54,975.0
8529.95,942.0
8533.362,1247.0
8536.775,1514.0
8540.19,1053.0
8543.606,693.0
8547.023,634.0
8550.442,1444.0
8553.862,2200.0
8557.284,1395.0
8560.707,814.0
8564.131,735.0
8567.557,1770.0
8570.983,3121.0
8574.412,1985.0
8577.842,1053.0
8581.272,742.0
8584.705,590.0
8588.139,592.0
8591.574,656.0
8595.011,912.0
8598.449,822.0
8601.889,605.0
8605.329,471.0
8608.771,492.0
8612.215,468.0
8615.66,501.0
8619.106,502.0
8622.554,466.0
8626.003,500.0
8629.453,455.0
8632.905,524.0
8636.358,504.0
8639.8125,567.0
8643.269,501.0
8646.726,448.0
8650.185,494.0
8653.645,478.0
8657.106,536.0
8660.569,538.0
8664.033,461.0
8667.499,558.0
8670.966,599.0
8674.435,578.0
8677.904,615.0
8681.375,568.0
8684.848,641.0
8688.321,561.0
8691.797,573.0
8695.273,698.0
8698.752,711.0
8702.231,729.0
8705.712,749.0
8709.194,739.0
8712.678,842.0
8716.163,857.0
8719.649,857.0
8723.138,840.0
8726.627,793.0
8730.117,815.0
8733.609,891.0
8737.103,924.0
8740.598,926.0
8744.094,843.0
8747.592,879.0
8751.091,1042.0
8754.591,1054.0
8758.093,1084.0
8761.596,984.0
8765.101,1080.0
8768.606,1103.0
8772.114,1201.0
8775.623,1218.0
8779.133,1191.0
8782.645,1210.0
8786.157,1224.0
8789.672,1307.0
8793.1875,1316.0
8796.705,1492.0
8800.224,1640.0
8803.744,1502.0
8807.266,1299.0
8810.788,1409.0
8814.3125,2002.0
8817.838,2135.0
8821.365,1676.0
8824.894,1529.0
8828.424,1568.0
8831.955,2248.0
8835.488,2412.0
8839.022,1911.0
8842.558,1828.0
8846.095,1673.0
8849.633,1662.0
8853.173,1623.0
8856.714,1981.0
8860.257,2354.0
8863.801,2038.0
8867.347,1824.0
8870.894,1836.0
8874.442,2272.0
8877.992,2827.0
8881.543,2437.0
8885.096,2133.0
8888.649,1940.0
8892.205,2052.0
8895.762,2167.0
8899.32,2385.0
8902.88,2391.0
8906.441,2165.0
8910.004,2223.0
8913.568,2259.0
8917.134,2705.0
8920.7,2588.0
8924.269,2217.0
8927.838,2365.0
8931.409,2406.0
8934.981,2729.0
8938.556,2533.0
8942.131,2535.0
8945.708,2620.0
8949.286,2340.0
8952.866,2134.0
8956.447,2138.0
8960.03,2577.0
8963.614,2742.0
8967.199,2156.0
8970.786,1828.0
8974.374,2212.0
8977.964,2711.0
8981.555,2532.0
8985.147,2096.0
8988.741,1902.0
8992.337,2521.0
8995.934,2809.0
8999.532,2459.0
9003.132,1863.0
9006.733,2060.0
9010.336,2516.0
9013.94,2187.0
9017.546,1986.0
9021.153,1802.0
9024.762,2548.0
9028.372,2652.0
9031.983,1808.0
9035.597,1366.0
9039.211,1785.0
9042.826,2635.0
9046.443,2277.0
9050.062,1379.0
9053.682,1164.0
9057.303,2181.0
9060.926,3684.0
9064.55,2682.0
9068.176,1383.0
9071.803,1185.0
9075.432,1602.0
9079.062,1746.0
9082.693,1347.0
9086.326,1033.0
9089.961,1020.0
9093.597,1062.0
9097.234,1063.0
9100.873,925.0
9104.514,905.0
9108.155,879.0
9111.799,784.0
9115.443,775.0
9119.09,798.0
9122.737,852.0
9126.387,857.0
9130.037,720.0
9133.689,734.0
9137.343,840.0
9140.998,866.0
9144.654,803.0
9148.3125,760.0
9151.972,715.0
9155.633,717.0
9159.295,705.0
9162.959,877.0
9166.624,927.0
9170.291,803.0
9173.959,702.0
9177.629,697.0
9181.3,941.0
9184.973,1037.0
9188.646,821.0
9192.322,655.0
9195.999,676.0
9199.678,849.0
9203.357,855.0
9207.039,745.0
9210.722,622.0
9214.406,542.0
9218.092,503.0
9221.779,568.0
9225.468,608.0
9229.158,593.0
9232.85,534.0
9236.543,502.0
9240.237,576.0
9243.934,670.0
9247.631,624.0
9251.33,536.0
9255.03,401.0
9258.732,356.0
9262.436,376.0
9266.141,413.0
9269.847,408.0
9273.555,357.0
9277.264,327.0
9280.975,355.0
9284.687,385.0
9288.4,305.0
9292.116,324.0
9295.833,303.0
9299.552,358.0
9303.271,304.0
9306.993,322.0
9310.716,327.0
9314.44,299.0
9318.166,311.0
9321.894,264.0
9325.622,293.0
9329.353,304.0
9333.084,278.0
9336.817,287.0
9340.552,281.0
9344.288,292.0
9348.025,306.0
9351.765,266.0
9355.505,276.0
9359.247,236.0
9362.991,287.0
9366.736,253.0
9370.483,257.0
9374.231,266.0
9377.981,253.0
9381.732,268.0
9385.485,244.0
9389.239,239.0
9392.995,238.0
9396.752,245.0
9400.511,227.0
9404.2705,260.0
9408.032,224.0
9411.796,231.0
9415.561,225.0
9419.327,220.0
9423.095,215.0
9426.864,257.0
9430.635,220.0
9434.407,228.0
9438.181,191.0
9441.956,240.0
9445.732,231.0
9449.511,229.0
9453.291,210.0
9457.072,192.0
9460.855,210.0
9464.64,251.0
9468.426,181.0
9472.213,203.0
9476.002,196.0
9479.792,208.0
9483.584,186.0
9487.377,211.0
9491.172,183.0
9494.969,189.0
9498.767,180.0
9502.566,194.0
9506.367,213.0
9510.17,199.0
9513.974,186.0
9517.779,168.0
9521.586,179.0
9525.395,174.0
9529.205,197.0
9533.017,229.0
9536.83,186.0
9540.645,153.0
9544.461,162.0
9548.278,189.0
9552.098,175.0
9555.919,196.0
9559.741,202.0
9563.565,177.0
9567.391,187.0
9571.218,168.0
9575.046,154.0
9578.876,165.0
9582.708,166.0
9586.541,161.0
9590.376,165.0
9594.212,176.0
9598.05,159.0
9601.889,146.0
9605.7295,142.0
9609.572,151.0
9613.416,157.0
9617.262,164.0
9621.108,141.0
9624.957,157.0
9628.807,142.0
9632.658,169.0
9636.512,162.0
9640.366,128.0
9644.223,148.0
9648.08,121.0
9651.939,167.0
9655.8,138.0
9659.662,138.0
9663.526,143.0
9667.392,151.0
9671.259,131.0
9675.127,128.0
9678.997,150.0
9682.869,155.0
9686.742,151.0
9690.617,167.0
9694.493,143.0
9698.371,130.0
9702.25,116.0
9706.131,119.0
9710.014,126.0
9713.897,129.0
9717.783,143.0
9721.67,130.0
9725.559,112.0
9729.449,139.0
9733.341,131.0
9737.234,140.0
9741.129,118.0
9745.025,129.0
9748.924,147.0
9752.823,114.0
9756.725,114.0
9760.627,122.0
9764.531,126.0
9768.4375,113.0
9772.345,125.0
9776.254,137.0
9780.164,96.0
9784.076,132.0
9787.99,134.0
9791.905,144.0
9795.822,142.0
9799.74,149.0
9803.66,115.0
9807.582,138.0
9811.505,127.0
9815.43,137.0
9819.355,139.0
9823.283,142.0
9827.213,130.0
9831.144,148.0
9835.076,137.0
9839.01,134.0
9842.945,135.0
9846.883,155.0
9850.821,141.0
9854.762,145.0
9858.704,124.0
9862.647,126.0
9866.593,138.0
9870.539,157.0
9874.487,153.0
9878.4375,119.0
9882.389,138.0
9886.342,136.0
9890.296,143.0
9894.252,124.0
9898.21,130.0
9902.169,133.0
9906.13,148.0
9910.093,155.0
9914.057,116.0
9918.022,168.0
9921.989,150.0
9925.958,133.0
9929.929,129.0
9933.9,124.0
9937.874,140.0
9941.85,137.0
9945.826,124.0
9949.805,130.0
9953.784,134.0
9957.766,126.0
9961.749,145.0
9965.733,130.0
9969.72,129.0
9973.708,127.0
9977.697,110.0
9981.688,164.0
9985.681,123.0
9989.675,161.0
9993.671,130.0
9997.668,112.0
10001.667,145.0
10005.668,131.0
10009.67,114.0
10013.674,130.0
10017.68,132.0
10021.687,119.0
10025.695,118.0
10029.706,117.0
10033.718,137.0
10037.731,114.0
10041.746,137.0
10045.763,147.0
10049.781,121.0
10053.801,117.0
10057.822,123.0
10061.846,129.0
10065.87,139.0
10069.896,145.0
10073.925,148.0
10077.954,129.0
10081.985,137.0
10086.019,142.0
10090.053,134.0
10094.089,143.0
10098.127,127.0
10102.166,139.0
10106.207,119.0
10110.25,160.0
10114.294,139.0
10118.34,136.0
10122.387,145.0
10126.436,127.0
10130.486,140.0
10134.538,144.0
10138.592,141.0
10142.647,141.0
10146.704,158.0
10150.763,118.0
10154.823,151.0
10158.885,135.0
10162.948,159.0
10167.014,144.0
10171.08,151.0
10175.148,158.0
10179.219,158.0
10183.29,149.0
10187.363,153.0
10191.438,139.0
10195.515,151.0
10199.593,141.0
10203.673,143.0
10207.754,121.0
10211.837,167.0
10215.922,161.0
10220.008,147.0
10224.096,139.0
10228.186,144.0
10232.276,151.0
10236.369,147.0
10240.464,152.0
10244.56,158.0
10248.657,159.0
10252.757,155.0
10256.858,152.0
10260.961,135.0
10265.065,167.0
10269.172,173.0
10273.279,161.0
10277.389,147.0
10281.5,143.0
10285.612,136.0
10289.727,172.0
10293.843,138.0
10297.96,157.0
10302.079,169.0
10306.2,159.0
10310.322,155.0
10314.446,165.0
10318.572,169.0
10322.699,165.0
10326.828,183.0
10330.959,159.0
10335.092,169.0
10339.226,152.0
10343.361,155.0
10347.499,184.0
10351.638,188.0
10355.778,181.0
10359.921,151.0
10364.064,132.0
10368.21,166.0
10372.357,198.0
10376.507,201.0
10380.657,167.0
10384.81,158.0
10388.964,177.0
10393.119,163.0
10397.276,164.0
10401.436,156.0
10405.596,164.0
10409.758,157.0
10413.922,175.0
10418.088,156.0
10422.255,141.0
10426.424,167.0
10430.595,160.0
10434.767,160.0
10438.94,163.0
10443.116,166.0
10447.294,160.0
10451.473,144.0
10455.653,154.0
10459.836,170.0
10464.02,166.0
10468.205,162.0
10472.393,120.0
10476.581,161.0
10480.771,160.0
10484.964,158.0
10489.158,159.0
10493.354,156.0
10497.551,148.0
10501.75,169.0
10505.951,179.0
10510.153,142.0
10514.357,153.0
10518.563,128.0
10522.7705,135.0
10526.9795,170.0
10531.19,179.0
10535.403,151.0
10539.617,156.0
10543.833,161.0
10548.051,152.0
10552.27,164.0
10556.49,177.0
10560.713,145.0
10564.9375,148.0
10569.163,143.0
10573.391,157.0
10577.62,154.0
10581.852,127.0
10586.084,150.0
10590.318,139.0
10594.555,180.0
10598.793,147.0
10603.032,159.0
10607.273,143.0
10611.517,155.0
10615.761,174.0
10620.007,163.0
10624.255,162.0
10628.505,157.0
10632.756,172.0
10637.009,145.0
10641.264,159.0
10645.5205,144.0
10649.778,171.0
10654.038,164.0
10658.3,176.0
10662.563,155.0
10666.828,152.0
10671.095,166.0
10675.363,149.0
10679.634,179.0
10683.905,170.0
10688.179,141.0
10692.454,177.0
10696.731,188.0
10701.01,194.0
10705.29,183.0
10709.572,214.0
10713.856,176.0
10718.142,215.0
10722.429,212.0
10726.718,179.0
10731.009,177.0
10735.301,197.0
10739.595,245.0
10743.891,236.0
10748.188,189.0
10752.487,205.0
10756.788,265.0
10761.091,227.0
10765.3955,157.0
10769.702,176.0
10774.01,168.0
10778.319,202.0
10782.631,160.0
10786.944,174.0
10791.259,179.0
10795.575,163.0
10799.894,139.0
10804.214,178.0
10808.535,167.0
10812.858,165.0
10817.184,171.0
10821.511,180.0
10825.839,169.0
10830.169,159.0
10834.501,165.0
10838.835,167.0
10843.171,159.0
10847.508,171.0
10851.847,180.0
10856.1875,169.0
10860.53,133.0
10864.874,166.0
10869.22,174.0
10873.567,167.0
10877.917,154.0
10882.269,204.0
10886.621,175.0
10890.976,177.0
10895.332,178.0
10899.69,175.0
10904.051,165.0
10908.412,149.0
10912.775,169.0
10917.141,167.0
10921.508,165.0
10925.876,176.0
10930.246,170.0
10934.618,153.0
10938.992,171.0
10943.368,178.0
10947.745,156.0
10952.124,175.0
10956.505,159.0
10960.888,183.0
10965.272,168.0
10969.658,187.0
10974.046,162.0
10978.436,192.0
10982.827,175.0
10987.221,179.0
10991.615,173.0
10996.012,186.0
11000.41,233.0
11004.811,198.0
11009.213,171.0
11013.616,197.0
11018.021,186.0
11022.429,199.0
11026.838,190.0
11031.249,186.0
11035.661,193.0
11040.075,181.0
11044.491,227.0
11048.909,186.0
11053.329,190.0
11057.75,197.0
11062.173,218.0
11066.598,233.0
11071.024,182.0
11075.453,167.0
11079.884,224.0
11084.315,187.0
11088.749,151.0
11093.185,184.0
11097.622,177.0
11102.062,177.0
11106.502,213.0
11110.944,172.0
11115.389,197.0
11119.835,176.0
11124.283,187.0
11128.733,210.0
11133.185,188.0
11137.638,197.0
11142.093,189.0
11146.55,196.0
11151.009,184.0
11155.469,176.0
11159.931,207.0
11164.395,176.0
11168.86,167.0
11173.328,181.0
11177.798,165.0
11182.269,194.0
11186.741,211.0
11191.216,204.0
11195.692,196.0
11200.171,196.0
11204.651,203.0
11209.133,198.0
11213.616,229.0
11218.102,186.0
11222.589,201.0
11227.078,176.0
11231.569,189.0
11236.062,166.0
11240.556,191.0
11245.052,221.0
11249.55,193.0
11254.05,197.0
11258.552,173.0
11263.056,223.0
11267.561,210.0
11272.067,196.0
11276.576,199.0
11281.087,214.0
11285.6,211.0
11290.114,169.0
11294.63,220.0
11299.147,201.0
11303.667,218.0
11308.188,211.0
11312.712,236.0
11317.237,227.0
11321.765,234.0
11326.293,226.0
11330.823,227.0
11335.355,228.0
11339.89,239.0
11344.426,214.0
11348.964,219.0
11353.504,243.0
11358.045,230.0
11362.588,242.0
11367.133,285.0
11371.68,283.0
11376.229,303.0
11380.779,281.0
11385.332,292.0
11389.886,266.0
11394.441,283.0
11398.999,294.0
11403.559,292.0
11408.12,333.0
11412.684,297.0
11417.249,295.0
11421.816,311.0
11426.385,320.0
11430.955,346.0
11435.527,347.0
11440.102,375.0
11444.678,353.0
11449.256,381.0
11453.836,349.0
11458.417,362.0
11463.0,351.0
11467.585,400.0
11472.172,435.0
11476.761,371.0
11481.352,402.0
11485.944,383.0
11490.539,364.0
11495.136,413.0
11499.733,426.0
11504.333,427.0
11508.935,422.0
11513.538,522.0
11518.144,458.0
11522.751,448.0
11527.36,492.0
11531.972,473.0
11536.584,491.0
11541.198,472.0
11545.814,537.0
11550.433,487.0
11555.053,461.0
11559.675,569.0
11564.299,545.0
11568.925,510.0
11573.553,515.0
11578.183,554.0
11582.813,546.0
11587.446,533.0
11592.081,573.0
11596.718,605.0
11601.356,543.0
11605.997,540.0
11610.64,631.0
11615.284,596.0
11619.931,492.0
11624.579,585.0
11629.229,559.0
11633.88,510.0
11638.533,575.0
11643.188,657.0
11647.846,574.0
11652.505,463.0
11657.166,609.0
11661.829,705.0
11666.494,468.0
11671.161,483.0
11675.83,784.0
11680.5,795.0
11685.172,484.0
11689.846,443.0
11694.521,498.0
11699.199,414.0
11703.879,368.0
11708.561,366.0
11713.244,323.0
11717.93,304.0
11722.617,323.0
11727.307,303.0
11731.998,278.0
11736.69,236.0
11741.385,278.0
11746.081,242.0
11750.779,243.0
11755.4795,219.0
11760.182,250.0
11764.886,244.0
11769.592,234.0
11774.3,253.0
11779.01,233.0
11783.722,250.0
11788.436,260.0
11793.151,259.0
11797.868,236.0
11802.587,231.0
11807.308,219.0
11812.03,227.0
11816.755,237.0
11821.481,232.0
11826.21,236.0
11830.94,210.0
11835.673,225.0
11840.407,179.0
11845.144,221.0
11849.882,207.0
11854.622,230.0
11859.364,193.0
11864.108,211.0
11868.8545,215.0
11873.602,167.0
11878.351,166.0
11883.102,183.0
11887.8545,183.0
11892.609,177.0
11897.366,195.0
11902.125,176.0
11906.886,172.0
11911.648,190.0
11916.413,162.0
11921.18,159.0
11925.948,173.0
11930.719,163.0
11935.491,172.0
11940.266,173.0
11945.042,166.0
11949.82,173.0
11954.601,189.0
11959.383,190.0
11964.167,171.0
11968.953,156.0
11973.74,159.0
11978.529,150.0
11983.32,195.0
11988.113,168.0
11992.908,157.0
