M/Z,Intensity
800.0,141.0
800.32,125.0
800.64014,46.0
800.9604,273.0
801.28076,276.0
801.60126,43.0
801.9219,154.0
802.2426,194.0
802.56354,72.0
802.8846,511.0
803.20575,203.0
803.52704,54.0
803.84845,208.0
804.17,171.0
804.49164,74.0
804.8134,103.0
805.1353,178.0
805.4574,99.0
805.7796,45.0
806.1019,163.0
806.4244,79.0
806.74695,45.0
807.06964,132.0
807.39246,122.0
807.7154,57.0
808.03845,101.0
808.3617,120.0
808.68506,36.0
809.00854,107.0
809.33215,156.0
809.6559,70.0
809.97974,96.0
810.3037,129.0
810.6278,57.0
810.9521,125.0
811.2765,150.0
811.601,44.0
811.92566,86.0
812.2504,164.0
812.5753,53.0
812.9003,119.0
813.22546,146.0
813.5508,56.0
813.8762,86.0
814.2018,146.0
814.52747,69.0
814.8533,113.0
815.1792,161.0
815.50525,91.0
815.8314,76.0
816.1578,149.0
816.48425,70.0
816.81085,276.0
817.1376,281.0
817.4644,97.0
817.7914,123.0
818.11847,248.0
818.44574,95.0
818.77313,106.0
819.10065,194.0
819.4283,84.0
819.75604,54.0
820.0839,123.0
820.412,108.0
820.7402,66.0
821.0685,147.0
821.3969,108.0
821.72546,47.0
822.05414,125.0
822.38293,113.0
822.7119,89.0
823.041,315.0
823.37024,123.0
823.6996,63.0
824.02905,238.0
824.35864,121.0
824.6884,510.0
825.0183,5127.0
825.3483,226.0
825.67847,200.0
826.0087,2211.0
826.3391,171.0
826.6696,92.0
827.0003,683.0
827.3311,143.0
827.66205,69.0
827.9931,225.0
828.3243,122.0
828.65564,47.0
828.9871,137.0
829.3187,153.0
829.65045,51.0
829.9823,94.0
830.3143,145.0
830.6464,40.0
830.9787,103.0
831.3111,119.0
831.6436,36.0
831.97626,93.0
832.309,121.0
832.64197,43.0
832.97504,156.0
833.3082,156.0
833.64154,46.0
833.975,126.0
834.3086,141.0
834.64233,48.0
834.9762,135.0
835.3102,136.0
835.6443,55.0
835.9785,119.0
836.3129,149.0
836.64746,59.0
836.9821,183.0
837.3169,120.0
837.6518,61.0
837.9869,141.0
838.3221,125.0
838.6574,120.0
838.99286,1028.0
839.3284,146.0
839.6642,86.0
840.00006,492.0
840.33606,154.0
840.6722,166.0
841.0084,968.0
841.34485,154.0
841.6814,91.0
842.01807,464.0
842.35486,166.0
842.6918,80.0
843.0289,311.0
843.3661,121.0
843.7034,70.0
844.0409,174.0
844.37854,143.0
844.7163,166.0
845.0542,659.0
845.3922,231.0
845.73035,130.0
846.06866,386.0
846.4071,146.0
846.74567,117.0
847.08435,262.0
847.42316,119.0
847.76215,88.0
848.10126,179.0
848.4405,104.0
848.77985,64.0
849.1194,123.0
849.45905,112.0
849.7988,76.0
850.13873,132.0
850.47876,91.0
850.819,68.0
851.1593,146.0
851.49976,89.0
851.84033,46.0
852.1811,143.0
852.522,68.0
852.863,83.0
853.2041,133.0
853.5454,68.0
853.88684,77.0
854.2284,124.0
854.57007,67.0
854.9119,726.0
855.2539,167.0
855.596,49.0
855.93823,362.0
856.2806,123.0
856.6231,68.0
856.96576,286.0
857.30853,160.0
857.6514,82.0
857.9945,186.0
858.3377,133.0
858.681,81.0
859.0245,235.0
859.3681,130.0
859.71185,59.0
860.0557,151.0
860.3997,127.0
860.7439,1308.0
861.0882,1545.0
861.4326,158.0
861.77716,908.0
862.1219,507.0
862.46674,141.0
862.8117,461.0
863.15686,197.0
863.50214,93.0
863.84753,156.0
864.19305,134.0
864.53876,70.0
864.8846,155.0
865.2305,144.0
865.5766,59.0
865.92285,100.0
866.2692,126.0
866.6157,55.0
866.96234,316.0
867.30914,146.0
867.65607,63.0
868.0031,186.0
868.35034,117.0
868.6977,49.0
869.04517,119.0
869.39276,111.0
869.74054,63.0
870.08844,108.0
870.43646,80.0
870.7846,84.0
871.13293,108.0
871.4814,80.0
871.82996,72.0
872.1787,128.0
872.5276,62.0
872.8766,217.0
873.2257,201.0
873.575,65.0
873.92444,123.0
874.274,149.0
874.6237,55.0
874.9736,114.0
875.32355,113.0
875.6737,49.0
876.024,94.0
876.3744,146.0
876.7249,413.0
877.0756,329.0
877.42645,147.0
877.7774,301.0
878.12854,137.0
878.4798,90.0
878.8312,229.0
879.18274,144.0
879.5344,67.0
879.8862,116.0
880.23816,149.0
880.5903,67.0
880.9425,136.0
881.29486,116.0
881.6474,58.0
882.00006,120.0
882.35284,108.0
882.7058,102.0
883.0589,176.0
883.4121,92.0
883.7655,81.0
884.119,104.0
884.47266,92.0
884.8264,83.0
885.18036,130.0
885.5344,75.0
885.8886,89.0
886.243,124.0
886.5975,57.0
886.9521,87.0
887.3069,126.0
887.6618,44.0
888.01685,81.0
888.3721,123.0
888.7274,86.0
889.0829,119.0
889.43854,164.0
889.7943,70.0
890.1502,119.0
890.5063,151.0
890.8625,68.0
891.2188,133.0
891.5753,97.0
891.93195,70.0
892.2887,150.0
892.6456,74.0
893.0027,132.0
893.35986,113.0
893.7172,70.0
894.0747,112.0
894.4323,91.0
894.7901,117.0
895.148,121.0
895.50604,90.0
895.86426,115.0
896.2226,127.0
896.58105,55.0
896.9397,114.0
897.29846,125.0
897.6574,39.0
898.0165,90.0
898.3757,92.0
898.73505,104.0
899.09454,126.0
899.45416,95.0
899.81396,66.0
900.1739,145.0
900.53394,71.0
900.89417,87.0
901.2545,128.0
901.615,41.0
901.97565,95.0
902.3364,113.0
902.6974,61.0
903.0585,75.0
903.4197,99.0
903.78107,56.0
904.1426,123.0
904.5042,115.0
904.866,95.0
905.22797,165.0
905.5901,60.0
905.95233,83.0
906.3147,156.0
906.67725,49.0
907.0399,84.0
907.4027,88.0
907.7657,40.0
908.1288,118.0
908.49207,99.0
908.85547,66.0
909.219,118.0
909.5827,55.0
909.94653,66.0
910.3105,124.0
910.6746,59.0
911.0389,123.0
911.4033,90.0
911.7679,48.0
912.13257,107.0
912.49744,76.0
912.8624,78.0
913.2276,112.0
913.5929,57.0
913.9583,55.0
914.3239,130.0
914.68964,64.0
915.05554,106.0
915.4216,119.0
915.7877,59.0
916.15405,113.0
916.5205,79.0
916.88715,62.0
917.2539,154.0
917.6208,48.0
917.98785,85.0
918.35504,142.0
918.7224,57.0
919.0899,95.0
919.4575,100.0
919.8253,68.0
920.19324,157.0
920.56134,71.0
920.92957,71.0
921.2979,154.0
921.66644,46.0
922.0351,117.0
922.40393,111.0
922.7729,45.0
923.14197,128.0
923.5112,83.0
923.8806,72.0
924.2502,101.0
924.6199,44.0
924.98975,88.0
925.35974,109.0
925.72986,60.0
926.10016,136.0
926.4706,80.0
926.8412,79.0
927.2119,102.0
927.5828,48.0
927.95386,76.0
928.325,93.0
928.69635,50.0
929.0678,85.0
929.43945,110.0
929.8112,51.0
930.18317,105.0
930.55524,89.0
930.9274,68.0
931.2998,105.0
931.6723,42.0
932.045,101.0
932.4178,92.0
932.7908,53.0
933.1639,117.0
933.5372,77.0
933.9106,75.0
934.2841,155.0
934.65784,48.0
935.0317,82.0
935.4057,98.0
935.77985,43.0
936.1542,102.0
936.5286,61.0
936.90326,64.0
937.278,144.0
937.65295,53.0
938.028,76.0
938.4032,107.0
938.77856,60.0
939.15405,86.0
939.5297,74.0
939.9055,69.0
940.2815,92.0
940.6576,50.0
941.0339,93.0
941.4103,90.0
941.78687,50.0
942.1636,112.0
942.54047,66.0
942.9175,95.0
943.2947,109.0
943.672,51.0
944.04944,103.0
944.42706,92.0
944.8048,58.0
945.18274,111.0
945.5608,66.0
945.939,86.0
946.3174,117.0
946.6959,55.0
947.0746,96.0
947.4534,80.0
947.8324,83.0
948.21155,164.0
948.5908,71.0
948.9703,87.0
949.34985,145.0
949.7296,55.0
950.1095,83.0
950.48956,83.0
950.86975,73.0
951.2501,118.0
951.6306,54.0
952.0113,81.0
952.3921,103.0
952.7731,58.0
953.1542,89.0
953.53546,80.0
953.9169,72.0
954.29846,109.0
954.6802,54.0
955.0621,93.0
955.4441,101.0
955.8263,66.0
956.2086,98.0
956.5911,59.0
956.97375,72.0
957.35657,111.0
957.7395,46.0
958.1226,86.0
958.50586,85.0
958.8893,63.0
959.2728,109.0
959.65656,66.0
960.0404,97.0
960.42444,100.0
960.8086,65.0
961.19293,112.0
961.5774,65.0
961.96204,73.0
962.3468,115.0
962.73175,39.0
963.1168,97.0
963.5021,89.0
963.88745,92.0
964.273,119.0
964.6587,61.0
965.04456,105.0
965.4306,117.0
965.8168,67.0
966.2031,119.0
966.5896,59.0
966.97626,82.0
967.36304,92.0
967.75,63.0
968.1371,96.0
968.52435,81.0
968.91174,83.0
969.2993,119.0
969.687,66.0
970.0749,170.0
970.4629,126.0
970.8511,106.0
971.23944,101.0
971.6279,63.0
972.0166,109.0
972.4054,96.0
972.7944,51.0
973.1835,99.0
973.57275,79.0
973.96216,74.0
974.35175,108.0
974.7415,54.0
975.1314,83.0
975.5215,90.0
975.9117,62.0
976.30206,104.0
976.69257,57.0
977.08325,109.0
977.47406,137.0
977.86505,62.0
978.2562,103.0
978.6475,58.0
979.039,105.0
979.4306,122.0
979.8224,67.0
980.2143,120.0
980.6064,61.0
980.99866,93.0
981.39105,97.0
981.7836,67.0
982.17633,131.0
982.5692,69.0
982.9622,104.0
983.3554,90.0
983.7488,77.0
984.1423,130.0
984.53595,85.0
984.92975,116.0
985.3237,120.0
985.71783,70.0
986.1121,152.0
986.5066,71.0
986.9012,90.0
987.29596,119.0
987.69086,73.0
988.08594,114.0
988.4812,80.0
988.8766,64.0
989.27216,88.0
989.66785,53.0
990.0637,113.0
990.4597,81.0
990.8559,81.0
991.25226,126.0
991.64874,57.0
992.0454,148.0
992.4422,94.0
992.8392,113.0
993.2363,118.0
993.6336,62.0
994.03107,115.0
994.42865,102.0
994.8264,83.0
995.22437,109.0
995.62244,58.0
996.0207,100.0
996.4191,80.0
996.8177,42.0
997.21643,109.0
997.6153,57.0
998.01434,72.0
998.4136,91.0
998.8129,57.0
999.21246,83.0
999.6121,57.0
1000.01196,102.0
1000.412,109.0
1000.81213,74.0
1001.21246,121.0
1001.613,67.0
1002.0136,114.0
1002.4144,93.0
1002.81537,57.0
1003.2165,83.0
1003.6178,61.0
1004.0192,88.0
1004.42084,119.0
1004.82263,71.0
1005.22455,136.0
1005.62665,90.0
1006.0289,214.0
1006.4313,105.0
1006.83386,122.0
1007.2366,110.0
1007.63947,63.0
1008.04254,229.0
1008.44574,93.0
1008.8491,140.0
1009.2527,133.0
1009.6564,67.0
1010.06024,141.0
1010.4643,107.0
1010.86847,85.0
1011.2728,103.0
1011.6773,75.0
1012.082,126.0
1012.4868,103.0
1012.8918,97.0
1013.29694,128.0
1013.7023,115.0
1014.1077,289.0
1014.51337,89.0
1014.9192,222.0
1015.32513,116.0
1015.73126,92.0
1016.1376,144.0
1016.544,78.0
1016.9506,99.0
1017.3574,128.0
1017.76434,64.0
1018.17145,104.0
1018.57874,62.0
1018.98615,66.0
1019.39374,106.0
1019.8015,51.0
1020.2094,119.0
1020.6175,66.0
1021.02576,84.0
1021.43414,127.0
1021.8427,94.0
1022.25146,122.0
1022.66034,68.0
1023.0694,84.0
1023.47864,103.0
1023.888,109.0
1024.2976,112.0
1024.7073,52.0
1025.1172,87.0
1025.5272,74.0
1025.9374,98.0
1026.3478,118.0
1026.7583,60.0
1027.169,102.0
1027.5798,85.0
1027.9908,258.0
1028.4021,109.0
1028.8135,165.0
1029.225,108.0
1029.6367,144.0
1030.0486,465.0
1030.4606,108.0
1030.8728,244.0
1031.2852,123.0
1031.6976,85.0
1032.1104,148.0
1032.5232,101.0
1032.9362,100.0
1033.3494,92.0
1033.7627,133.0
1034.1761,152.0
1034.5898,77.0
1035.0037,154.0
1035.4177,85.0
1035.8319,142.0
1036.2462,108.0
1036.6608,69.0
1037.0754,129.0
1037.4902,105.0
1037.9053,99.0
1038.3204,113.0
1038.7357,67.0
1039.1512,107.0
1039.5669,90.0
1039.9827,80.0
1040.3987,83.0
1040.8148,64.0
1041.2312,98.0
1041.6477,54.0
1042.0643,93.0
1042.4812,94.0
1042.8982,77.0
1043.3153,136.0
1043.7327,161.0
1044.1501,139.0
1044.5677,109.0
1044.9856,127.0
1045.4036,106.0
1045.8218,144.0
1046.2401,142.0
1046.6586,62.0
1047.0773,100.0
1047.4961,87.0
1047.915,111.0
1048.3342,111.0
1048.7535,56.0
1049.1731,111.0
1049.5928,159.0
1050.0126,548.0
1050.4326,112.0
1050.8528,443.0
1051.2731,127.0
1051.6936,167.0
1052.1143,227.0
1052.5352,85.0
1052.9562,176.0
1053.3773,123.0
1053.7987,164.0
1054.2202,102.0
1054.6418,82.0
1055.0637,126.0
1055.4857,81.0
1055.908,136.0
1056.3303,96.0
1056.7528,93.0
1057.1755,112.0
1057.5984,91.0
1058.0215,97.0
1058.4447,110.0
1058.868,73.0
1059.2916,109.0
1059.7153,99.0
1060.1392,150.0
1060.5632,142.0
1060.9874,116.0
1061.4119,148.0
1061.8364,94.0
1062.2611,126.0
1062.686,61.0
1063.1111,69.0
1063.5364,99.0
1063.9618,79.0
1064.3873,96.0
1064.8131,63.0
1065.239,113.0
1065.6652,289.0
1066.0914,502.0
1066.5178,115.0
1066.9445,441.0
1067.3712,126.0
1067.7982,205.0
1068.2253,124.0
1068.6526,73.0
1069.0801,120.0
1069.5077,92.0
1069.9355,131.0
1070.3635,116.0
1070.7916,77.0
1071.22,82.0
1071.6484,146.0
1072.0771,276.0
1072.506,115.0
1072.9349,182.0
1073.3641,136.0
1073.7935,130.0
1074.223,114.0
1074.6527,75.0
1075.0825,114.0
1075.5126,107.0
1075.9427,102.0
1076.3732,103.0
1076.8037,71.0
1077.2344,120.0
1077.6653,96.0
1078.0963,190.0
1078.5276,106.0
1078.959,138.0
1079.3906,108.0
1079.8224,112.0
1080.2543,93.0
1080.6864,59.0
1081.1187,108.0
1081.5511,96.0
1081.9838,164.0
1082.4165,96.0
1082.8495,152.0
1083.2826,111.0
1083.716,93.0
1084.1494,90.0
1084.5831,64.0
1085.017,72.0
1085.4509,113.0
1085.8851,81.0
1086.3195,88.0
1086.754,75.0
1087.1887,80.0
1087.6235,137.0
1088.0586,156.0
1088.4938,93.0
1088.9292,125.0
1089.3647,119.0
1089.8005,113.0
1090.2365,154.0
1090.6725,88.0
1091.1088,106.0
1091.5452,93.0
1091.9818,92.0
1092.4186,125.0
1092.8556,85.0
1093.2927,126.0
1093.7301,101.0
1094.1676,91.0
1094.6052,73.0
1095.0431,83.0
1095.4811,112.0
1095.9193,127.0
1096.3577,92.0
1096.7963,88.0
1097.235,96.0
1097.6738,74.0
1098.1129,96.0
1098.5521,99.0
1098.9916,69.0
1099.4312,84.0
1099.871,101.0
1100.3109,124.0
1100.751,84.0
1101.1913,104.0
1101.6317,61.0
1102.0724,85.0
1102.5132,89.0
1102.9542,74.0
1103.3954,82.0
1103.8368,92.0
1104.2783,115.0
1104.72,72.0
1105.1619,106.0
1105.6039,89.0
1106.0461,103.0
1106.4885,110.0
1106.9312,86.0
1107.3739,92.0
1107.8169,61.0
1108.26,112.0
1108.7034,53.0
1109.1469,104.0
1109.5905,81.0
1110.0343,97.0
1110.4783,81.0
1110.9225,78.0
1111.3668,110.0
1111.8114,75.0
1112.2561,105.0
1112.701,75.0
1113.1461,95.0
1113.5914,89.0
1114.0369,70.0
1114.4824,90.0
1114.9282,70.0
1115.3741,98.0
1115.8203,63.0
1116.2666,86.0
1116.7131,73.0
1117.1598,82.0
1117.6067,88.0
1118.0537,66.0
1118.501,90.0
1118.9484,56.0
1119.396,97.0
1119.8438,68.0
1120.2917,113.0
1120.7399,65.0
1121.1881,82.0
1121.6366,65.0
1122.0852,77.0
1122.534,89.0
1122.983,79.0
1123.4323,91.0
1123.8816,72.0
1124.3312,89.0
1124.7809,62.0
1125.2308,85.0
1125.6809,85.0
1126.1312,73.0
1126.5817,84.0
1127.0323,86.0
1127.4832,94.0
1127.9342,58.0
1128.3854,100.0
1128.8367,67.0
1129.2882,84.0
1129.7399,60.0
1130.1918,83.0
1130.6438,77.0
1131.0961,99.0
1131.5485,103.0
1132.0011,78.0
1132.4539,90.0
1132.9069,73.0
1133.36,126.0
1133.8134,66.0
1134.2668,103.0
1134.7206,62.0
1135.1744,85.0
1135.6285,80.0
1136.0828,72.0
1136.5372,74.0
1136.9918,114.0
1137.4467,115.0
1137.9016,69.0
1138.3568,97.0
1138.8121,67.0
1139.2677,103.0
1139.7234,67.0
1140.1793,79.0
1140.6354,74.0
1141.0917,69.0
1141.5481,101.0
1142.0048,64.0
1142.4615,96.0
1142.9186,55.0
1143.3757,100.0
1143.8331,74.0
1144.2906,112.0
1144.7484,59.0
1145.2063,85.0
1145.6644,68.0
1146.1227,74.0
1146.5812,66.0
1147.0398,82.0
1147.4987,85.0
1147.9576,73.0
1148.4169,160.0
1148.8762,64.0
1149.3358,140.0
1149.7955,88.0
1150.2555,110.0
1150.7156,69.0
1151.1759,89.0
1151.6364,64.0
1152.097,82.0
1152.5579,77.0
1153.0189,93.0
1153.4801,75.0
1153.9415,65.0
1154.4031,114.0
1154.8649,61.0
1155.3268,89.0
1155.789,67.0
1156.2512,90.0
1156.7137,70.0
1157.1764,87.0
1157.6393,78.0
1158.1023,96.0
1158.5656,94.0
1159.0289,79.0
1159.4926,103.0
1159.9563,77.0
1160.4203,100.0
1160.8844,68.0
1161.3488,99.0
1161.8134,55.0
1162.2781,96.0
1162.743,71.0
1163.2081,81.0
1163.6735,63.0
1164.1389,80.0
1164.6046,80.0
1165.0704,74.0
1165.5365,94.0
1166.0027,58.0
1166.4691,105.0
1166.9357,85.0
1167.4025,113.0
1167.8694,53.0
1168.3365,127.0
1168.8038,64.0
1169.2714,88.0
1169.739,74.0
1170.2069,93.0
1170.675,74.0
1171.1433,91.0
1171.6118,91.0
1172.0804,97.0
1172.5493,86.0
1173.0183,87.0
1173.4875,124.0
1173.9569,82.0
1174.4265,118.0
1174.8962,108.0
1175.3662,104.0
1175.8363,74.0
1176.3066,102.0
1176.7772,69.0
1177.2479,98.0
1177.7189,60.0
1178.19,88.0
1178.6613,68.0
1179.1327,93.0
1179.6044,75.0
1180.0762,70.0
1180.5482,100.0
1181.0204,94.0
1181.4928,104.0
1181.9655,84.0
1182.4382,107.0
1182.9113,81.0
1183.3844,114.0
1183.8578,72.0
1184.3313,72.0
1184.805,68.0
1185.2789,130.0
1185.753,100.0
1186.2273,86.0
1186.7018,87.0
1187.1765,77.0
1187.6514,98.0
1188.1265,65.0
1188.6017,89.0
1189.0771,79.0
1189.5527,92.0
1190.0286,75.0
1190.5045,99.0
1190.9807,79.0
1191.4572,111.0
1191.9337,64.0
1192.4105,111.0
1192.8875,73.0
1193.3646,123.0
1193.8419,85.0
1194.3195,109.0
1194.7972,73.0
1195.2751,90.0
1195.7533,70.0
1196.2316,84.0
1196.7101,93.0
1197.1887,106.0
1197.6676,82.0
1198.1467,98.0
1198.626,96.0
1199.1055,103.0
1199.5851,88.0
1200.065,72.0
1200.5449,83.0
1201.0251,87.0
1201.5056,93.0
1201.9862,65.0
1202.467,94.0
1202.948,90.0
1203.4292,121.0
1203.9105,65.0
1204.3921,92.0
1204.8739,87.0
1205.3558,114.0
1205.838,58.0
1206.3203,100.0
1206.8029,70.0
1207.2855,100.0
1207.7684,78.0
1208.2516,96.0
1208.7349,67.0
1209.2184,97.0
1209.702,86.0
1210.1859,107.0
1210.67,97.0
1211.1543,92.0
1211.6388,97.0
1212.1234,100.0
1212.6083,81.0
1213.0933,92.0
1213.5785,71.0
1214.064,91.0
1214.5496,92.0
1215.0354,72.0
1215.5214,115.0
1216.0076,68.0
1216.494,94.0
1216.9806,91.0
1217.4674,101.0
1217.9543,92.0
1218.4415,98.0
1218.929,130.0
1219.4165,109.0
1219.9043,101.0
1220.3922,100.0
1220.8804,81.0
1221.3688,105.0
1221.8573,65.0
1222.3461,127.0
1222.835,64.0
1223.3241,76.0
1223.8135,64.0
1224.303,87.0
1224.7927,86.0
1225.2826,108.0
1225.7727,73.0
1226.2631,98.0
1226.7535,74.0
1227.2443,103.0
1227.7351,64.0
1228.2262,80.0
1228.7175,85.0
1229.209,101.0
1229.7007,76.0
1230.1925,75.0
1230.6846,74.0
1231.1769,72.0
1231.6693,83.0
1232.162,91.0
1232.6549,87.0
1233.148,83.0
1233.6412,92.0
1234.1346,99.0
1234.6283,75.0
1235.1222,104.0
1235.6162,90.0
1236.1105,108.0
1236.6049,95.0
1237.0995,87.0
1237.5944,91.0
1238.0894,85.0
1238.5846,90.0
1239.0801,117.0
1239.5757,89.0
1240.0715,116.0
1240.5675,124.0
1241.0637,142.0
1241.5602,90.0
1242.0568,110.0
1242.5536,101.0
1243.0507,102.0
1243.5479,116.0
1244.0453,77.0
1244.5428,116.0
1245.0406,95.0
1245.5387,96.0
1246.0369,69.0
1246.5353,141.0
1247.0339,114.0
1247.5327,118.0
1248.0317,91.0
1248.531,106.0
1249.0304,90.0
1249.53,103.0
1250.0298,100.0
1250.5298,94.0
1251.03,76.0
1251.5304,97.0
1252.031,72.0
1252.5319,87.0
1253.0328,78.0
1253.534,78.0
1254.0355,56.0
1254.5371,93.0
1255.039,166.0
1255.541,112.0
1256.0432,141.0
1256.5457,87.0
1257.0482,129.0
1257.551,86.0
1258.0541,107.0
1258.5573,84.0
1259.0607,85.0
1259.5643,89.0
1260.0681,70.0
1260.5721,82.0
1261.0764,167.0
1261.5808,104.0
1262.0854,128.0
1262.5903,110.0
1263.0953,150.0
1263.6006,113.0
1264.1061,121.0
1264.6117,98.0
1265.1176,116.0
1265.6237,97.0
1266.1299,82.0
1266.6364,92.0
1267.1431,87.0
1267.6499,85.0
1268.157,89.0
1268.6642,89.0
1269.1716,72.0
1269.6793,81.0
1270.1871,87.0
1270.6952,129.0
1271.2035,88.0
1271.7119,112.0
1272.2206,79.0
1272.7295,100.0
1273.2385,84.0
1273.7478,83.0
1274.2573,87.0
1274.767,74.0
1275.2769,86.0
1275.787,62.0
1276.2972,92.0
1276.8077,285.0
1277.3185,110.0
1277.8295,209.0
1278.3406,101.0
1278.8519,159.0
1279.3635,107.0
1279.8752,136.0
1280.3872,98.0
1280.8994,106.0
1281.4117,79.0
1281.9243,88.0
1282.4371,89.0
1282.9501,161.0
1283.4633,82.0
1283.9767,107.0
1284.4902,115.0
1285.004,116.0
1285.5181,107.0
1286.0322,72.0
1286.5466,99.0
1287.0613,89.0
1287.576,104.0
1288.0911,65.0
1288.6063,114.0
1289.1218,109.0
1289.6375,128.0
1290.1533,103.0
1290.6694,90.0
1291.1857,98.0
1291.7021,84.0
1292.2189,94.0
1292.7357,140.0
1293.2528,107.0
1293.7701,120.0
1294.2876,105.0
1294.8053,86.0
1295.3232,94.0
1295.8414,79.0
1296.3597,80.0
1296.8783,87.0
1297.3971,93.0
1297.916,74.0
1298.4352,88.0
1298.9546,94.0
1299.4741,91.0
1299.9939,78.0
1300.5139,86.0
1301.0342,72.0
1301.5546,122.0
1302.0752,78.0
1302.5961,108.0
1303.1171,75.0
1303.6383,77.0
1304.1598,77.0
1304.6814,107.0
1305.2032,90.0
1305.7253,98.0
1306.2477,89.0
1306.7701,91.0
1307.2928,77.0
1307.8158,68.0
1308.3389,89.0
1308.8622,57.0
1309.3857,87.0
1309.9095,66.0
1310.4335,74.0
1310.9576,77.0
1311.482,106.0
1312.0066,64.0
1312.5314,102.0
1313.0564,67.0
1313.5817,94.0
1314.107,60.0
1314.6327,96.0
1315.1586,79.0
1315.6847,85.0
1316.2109,77.0
1316.7374,70.0
1317.2642,82.0
1317.791,74.0
1318.3181,84.0
1318.8455,57.0
1319.373,90.0
1319.9008,55.0
1320.4287,81.0
1320.9569,90.0
1321.4854,84.0
1322.0139,75.0
1322.5427,104.0
1323.0718,70.0
1323.601,76.0
1324.1304,85.0
1324.66,96.0
1325.19,63.0
1325.72,90.0
1326.2502,72.0
1326.7808,74.0
1327.3115,99.0
1327.8424,74.0
1328.3735,94.0
1328.9049,69.0
1329.4365,81.0
1329.9683,62.0
1330.5002,93.0
1331.0325,68.0
1331.565,109.0
1332.0975,75.0
1332.6304,99.0
1333.1635,82.0
1333.6968,93.0
1334.2302,80.0
1334.7639,66.0
1335.2979,73.0
1335.832,61.0
1336.3663,67.0
1336.9009,69.0
1337.4357,73.0
1337.9707,64.0
1338.5059,83.0
1339.0413,65.0
1339.5769,91.0
1340.1128,55.0
1340.6488,70.0
1341.185,62.0
1341.7216,66.0
1342.2583,65.0
1342.7952,61.0
1343.3323,78.0
1343.8696,62.0
1344.4072,70.0
1344.945,58.0
1345.4829,97.0
1346.0211,68.0
1346.5596,79.0
1347.0981,77.0
1347.637,90.0
1348.176,81.0
1348.7153,89.0
1349.2548,90.0
1349.7944,69.0
1350.3344,82.0
1350.8745,64.0
1351.4149,79.0
1351.9554,50.0
1352.4962,88.0
1353.0372,47.0
1353.5785,85.0
1354.1199,66.0
1354.6615,81.0
1355.2034,84.0
1355.7455,76.0
1356.2878,92.0
1356.8303,73.0
1357.373,93.0
1357.916,57.0
1358.4592,75.0
1359.0026,80.0
1359.5461,91.0
1360.09,77.0
1360.634,96.0
1361.1783,83.0
1361.7228,71.0
1362.2675,91.0
1362.8124,84.0
1363.3575,99.0
1363.9028,75.0
1364.4484,105.0
1364.9941,56.0
1365.5402,73.0
1366.0864,81.0
1366.6328,96.0
1367.1794,63.0
1367.7263,90.0
1368.2734,77.0
1368.8208,77.0
1369.3683,79.0
1369.916,57.0
1370.464,83.0
1371.0122,50.0
1371.5607,81.0
1372.1093,58.0
1372.6581,96.0
1373.2072,78.0
1373.7565,61.0
1374.306,96.0
1374.8557,74.0
1375.4056,145.0
1375.9558,68.0
1376.5062,126.0
1377.0569,68.0
1377.6077,125.0
1378.1587,81.0
1378.71,84.0
1379.2615,103.0
1379.8132,68.0
1380.3651,91.0
1380.9172,63.0
1381.4696,89.0
1382.0222,53.0
1382.5751,67.0
1383.128,69.0
1383.6813,101.0
1384.2347,91.0
1384.7885,78.0
1385.3424,96.0
1385.8965,70.0
1386.4508,85.0
1387.0054,68.0
1387.5602,99.0
1388.1152,70.0
1388.6705,89.0
1389.226,82.0
1389.7816,83.0
1390.3375,95.0
1390.8937,61.0
1391.4501,95.0
1392.0067,56.0
1392.5635,81.0
1393.1205,76.0
1393.6777,94.0
1394.2352,88.0
1394.793,78.0
1395.3508,91.0
1395.9089,61.0
1396.4673,95.0
1397.0259,61.0
1397.5847,98.0
1398.1438,77.0
1398.703,98.0
1399.2625,65.0
1399.8221,78.0
1400.3821,114.0
1400.9423,70.0
1401.5027,104.0
1402.0632,68.0
1402.624,86.0
1403.185,88.0
1403.7463,96.0
1404.3079,72.0
1404.8696,59.0
1405.4315,98.0
1405.9937,85.0
1406.556,105.0
1407.1187,68.0
1407.6815,88.0
1408.2446,82.0
1408.808,84.0
1409.3715,82.0
1409.9352,64.0
1410.4991,95.0
1411.0634,70.0
1411.6278,68.0
1412.1925,73.0
1412.7573,89.0
1413.3224,95.0
1413.8877,78.0
1414.4532,118.0
1415.019,65.0
1415.5851,106.0
1416.1514,62.0
1416.7178,80.0
1417.2844,94.0
1417.8513,76.0
1418.4185,93.0
1418.9858,63.0
1419.5535,119.0
1420.1213,71.0
1420.6893,111.0
1421.2576,94.0
1421.826,82.0
1422.3948,102.0
1422.9637,77.0
1423.533,107.0
1424.1024,85.0
1424.672,102.0
1425.2418,88.0
1425.8119,69.0
1426.3822,92.0
1426.9528,72.0
1427.5236,75.0
1428.0946,61.0
1428.6659,89.0
1429.2373,85.0
1429.809,101.0
1430.3809,82.0
1430.953,70.0
1431.5254,117.0
1432.098,98.0
1432.6709,99.0
1433.244,97.0
1433.8173,92.0
1434.3907,94.0
1434.9645,83.0
1435.5385,118.0
1436.1127,76.0
1436.6871,100.0
1437.2618,88.0
1437.8368,98.0
1438.412,88.0
1438.9873,79.0
1439.5629,86.0
1440.1387,79.0
1440.7147,103.0
1441.291,84.0
1441.8676,64.0
1442.4443,96.0
1443.0214,64.0
1443.5985,101.0
1444.1759,79.0
1444.7535,86.0
1445.3314,99.0
1445.9095,79.0
1446.4879,116.0
1447.0665,77.0
1447.6454,99.0
1448.2245,70.0
1448.8038,99.0
1449.3833,106.0
1449.963,88.0
1450.543,117.0
1451.1232,92.0
1451.7036,124.0
1452.2843,91.0
1452.8652,108.0
1453.4464,91.0
1454.0278,100.0
1454.6095,103.0
1455.1913,92.0
1455.7733,107.0
1456.3556,123.0
1456.9381,73.0
1457.5209,87.0
1458.1039,73.0
1458.6871,85.0
1459.2706,61.0
1459.8544,98.0
1460.4384,75.0
1461.0226,76.0
1461.6069,124.0
1462.1915,94.0
1462.7764,100.0
1463.3615,101.0
1463.9468,65.0
1464.5323,91.0
1465.1182,74.0
1465.7042,125.0
1466.2905,92.0
1466.8771,108.0
1467.4639,94.0
1468.0509,88.0
1468.6382,112.0
1469.2256,89.0
1469.8132,86.0
1470.4011,84.0
1470.9893,65.0
1471.5776,100.0
1472.1663,103.0
1472.7551,101.0
1473.3442,91.0
1473.9336,83.0
1474.5232,116.0
1475.113,77.0
1475.7031,114.0
1476.2935,84.0
1476.884,75.0
1477.4747,106.0
1478.0657,87.0
1478.6569,104.0
1479.2483,101.0
1479.84,79.0
1480.4319,103.0
1481.024,81.0
1481.6165,127.0
1482.2091,96.0
1482.802,102.0
1483.3951,86.0
1483.9885,97.0
1484.5822,109.0
1485.176,80.0
1485.7701,89.0
1486.3645,88.0
1486.9591,73.0
1487.5538,111.0
1488.1488,80.0
1488.744,102.0
1489.3395,74.0
1489.9352,98.0
1490.5311,103.0
1491.1273,81.0
1491.7238,91.0
1492.3204,79.0
1492.9174,61.0
1493.5145,124.0
1494.1119,96.0
1494.7096,106.0
1495.3075,85.0
1495.9056,90.0
1496.504,98.0
1497.1027,67.0
1497.7015,85.0
1498.3007,73.0
1498.9,82.0
1499.4996,71.0
1500.0995,79.0
1500.6996,95.0
1501.2998,85.0
1501.9003,68.0
1502.501,87.0
1503.1019,63.0
1503.7031,130.0
1504.3046,104.0
1504.9062,79.0
1505.5082,82.0
1506.1104,92.0
1506.7128,102.0
1507.3154,98.0
1507.9183,83.0
1508.5215,97.0
1509.1249,77.0
1509.7285,106.0
1510.3324,76.0
1510.9365,69.0
1511.5409,106.0
1512.1455,84.0
1512.7504,146.0
1513.3555,112.0
1513.9608,72.0
1514.5664,119.0
1515.1722,61.0
1515.7783,87.0
1516.3846,96.0
1516.9912,69.0
1517.598,89.0
1518.2051,69.0
1518.8124,83.0
1519.4199,91.0
1520.0277,81.0
1520.6357,98.0
1521.244,81.0
1521.8525,100.0
1522.4613,82.0
1523.0703,65.0
1523.6796,97.0
1524.2891,93.0
1524.8988,67.0
1525.5088,113.0
1526.119,70.0
1526.7295,110.0
1527.3402,98.0
1527.9512,67.0
1528.5624,94.0
1529.1738,61.0
1529.7855,95.0
1530.3975,94.0
1531.0096,68.0
1531.6221,82.0
1532.2347,93.0
1532.8477,77.0
1533.4608,85.0
1534.0742,89.0
1534.6879,81.0
1535.3018,93.0
1535.9159,60.0
1536.5303,89.0
1537.1449,57.0
1537.7598,79.0
1538.3749,70.0
1538.9902,75.0
1539.6058,84.0
1540.2217,70.0
1540.8378,81.0
1541.4541,87.0
1542.0707,66.0
1542.6875,93.0
1543.3046,94.0
1543.9219,73.0
1544.5394,106.0
1545.1572,80.0
1545.7753,91.0
1546.3936,102.0
1547.0121,73.0
1547.6309,103.0
1548.2499,80.0
1548.8691,67.0
1549.4886,81.0
1550.1084,69.0
1550.7284,88.0
1551.3486,102.0
1551.9691,68.0
1552.5898,100.0
1553.2109,79.0
1553.8323,66.0
1554.4539,78.0
1555.0757,73.0
1555.6978,77.0
1556.3201,82.0
1556.9426,74.0
1557.5654,97.0
1558.1885,70.0
1558.8118,67.0
1559.4353,92.0
1560.0591,71.0
1560.6831,93.0
1561.3074,70.0
1561.9319,84.0
1562.5566,88.0
1563.1816,76.0
1563.8069,86.0
1564.4324,82.0
1565.0581,59.0
1565.6841,81.0
1566.3103,80.0
1566.9368,56.0
1567.5636,89.0
1568.1907,67.0
1568.818,71.0
1569.4456,110.0
1570.0734,53.0
1570.7014,85.0
1571.3297,84.0
1571.9583,70.0
1572.587,96.0
1573.2161,72.0
1573.8453,91.0
1574.4749,80.0
1575.1046,52.0
1575.7346,98.0
1576.3649,87.0
1576.9954,76.0
1577.6261,73.0
1578.2572,77.0
1578.8885,84.0
1579.5201,95.0
1580.152,57.0
1580.784,90.0
1581.4164,93.0
1582.049,63.0
1582.6818,81.0
1583.3148,70.0
1583.9481,68.0
1584.5817,92.0
1585.2155,75.0
1585.8495,89.0
1586.4839,100.0
1587.1185,78.0
1587.7534,100.0
1588.3885,82.0
1589.0239,63.0
1589.6595,93.0
1590.2954,82.0
1590.9315,79.0
1591.5679,94.0
1592.2045,68.0
1592.8413,73.0
1593.4784,90.0
1594.1158,74.0
1594.7535,70.0
1595.3915,103.0
1596.0297,69.0
1596.6681,102.0
1597.3068,94.0
1597.9457,70.0
1598.5848,94.0
1599.2242,73.0
1599.8639,84.0
1600.5038,84.0
1601.144,77.0
1601.7845,82.0
1602.4253,97.0
1603.0663,87.0
1603.7075,106.0
1604.349,100.0
1604.9907,71.0
1605.6327,96.0
1606.2749,81.0
1606.9174,76.0
1607.5602,78.0
1608.2032,74.0
1608.8466,71.0
1609.4901,85.0
1610.1339,74.0
1610.778,77.0
1611.4222,92.0
1612.0668,60.0
1612.7115,82.0
1613.3567,90.0
1614.0021,57.0
1614.6477,80.0
1615.2936,75.0
1615.9397,86.0
1616.586,107.0
1617.2327,62.0
1617.8795,85.0
1618.5266,98.0
1619.1741,74.0
1619.8218,78.0
1620.4697,112.0
1621.1179,76.0
1621.7664,88.0
1622.415,83.0
1623.064,90.0
1623.7131,88.0
1624.3627,85.0
1625.0125,85.0
1625.6625,95.0
1626.3127,75.0
1626.9633,80.0
1627.614,98.0
1628.265,86.0
1628.9163,69.0
1629.5679,104.0
1630.2197,89.0
1630.8718,90.0
1631.5242,84.0
1632.1768,63.0
1632.8296,77.0
1633.4827,84.0
1634.1361,67.0
1634.7898,97.0
1635.4437,94.0
1636.0979,54.0
1636.7523,93.0
1637.407,87.0
1638.0619,59.0
1638.7172,99.0
1639.3727,104.0
1640.0284,83.0
1640.6844,103.0
1641.3407,102.0
1641.9972,81.0
1642.6539,92.0
1643.311,86.0
1643.9684,65.0
1644.626,147.0
1645.2838,124.0
1645.9419,68.0
1646.6002,132.0
1647.2589,105.0
1647.9178,93.0
1648.577,101.0
1649.2365,84.0
1649.8961,83.0
1650.556,83.0
1651.2163,98.0
1651.8768,72.0
1652.5376,85.0
1653.1986,76.0
1653.8599,74.0
1654.5214,87.0
1655.1832,86.0
1655.8453,95.0
1656.5077,109.0
1657.1703,75.0
1657.8331,96.0
1658.4962,71.0
1659.1597,74.0
1659.8234,80.0
1660.4873,89.0
1661.1515,73.0
1661.8159,81.0
1662.4806,103.0
1663.1456,77.0
1663.8109,113.0
1664.4764,104.0
1665.1422,75.0
1665.8082,103.0
1666.4746,127.0
1667.1412,91.0
1667.8081,97.0
1668.4752,79.0
1669.1426,57.0
1669.8102,74.0
1670.4781,78.0
1671.1464,74.0
1671.8148,93.0
1672.4835,86.0
1673.1525,62.0
1673.8218,105.0
1674.4913,106.0
1675.1611,76.0
1675.8312,95.0
1676.5015,93.0
1677.1721,82.0
1677.843,87.0
1678.5142,75.0
1679.1855,77.0
1679.8572,88.0
1680.5292,87.0
1681.2014,74.0
1681.8739,84.0
1682.5466,103.0
1683.2196,72.0
1683.893,81.0
1684.5665,123.0
1685.2404,77.0
1685.9144,81.0
1686.5887,83.0
1687.2634,59.0
1687.9384,71.0
1688.6135,88.0
1689.289,86.0
1689.9646,58.0
1690.6406,105.0
1691.3169,78.0
1691.9934,47.0
1692.6702,87.0
1693.3473,107.0
1694.0247,97.0
1694.7023,97.0
1695.3801,74.0
1696.0582,54.0
1696.7367,88.0
1697.4154,81.0
1698.0944,66.0
1698.7736,84.0
1699.4531,102.0
1700.1329,66.0
1700.813,91.0
1701.4933,94.0
1702.1738,71.0
1702.8547,83.0
1703.5359,71.0
1704.2173,54.0
1704.8989,106.0
1705.5809,95.0
1706.2632,80.0
1706.9457,94.0
1707.6284,89.0
1708.3115,76.0
1708.9949,75.0
1709.6785,100.0
1710.3623,78.0
1711.0465,94.0
1711.731,96.0
1712.4156,61.0
1713.1006,58.0
1713.7858,71.0
1714.4713,110.0
1715.1571,64.0
1715.8431,97.0
1716.5294,89.0
1717.2161,70.0
1717.903,69.0
1718.5901,90.0
1719.2775,73.0
1719.9652,65.0
1720.6532,75.0
1721.3414,80.0
1722.0299,96.0
1722.7188,90.0
1723.4078,97.0
1724.0972,79.0
1724.7869,95.0
1725.4768,104.0
1726.167,65.0
1726.8574,78.0
1727.5482,107.0
1728.2393,69.0
1728.9305,92.0
1729.6221,90.0
1730.314,75.0
1731.0061,67.0
1731.6985,82.0
1732.3911,75.0
1733.0841,53.0
1733.7773,77.0
1734.4708,92.0
1735.1647,61.0
1735.8588,72.0
1736.5531,82.0
1737.2477,83.0
1737.9426,74.0
1738.6378,109.0
1739.3333,90.0
1740.0289,72.0
1740.725,91.0
1741.4213,106.0
1742.1178,67.0
1742.8147,87.0
1743.5118,59.0
1744.2092,54.0
1744.9069,87.0
1745.6049,89.0
1746.3031,74.0
1747.0016,73.0
1747.7004,64.0
1748.3995,70.0
1749.0989,59.0
1749.7985,86.0
1750.4984,92.0
1751.1986,60.0
1751.899,74.0
1752.5999,75.0
1753.3009,63.0
1754.0022,78.0
1754.7039,81.0
1755.4058,69.0
1756.1079,69.0
1756.8103,81.0
1757.5131,110.0
1758.2161,76.0
1758.9193,70.0
1759.6229,71.0
1760.3268,79.0
1761.0309,66.0
1761.7354,94.0
1762.4401,79.0
1763.145,72.0
1763.8502,75.0
1764.5558,93.0
1765.2616,57.0
1765.9677,96.0
1766.6741,79.0
1767.3807,72.0
1768.0876,48.0
1768.7949,73.0
1769.5024,74.0
1770.2102,74.0
1770.9183,71.0
1771.6267,103.0
1772.3353,76.0
1773.0443,86.0
1773.7535,85.0
1774.463,69.0
1775.1729,58.0
1775.8829,60.0
1776.5933,90.0
1777.304,63.0
1778.0149,70.0
1778.7261,78.0
1779.4376,74.0
1780.1494,52.0
1780.8615,87.0
1781.5739,91.0
1782.2865,62.0
1782.9994,67.0
1783.7126,91.0
1784.4261,86.0
1785.1399,64.0
1785.854,77.0
1786.5684,84.0
1787.283,70.0
1787.9979,81.0
1788.7131,82.0
1789.4286,68.0
1790.1444,63.0
1790.8605,72.0
1791.5768,80.0
1792.2935,72.0
1793.0104,63.0
1793.7275,93.0
1794.4451,82.0
1795.1628,55.0
1795.8809,69.0
1796.5992,86.0
1797.3179,69.0
1798.0367,73.0
1798.756,85.0
1799.4755,71.0
1800.1953,61.0
1800.9154,57.0
1801.6357,78.0
1802.3564,63.0
1803.0774,75.0
1803.7986,92.0
1804.5201,72.0
1805.242,70.0
1805.964,119.0
1806.6864,125.0
1807.409,107.0
1808.1321,71.0
1808.8553,91.0
1809.5789,105.0
1810.3027,71.0
1811.0269,86.0
1811.7512,93.0
1812.476,92.0
1813.2009,69.0
1813.9261,79.0
1814.6517,94.0
1815.3776,71.0
1816.1038,66.0
1816.8302,72.0
1817.5569,80.0
1818.2839,61.0
1819.0112,71.0
1819.7389,71.0
1820.4668,69.0
1821.195,64.0
1821.9235,75.0
1822.6522,67.0
1823.3812,65.0
1824.1106,60.0
1824.8402,80.0
1825.5702,86.0
1826.3004,63.0
1827.0309,86.0
1827.7617,101.0
1828.4928,97.0
1829.2242,77.0
1829.9559,74.0
1830.6879,91.0
1831.4202,80.0
1832.1527,68.0
1832.8856,83.0
1833.6188,107.0
1834.3522,76.0
1835.0859,79.0
1835.82,77.0
1836.5543,88.0
1837.289,74.0
1838.0238,87.0
1838.759,100.0
1839.4945,80.0
1840.2303,70.0
1840.9664,79.0
1841.7028,80.0
1842.4395,83.0
1843.1764,60.0
1843.9137,80.0
1844.6512,103.0
1845.3892,89.0
1846.1273,69.0
1846.8657,71.0
1847.6045,75.0
1848.3435,81.0
1849.0829,84.0
1849.8225,68.0
1850.5624,67.0
1851.3026,83.0
1852.0431,68.0
1852.7839,90.0
1853.525,75.0
1854.2665,67.0
1855.0082,75.0
1855.7501,90.0
1856.4924,87.0
1857.235,65.0
1857.9779,103.0
1858.7211,122.0
1859.4646,112.0
1860.2084,67.0
1860.9525,101.0
1861.6969,88.0
1862.4415,75.0
1863.1865,79.0
1863.9318,65.0
1864.6774,84.0
1865.4232,75.0
1866.1694,65.0
1866.9159,74.0
1867.6627,95.0
1868.4098,87.0
1869.1571,76.0
1869.9048,78.0
1870.6527,83.0
1871.401,95.0
1872.1495,79.0
1872.8984,79.0
1873.6476,94.0
1874.3971,79.0
1875.1469,84.0
1875.8969,105.0
1876.6472,116.0
1877.3978,98.0
1878.1488,82.0
1878.9,86.0
1879.6516,73.0
1880.4034,74.0
1881.1556,59.0
1881.9081,68.0
1882.6609,80.0
1883.414,75.0
1884.1674,82.0
1884.921,177.0
1885.675,219.0
1886.4293,125.0
1887.1838,89.0
1887.9387,116.0
1888.6938,97.0
1889.4493,74.0
1890.2051,84.0
1890.9612,56.0
1891.7175,81.0
1892.4742,76.0
1893.2312,70.0
1893.9885,76.0
1894.7461,89.0
1895.504,80.0
1896.2622,86.0
1897.0208,104.0
1897.7795,101.0
1898.5387,99.0
1899.2981,82.0
1900.0579,72.0
1900.8179,79.0
1901.5782,85.0
1902.3389,67.0
1903.0999,68.0
1903.8611,82.0
1904.6227,82.0
1905.3845,70.0
1906.1467,76.0
1906.9092,90.0
1907.672,85.0
1908.435,79.0
1909.1985,55.0
1909.9622,74.0
1910.7262,86.0
1911.4905,85.0
1912.2551,86.0
1913.02,87.0
1913.7853,300.0
1914.5508,287.0
1915.3167,158.0
1916.0828,210.0
1916.8492,151.0
1917.616,95.0
1918.383,68.0
1919.1504,66.0
1919.9181,79.0
1920.686,76.0
1921.4543,76.0
1922.2229,66.0
1922.9918,78.0
1923.761,101.0
1924.5305,88.0
1925.3003,66.0
1926.0704,62.0
1926.8408,63.0
1927.6116,72.0
1928.3826,68.0
1929.1539,36.0
1929.9255,67.0
1930.6975,78.0
1931.4698,88.0
1932.2424,64.0
1933.0154,88.0
1933.7886,72.0
1934.5621,84.0
1935.3359,74.0
1936.1101,83.0
1936.8845,90.0
1937.6593,88.0
1938.4343,83.0
1939.2097,75.0
1939.9854,85.0
1940.7614,68.0
1941.5376,94.0
1942.3142,60.0
1943.0912,59.0
1943.8684,63.0
1944.646,67.0
1945.4238,57.0
1946.202,62.0
1946.9805,57.0
1947.7593,67.0
1948.5383,60.0
1949.3177,67.0
1950.0975,50.0
1950.8776,76.0
1951.658,65.0
1952.4386,89.0
1953.2196,81.0
1954.0009,80.0
1954.7825,66.0
1955.5643,75.0
1956.3466,61.0
1957.1292,71.0
1957.912,76.0
1958.6952,80.0
1959.4786,62.0
1960.2625,50.0
1961.0465,63.0
1961.8309,68.0
1962.6157,70.0
1963.4008,56.0
1964.1862,57.0
1964.9718,67.0
1965.7578,76.0
1966.5441,83.0
1967.3307,82.0
1968.1177,85.0
1968.9049,73.0
1969.6925,87.0
1970.4803,73.0
1971.2686,65.0
1972.057,62.0
1972.8458,69.0
1973.635,68.0
1974.4244,71.0
1975.2142,55.0
1976.0043,58.0
1976.7947,67.0
1977.5854,66.0
1978.3765,65.0
1979.1678,59.0
1979.9595,64.0
1980.7515,68.0
1981.5438,77.0
1982.3364,67.0
1983.1294,61.0
1983.9226,90.0
1984.7162,90.0
1985.5101,97.0
1986.3043,64.0
1987.0989,63.0
1987.8937,70.0
1988.6888,55.0
1989.4844,76.0
1990.2802,56.0
1991.0763,61.0
1991.8727,57.0
1992.6694,73.0
1993.4666,90.0
1994.2639,76.0
1995.0616,84.0
1995.8596,91.0
1996.658,79.0
1997.4567,81.0
1998.2556,52.0
1999.0549,69.0
1999.8546,70.0
2000.6545,82.0
2001.4548,61.0
2002.2554,70.0
2003.0563,70.0
2003.8575,74.0
2004.659,66.0
2005.4609,55.0
2006.2631,61.0
2007.0656,56.0
2007.8684,74.0
2008.6715,73.0
2009.475,92.0
2010.2788,83.0
2011.0829,89.0
2011.8873,119.0
2012.6921,121.0
2013.4972,105.0
2014.3026,81.0
2015.1083,70.0
2015.9143,79.0
2016.7207,69.0
2017.5273,68.0
2018.3344,59.0
2019.1417,61.0
2019.9493,65.0
2020.7573,72.0
2021.5657,71.0
2022.3743,70.0
2023.1832,52.0
2023.9926,49.0
2024.8021,75.0
2025.612,110.0
2026.4224,88.0
2027.2329,86.0
2028.0438,95.0
2028.855,104.0
2029.6665,106.0
2030.4784,85.0
2031.2905,84.0
2032.103,62.0
2032.9159,72.0
2033.729,78.0
2034.5425,88.0
2035.3563,83.0
2036.1704,66.0
2036.9849,84.0
2037.7997,75.0
2038.6147,70.0
2039.4302,79.0
2040.246,77.0
2041.062,75.0
2041.8784,76.0
2042.6952,79.0
2043.5123,75.0
2044.3297,63.0
2045.1475,63.0
2045.9656,78.0
2046.7839,61.0
2047.6027,86.0
2048.4216,68.0
2049.241,54.0
2050.0605,66.0
2050.8806,70.0
2051.701,82.0
2052.5217,90.0
2053.3428,89.0
2054.164,56.0
2054.9858,87.0
2055.8079,70.0
2056.6301,68.0
2057.453,67.0
2058.276,48.0
2059.099,66.0
2059.9229,75.0
2060.7468,60.0
2061.571,75.0
2062.3958,68.0
2063.2207,56.0
2064.046,69.0
2064.8716,75.0
2065.6975,86.0
2066.5237,84.0
2067.3503,57.0
2068.1772,66.0
2069.0046,52.0
2069.8323,73.0
2070.6602,68.0
2071.4885,58.0
2072.3171,58.0
2073.146,70.0
2073.9753,74.0
2074.805,73.0
2075.6348,66.0
2076.465,52.0
2077.2957,52.0
2078.1265,68.0
2078.9578,57.0
2079.7893,59.0
2080.6213,67.0
2081.4536,73.0
2082.2861,77.0
2083.1191,101.0
2083.9524,107.0
2084.786,87.0
2085.6199,81.0
2086.454,81.0
2087.2886,54.0
2088.1235,51.0
2088.9587,72.0
2089.7944,62.0
2090.6304,78.0
2091.4666,51.0
2092.3032,67.0
2093.1401,75.0
2093.9773,71.0
2094.815,82.0
2095.6528,74.0
2096.4912,61.0
2097.3298,63.0
2098.1687,65.0
2099.008,79.0
2099.8477,68.0
2100.6875,69.0
2101.5278,72.0
2102.3684,63.0
2103.2095,75.0
2104.0508,60.0
2104.8923,67.0
2105.7344,72.0
2106.5767,97.0
2107.4192,61.0
2108.2622,57.0
2109.1055,57.0
2109.9492,66.0
2110.7932,68.0
2111.6375,60.0
2112.4822,78.0
2113.3271,58.0
2114.1724,51.0
2115.018,79.0
2115.864,63.0
2116.7104,72.0
2117.5571,66.0
2118.404,52.0
2119.2515,55.0
2120.099,64.0
2120.9473,62.0
2121.7957,73.0
2122.6443,68.0
2123.4934,64.0
2124.3428,76.0
2125.1926,87.0
2126.0427,79.0
2126.893,81.0
2127.744,69.0
2128.595,68.0
2129.4463,52.0
2130.298,58.0
2131.1501,65.0
2132.0027,64.0
2132.8555,89.0
2133.7085,76.0
2134.562,75.0
2135.4158,75.0
2136.27,70.0
2137.1245,69.0
2137.9792,58.0
2138.8345,70.0
2139.69,68.0
2140.546,62.0
2141.402,75.0
2142.2585,79.0
2143.1155,103.0
2143.9727,100.0
2144.8303,88.0
2145.6882,85.0
2146.5464,77.0
2147.405,74.0
2148.264,53.0
2149.1233,69.0
2149.983,56.0
2150.843,73.0
2151.7034,58.0
2152.564,80.0
2153.425,74.0
2154.2864,72.0
2155.1482,88.0
2156.0103,72.0
2156.8726,61.0
2157.7354,77.0
2158.5984,74.0
2159.462,70.0
2160.3257,64.0
2161.1897,63.0
2162.0542,70.0
2162.919,85.0
2163.7842,86.0
2164.6497,84.0
2165.5156,59.0
2166.3818,94.0
2167.2483,69.0
2168.1152,73.0
2168.9824,99.0
2169.85,86.0
2170.718,78.0
2171.5864,66.0
2172.455,79.0
2173.324,66.0
2174.1934,69.0
2175.063,65.0
2175.933,71.0
2176.8035,82.0
2177.674,77.0
2178.5452,68.0
2179.4165,68.0
2180.2883,72.0
2181.1604,88.0
2182.033,82.0
2182.9058,73.0
2183.7788,75.0
2184.6523,79.0
2185.5261,94.0
2186.4004,70.0
2187.275,75.0
2188.15,63.0
2189.0251,69.0
2189.9006,56.0
2190.7766,70.0
2191.6528,91.0
2192.5295,77.0
2193.4065,73.0
2194.284,70.0
2195.1616,89.0
2196.0398,85.0
2196.9182,89.0
2197.7969,66.0
2198.676,76.0
2199.5554,80.0
2200.4353,81.0
2201.3154,65.0
2202.196,64.0
2203.077,68.0
2203.9583,62.0
2204.8398,72.0
2205.7217,73.0
2206.604,75.0
2207.4866,67.0
2208.3696,58.0
2209.253,59.0
2210.1367,64.0
2211.0208,65.0
2211.9053,78.0
2212.79,88.0
2213.675,98.0
2214.5605,91.0
2215.4463,97.0
2216.3325,62.0
2217.219,73.0
2218.106,95.0
2218.9932,54.0
2219.8809,61.0
2220.7688,74.0
2221.6572,63.0
2222.546,78.0
2223.4348,72.0
2224.3242,75.0
2225.2139,64.0
2226.104,62.0
2226.9944,55.0
2227.8853,79.0
2228.7764,84.0
2229.668,65.0
2230.5598,65.0
2231.4521,76.0
2232.3447,63.0
2233.2375,87.0
2234.1309,87.0
2235.0244,76.0
2235.9185,79.0
2236.8127,67.0
2237.7075,73.0
2238.6025,84.0
2239.498,79.0
2240.3938,76.0
2241.29,60.0
2242.1865,64.0
2243.0835,63.0
2243.9807,73.0
2244.8784,73.0
2245.7764,79.0
2246.6746,64.0
2247.5732,66.0
2248.4722,77.0
2249.3716,65.0
2250.2712,61.0
2251.1714,69.0
2252.0718,69.0
2252.9727,66.0
2253.8738,62.0
2254.7754,77.0
2255.6772,76.0
2256.5796,72.0
2257.4822,78.0
2258.3853,75.0
2259.2886,70.0
2260.1924,73.0
2261.0964,91.0
2262.001,82.0
2262.9058,89.0
2263.811,73.0
2264.7166,92.0
2265.6226,78.0
2266.5288,66.0
2267.4353,81.0
2268.3423,75.0
2269.2495,75.0
2270.1572,78.0
2271.0652,66.0
2271.9736,73.0
2272.8823,84.0
2273.7915,81.0
2274.701,102.0
2275.6108,144.0
2276.521,125.0
2277.4316,124.0
2278.3425,103.0
2279.254,84.0
2280.1655,86.0
2281.0776,80.0
2281.99,68.0
2282.9028,79.0
2283.816,75.0
2284.7295,84.0
2285.6433,77.0
2286.5576,77.0
2287.4722,81.0
2288.3872,71.0
2289.3025,66.0
2290.2183,73.0
2291.1343,71.0
2292.0508,70.0
2292.9675,97.0
2293.8848,80.0
2294.8022,110.0
2295.7202,75.0
2296.6384,77.0
2297.5571,90.0
2298.476,89.0
2299.3955,78.0
2300.3152,78.0
2301.2354,84.0
2302.1558,70.0
2303.0767,93.0
2303.9978,102.0
2304.9194,87.0
2305.8413,57.0
2306.7637,71.0
2307.6863,84.0
2308.6094,88.0
2309.5327,67.0
2310.4565,92.0
2311.3806,71.0
2312.3052,66.0
2313.23,93.0
2314.1553,81.0
2315.081,83.0
2316.007,81.0
2316.9336,71.0
2317.8604,80.0
2318.7876,93.0
2319.715,113.0
2320.643,98.0
2321.5713,100.0
2322.5,82.0
2323.429,70.0
2324.3584,68.0
2325.288,80.0
2326.2183,72.0
2327.1487,72.0
2328.0796,72.0
2329.0107,87.0
2329.9424,75.0
2330.8743,84.0
2331.8066,84.0
2332.7393,75.0
2333.6724,66.0
2334.6057,76.0
2335.5396,74.0
2336.4739,80.0
2337.4084,61.0
2338.3435,77.0
2339.2788,67.0
2340.2146,80.0
2341.1506,68.0
2342.0872,79.0
2343.024,80.0
2343.9612,80.0
2344.8987,97.0
2345.8367,112.0
2346.775,117.0
2347.7136,103.0
2348.6526,83.0
2349.592,95.0
2350.532,65.0
2351.4722,76.0
2352.4128,59.0
2353.3538,76.0
2354.2952,71.0
2355.2368,75.0
2356.179,79.0
2357.1213,76.0
2358.0642,70.0
2359.0073,73.0
2359.951,78.0
2360.895,81.0
2361.8394,83.0
2362.7842,117.0
2363.7292,90.0
2364.6748,81.0
2365.6206,76.0
2366.567,102.0
2367.5134,72.0
2368.4604,66.0
2369.4077,89.0
2370.3555,84.0
2371.3037,76.0
2372.2522,93.0
2373.2012,73.0
2374.1504,90.0
2375.1,78.0
2376.05,71.0
2377.0005,78.0
2377.9512,70.0
2378.9023,88.0
2379.854,89.0
2380.806,80.0
2381.7583,78.0
2382.711,78.0
2383.664,63.0
2384.6174,72.0
2385.5713,71.0
2386.5256,83.0
2387.4802,106.0
2388.4353,114.0
2389.3906,103.0
2390.3464,87.0
2391.3025,75.0
2392.259,99.0
2393.2158,63.0
2394.173,92.0
2395.1309,74.0
2396.0889,85.0
2397.0474,94.0
2398.006,89.0
2398.9653,75.0
2399.9248,71.0
2400.8848,79.0
2401.8452,74.0
2402.806,81.0
2403.767,76.0
2404.7285,82.0
2405.6904,103.0
2406.6526,81.0
2407.6152,78.0
2408.5784,67.0
2409.5417,63.0
2410.5056,72.0
2411.4697,90.0
2412.4343,78.0
2413.3994,85.0
2414.3647,93.0
2415.3306,68.0
2416.2966,81.0
2417.2632,67.0
2418.23,64.0
2419.1973,72.0
2420.165,86.0
2421.133,77.0
2422.1016,94.0
2423.0703,70.0
2424.0396,82.0
2425.0093,67.0
2425.9792,69.0
2426.9497,72.0
2427.9204,78.0
2428.8916,72.0
2429.863,65.0
2430.835,102.0
2431.8074,112.0
2432.78,98.0
2433.7532,71.0
2434.7266,76.0
2435.7004,94.0
2436.6748,96.0
2437.6494,71.0
2438.6245,69.0
2439.5999,76.0
2440.5757,62.0
2441.552,74.0
2442.5286,63.0
2443.5056,72.0
2444.483,67.0
2445.4607,80.0
2446.439,70.0
2447.4175,82.0
2448.3965,105.0
2449.3757,76.0
2450.3555,79.0
2451.3357,70.0
2452.3162,84.0
2453.297,74.0
2454.2783,83.0
2455.26,74.0
2456.2422,81.0
2457.2246,58.0
2458.2075,88.0
2459.191,61.0
2460.1746,64.0
2461.1587,80.0
2462.143,61.0
2463.128,89.0
2464.1133,93.0
2465.0989,107.0
2466.085,94.0
2467.0713,87.0
2468.058,88.0
2469.0454,68.0
2470.033,72.0
2471.021,67.0
2472.0095,83.0
2472.9983,75.0
2473.9875,63.0
2474.977,57.0
2475.967,87.0
2476.9575,75.0
2477.9482,70.0
2478.9395,78.0
2479.931,75.0
2480.9229,72.0
2481.9153,89.0
2482.908,92.0
2483.9011,79.0
2484.8948,89.0
2485.8887,70.0
2486.883,61.0
2487.878,85.0
2488.873,77.0
2489.8687,76.0
2490.8645,76.0
2491.8608,71.0
2492.8577,78.0
2493.8547,57.0
2494.8523,67.0
2495.8503,82.0
2496.8486,93.0
2497.8474,93.0
2498.8464,90.0
2499.846,89.0
2500.846,75.0
2501.8462,79.0
2502.847,73.0
2503.8481,55.0
2504.8496,61.0
2505.8516,79.0
2506.854,67.0
2507.8567,63.0
2508.8599,72.0
2509.8635,70.0
2510.8674,76.0
2511.8718,68.0
2512.8765,83.0
2513.8816,61.0
2514.8872,73.0
2515.893,74.0
2516.8994,55.0
2517.9062,68.0
2518.9133,69.0
2519.921,75.0
2520.929,76.0
2521.9373,76.0
2522.946,63.0
2523.9553,76.0
2524.9648,60.0
2525.9749,66.0
2526.9854,62.0
2527.996,64.0
2529.0073,75.0
2530.019,81.0
2531.031,73.0
2532.0435,77.0
2533.0562,78.0
2534.0693,93.0
2535.083,89.0
2536.097,82.0
2537.1113,75.0
2538.1262,74.0
2539.1414,72.0
2540.157,63.0
2541.173,77.0
2542.1895,53.0
2543.2063,74.0
2544.2236,72.0
2545.2412,74.0
2546.2593,87.0
2547.2778,72.0
2548.2966,77.0
2549.316,77.0
2550.3357,66.0
2551.3557,69.0
2552.3762,92.0
2553.3972,71.0
2554.4185,72.0
2555.4402,88.0
2556.4624,71.0
2557.485,60.0
2558.508,71.0
2559.5315,64.0
2560.5554,58.0
2561.5796,62.0
2562.6042,73.0
2563.6294,80.0
2564.6548,69.0
2565.6807,76.0
2566.707,89.0
2567.7336,99.0
2568.7607,80.0
2569.7883,70.0
2570.8162,78.0
2571.8445,63.0
2572.8733,89.0
2573.9023,76.0
2574.932,68.0
2575.962,71.0
2576.9922,92.0
2578.023,67.0
2579.0542,71.0
2580.086,68.0
2581.118,77.0
2582.1504,71.0
2583.1833,72.0
2584.2166,71.0
2585.2502,68.0
2586.2844,74.0
2587.3188,87.0
2588.3538,91.0
2589.3892,91.0
2590.4248,72.0
2591.461,77.0
2592.4976,131.0
2593.5347,96.0
2594.572,78.0
2595.6099,89.0
2596.6482,78.0
2597.6868,65.0
2598.7258,71.0
2599.7654,68.0
2600.8052,77.0
2601.8455,80.0
2602.8862,86.0
2603.9275,61.0
2604.969,74.0
2606.011,72.0
2607.0535,75.0
2608.0962,71.0
2609.1394,96.0
2610.183,92.0
2611.2273,93.0
2612.2717,84.0
2613.3167,85.0
2614.362,84.0
2615.4077,93.0
2616.4539,85.0
2617.5005,78.0
2618.5476,86.0
2619.595,95.0
2620.6428,81.0
2621.6912,75.0
2622.7397,83.0
2623.7888,72.0
2624.8384,69.0
2625.8884,85.0
2626.9387,86.0
2627.9895,63.0
2629.0408,101.0
2630.0923,82.0
2631.1443,76.0
2632.1968,71.0
2633.2498,86.0
2634.303,77.0
2635.3567,71.0
2636.411,93.0
2637.4653,75.0
2638.5203,72.0
2639.5757,88.0
2640.6316,96.0
2641.6877,79.0
2642.7444,86.0
2643.8015,74.0
2644.8591,58.0
2645.917,95.0
2646.9753,80.0
2648.0342,84.0
2649.0935,93.0
2650.153,87.0
2651.2131,64.0
2652.2737,68.0
2653.3345,71.0
2654.3958,76.0
2655.4575,72.0
2656.5198,75.0
2657.5823,58.0
2658.6453,73.0
2659.7087,61.0
2660.7727,97.0
2661.837,85.0
2662.9016,78.0
2663.9668,85.0
2665.0325,73.0
2666.0984,112.0
2667.1648,102.0
2668.2317,98.0
2669.299,99.0
2670.3667,88.0
2671.4348,80.0
2672.5034,85.0
2673.5725,74.0
2674.6418,91.0
2675.7117,91.0
2676.782,79.0
2677.8528,86.0
2678.9238,91.0
2679.9954,91.0
2681.0674,89.0
2682.14,88.0
2683.2126,86.0
2684.286,80.0
2685.3596,68.0
2686.4338,97.0
2687.5083,74.0
2688.5833,74.0
2689.6587,69.0
2690.7346,77.0
2691.8108,89.0
2692.8875,64.0
2693.9646,89.0
2695.0422,72.0
2696.1204,75.0
2697.1987,92.0
2698.2776,75.0
2699.357,80.0
2700.4368,115.0
2701.5168,93.0
2702.5974,111.0
2703.6785,83.0
2704.76,82.0
2705.8418,72.0
2706.924,85.0
2708.0068,95.0
2709.09,75.0
2710.1738,88.0
2711.2578,82.0
2712.3423,88.0
2713.4272,90.0
2714.5127,81.0
2715.5984,85.0
2716.6846,81.0
2717.7712,74.0
2718.8584,73.0
2719.946,86.0
2721.034,93.0
2722.1223,91.0
2723.2112,103.0
2724.3005,105.0
2725.3901,78.0
2726.4802,91.0
2727.5708,71.0
2728.6619,94.0
2729.7534,87.0
2730.8452,97.0
2731.9375,90.0
2733.0303,87.0
2734.1235,93.0
2735.2173,127.0
2736.3113,162.0
2737.4058,92.0
2738.5007,73.0
2739.5962,81.0
2740.6921,66.0
2741.7883,89.0
2742.885,80.0
2743.9822,85.0
2745.0798,93.0
2746.178,83.0
2747.2764,77.0
2748.3752,77.0
2749.4746,99.0
2750.5745,89.0
2751.6748,71.0
2752.7754,68.0
2753.8765,71.0
2754.978,80.0
2756.08,62.0
2757.1826,63.0
2758.2854,62.0
2759.3887,93.0
2760.4924,90.0
2761.5967,91.0
2762.7014,78.0
2763.8064,89.0
2764.9119,74.0
2766.0178,79.0
2767.1243,74.0
2768.2312,85.0
2769.3384,76.0
2770.446,83.0
2771.5542,87.0
2772.6628,66.0
2773.772,70.0
2774.8816,92.0
2775.9915,78.0
2777.1018,72.0
2778.2126,96.0
2779.324,83.0
2780.4358,91.0
2781.5479,79.0
2782.6604,73.0
2783.7734,70.0
2784.887,90.0
2786.001,89.0
2787.1155,60.0
2788.2302,83.0
2789.3455,77.0
2790.4612,74.0
2791.5774,91.0
2792.694,114.0
2793.8113,119.0
2794.9287,148.0
2796.0466,140.0
2797.165,137.0
2798.284,161.0
2799.4033,128.0
2800.5232,119.0
2801.6433,95.0
2802.764,111.0
2803.885,110.0
2805.0066,99.0
2806.1287,120.0
2807.2512,141.0
2808.374,134.0
2809.4973,125.0
2810.621,122.0
2811.7454,114.0
2812.87,125.0
2813.9954,135.0
2815.1208,130.0
2816.2468,110.0
2817.3733,117.0
2818.5002,122.0
2819.6277,101.0
2820.7556,105.0
2821.884,128.0
2823.0127,119.0
2824.1418,108.0
2825.2715,97.0
2826.4016,89.0
2827.5322,120.0
2828.6633,129.0
2829.7947,127.0
2830.9265,115.0
2832.0588,103.0
2833.1917,131.0
2834.325,115.0
2835.4587,124.0
2836.593,104.0
2837.7275,105.0
2838.8625,99.0
2839.998,116.0
2841.134,115.0
2842.2705,108.0
2843.4075,108.0
2844.545,122.0
2845.6829,127.0
2846.821,126.0
2847.9597,116.0
2849.0989,118.0
2850.2385,120.0
2851.3787,142.0
2852.5193,111.0
2853.6604,110.0
2854.8018,118.0
2855.9436,112.0
2857.086,127.0
2858.2288,146.0
2859.372,139.0
2860.5159,101.0
2861.6602,118.0
2862.805,132.0
2863.95,138.0
2865.0955,134.0
2866.2415,133.0
2867.388,144.0
2868.535,126.0
2869.6824,106.0
2870.8303,116.0
2871.9788,132.0
2873.1274,123.0
2874.2766,125.0
2875.4263,116.0
2876.5764,129.0
2877.727,135.0
2878.8782,108.0
2880.0298,126.0
2881.182,122.0
2882.3345,128.0
2883.4873,117.0
2884.6406,111.0
2885.7944,128.0
2886.9487,121.0
2888.1035,125.0
2889.2588,143.0
2890.4146,127.0
2891.5708,157.0
2892.7275,130.0
2893.8845,127.0
2895.042,124.0
2896.2,125.0
2897.3584,137.0
2898.5173,102.0
2899.6768,118.0
2900.8367,115.0
2901.997,122.0
2903.158,108.0
2904.3193,143.0
2905.481,181.0
2906.643,147.0
2907.8057,157.0
2908.9688,164.0
2910.1323,148.0
2911.2964,158.0
2912.461,139.0
2913.626,135.0
2914.7915,102.0
2915.9575,103.0
2917.124,137.0
2918.2908,114.0
2919.458,154.0
2920.6257,126.0
2921.794,200.0
2922.9626,202.0
2924.1318,210.0
2925.3015,192.0
2926.4717,176.0
2927.6423,143.0
2928.8135,120.0
2929.985,128.0
2931.157,128.0
2932.3293,121.0
2933.5022,143.0
2934.6755,126.0
2935.8494,127.0
2937.0237,114.0
2938.1985,128.0
2939.3738,133.0
2940.5496,138.0
2941.7258,122.0
2942.9026,154.0
2944.0798,149.0
2945.2576,164.0
2946.4358,158.0
2947.6143,139.0
2948.7932,148.0
2949.9727,134.0
2951.1526,137.0
2952.333,138.0
2953.514,118.0
2954.6953,112.0
2955.8772,126.0
2957.0596,127.0
2958.2424,116.0
2959.4258,146.0
2960.6096,123.0
2961.794,115.0
2962.9788,104.0
2964.164,106.0
2965.3496,107.0
2966.5356,123.0
2967.7222,87.0
2968.9092,108.0
2970.0967,97.0
2971.2847,118.0
2972.4731,142.0
2973.662,133.0
2974.8516,135.0
2976.0415,123.0
2977.232,148.0
2978.4229,140.0
2979.6143,127.0
2980.8062,130.0
2981.9985,122.0
2983.1914,129.0
2984.3848,124.0
2985.5786,133.0
2986.773,123.0
2987.9678,112.0
2989.1628,130.0
2990.3584,131.0
2991.5544,129.0
2992.751,131.0
2993.948,128.0
2995.1455,117.0
2996.3435,135.0
2997.542,144.0
2998.741,98.0
2999.9404,114.0
3001.1404,127.0
3002.3408,125.0
3003.5417,148.0
3004.7432,145.0
3005.945,136.0
3007.1475,135.0
3008.3503,140.0
3009.5537,162.0
3010.7576,128.0
3011.962,115.0
3013.1667,139.0
3014.372,112.0
3015.578,120.0
3016.7842,118.0
3017.991,109.0
3019.1982,118.0
3020.406,170.0
3021.6143,165.0
3022.823,147.0
3024.0322,142.0
3025.242,128.0
3026.4521,141.0
3027.6628,115.0
3028.874,114.0
3030.0857,123.0
3031.2976,122.0
3032.51,127.0
3033.723,112.0
3034.9363,96.0
3036.1501,128.0
3037.3645,113.0
3038.5793,136.0
3039.7947,132.0
3041.0105,109.0
3042.2268,110.0
3043.4436,146.0
3044.661,130.0
3045.8787,111.0
3047.097,99.0
3048.3157,133.0
3049.535,136.0
3050.7546,114.0
3051.9749,127.0
3053.1956,121.0
3054.4167,136.0
3055.6384,131.0
3056.8606,123.0
3058.0833,131.0
3059.3064,124.0
3060.53,128.0
3061.7542,128.0
3062.9788,103.0
3064.2039,111.0
3065.4294,134.0
3066.6555,112.0
3067.882,128.0
3069.1091,114.0
3070.3367,146.0
3071.5647,102.0
3072.7932,135.0
3074.0222,117.0
3075.2517,133.0
3076.4817,124.0
3077.7124,127.0
3078.9436,116.0
3080.1753,151.0
3081.4075,142.0
3082.6401,148.0
3083.8733,112.0
3085.107,101.0
3086.341,115.0
3087.5757,143.0
3088.8108,123.0
3090.0464,121.0
3091.2825,127.0
3092.519,116.0
3093.756,98.0
3094.9937,124.0
3096.2317,118.0
3097.4702,137.0
3098.7092,123.0
3099.9487,109.0
3101.1887,121.0
3102.4292,122.0
3103.6702,126.0
3104.9116,116.0
3106.1536,100.0
3107.396,132.0
3108.639,124.0
3109.8823,103.0
3111.1262,111.0
3112.3706,129.0
3113.6155,146.0
3114.8608,115.0
3116.1067,121.0
3117.353,140.0
3118.5999,152.0
3119.8474,126.0
3121.0955,109.0
3122.344,123.0
3123.593,124.0
3124.8425,137.0
3126.0925,124.0
3127.343,132.0
3128.594,146.0
3129.8455,145.0
3131.0974,106.0
3132.3499,112.0
3133.6028,122.0
3134.8562,128.0
3136.11,124.0
3137.3645,112.0
3138.6194,143.0
3139.8748,133.0
3141.1306,134.0
3142.387,121.0
3143.6438,126.0
3144.9014,137.0
3146.1594,148.0
3147.418,126.0
3148.677,144.0
3149.9365,114.0
3151.1965,108.0
3152.457,135.0
3153.718,134.0
3154.9795,117.0
3156.2415,107.0
3157.504,151.0
3158.7668,141.0
3160.0303,122.0
3161.2942,125.0
3162.5586,131.0
3163.8237,93.0
3165.0894,103.0
3166.3555,147.0
3167.622,123.0
3168.8892,124.0
3170.1567,126.0
3171.4248,139.0
3172.6934,141.0
3173.9624,109.0
3175.232,112.0
3176.502,125.0
3177.7725,116.0
3179.0435,113.0
3180.3152,142.0
3181.5874,150.0
3182.86,117.0
3184.1333,125.0
3185.407,135.0
3186.6812,147.0
3187.9558,143.0
3189.231,130.0
3190.5066,148.0
3191.7827,134.0
3193.0593,128.0
3194.3367,132.0
3195.6145,138.0
3196.8928,137.0
3198.1716,142.0
3199.451,149.0
3200.7307,131.0
3202.011,115.0
3203.2917,126.0
3204.573,132.0
3205.8547,135.0
3207.137,129.0
3208.42,116.0
3209.7034,161.0
3210.9873,121.0
3212.2717,121.0
3213.5566,131.0
3214.842,126.0
3216.128,119.0
3217.4143,137.0
3218.7012,116.0
3219.9888,128.0
3221.2769,130.0
3222.5654,150.0
3223.8545,107.0
3225.144,136.0
3226.434,143.0
3227.7246,137.0
3229.0156,143.0
3230.3071,137.0
3231.5994,137.0
3232.892,135.0
3234.1853,125.0
3235.479,143.0
3236.7732,132.0
3238.0679,107.0
3239.363,135.0
3240.6587,136.0
3241.9548,99.0
3243.2517,149.0
3244.549,124.0
3245.847,132.0
3247.1453,117.0
3248.444,130.0
3249.7434,127.0
3251.0432,118.0
3252.3438,114.0
3253.6448,133.0
3254.9463,131.0
3256.2483,132.0
3257.5508,142.0
3258.8538,134.0
3260.1572,114.0
3261.4612,138.0
3262.7659,107.0
3264.071,113.0
3265.3767,116.0
3266.6829,139.0
3267.9895,118.0
3269.2966,145.0
3270.6042,149.0
3271.9126,146.0
3273.2214,144.0
3274.5308,126.0
3275.8406,127.0
3277.151,139.0
3278.4617,115.0
3279.773,132.0
3281.085,124.0
3282.3975,133.0
3283.7104,139.0
3285.024,127.0
3286.338,127.0
3287.6523,133.0
3288.9673,164.0
3290.283,126.0
3291.599,131.0
3292.9158,121.0
3294.233,147.0
3295.5505,125.0
3296.8687,118.0
3298.1875,118.0
3299.5068,138.0
3300.8267,138.0
3302.147,135.0
3303.4678,133.0
3304.789,104.0
3306.111,135.0
3307.4336,147.0
3308.7566,130.0
3310.08,105.0
3311.404,138.0
3312.7285,111.0
3314.0537,134.0
3315.3794,137.0
3316.7056,135.0
3318.0322,142.0
3319.3594,139.0
3320.687,150.0
3322.0154,141.0
3323.3442,141.0
3324.6736,127.0
3326.0034,129.0
3327.3337,145.0
3328.6648,137.0
3329.9963,134.0
3331.3284,139.0
3332.661,142.0
3333.994,105.0
3335.3274,121.0
3336.6616,128.0
3337.9963,132.0
3339.3315,145.0
3340.6672,152.0
3342.0034,143.0
3343.3403,131.0
3344.6777,137.0
3346.0156,139.0
3347.354,130.0
3348.6929,159.0
3350.0322,178.0
3351.3723,177.0
3352.713,146.0
3354.054,145.0
3355.3955,103.0
3356.7375,150.0
3358.0803,130.0
3359.4236,159.0
3360.7673,122.0
3362.1116,120.0
3363.4563,125.0
3364.8018,112.0
3366.1477,142.0
3367.4941,139.0
3368.841,148.0
3370.1887,149.0
3371.5369,148.0
3372.8855,158.0
3374.2346,116.0
3375.5842,143.0
3376.9346,108.0
3378.2854,128.0
3379.6367,171.0
3380.9885,132.0
3382.3408,130.0
3383.6938,157.0
3385.0474,138.0
3386.4014,187.0
3387.7559,150.0
3389.1108,122.0
3390.4666,138.0
3391.8228,135.0
3393.1794,127.0
3394.5366,134.0
3395.8945,128.0
3397.253,153.0
3398.6118,143.0
3399.9712,140.0
3401.3313,154.0
3402.692,168.0
3404.053,152.0
3405.4146,135.0
3406.7766,134.0
3408.1394,143.0
3409.5027,147.0
3410.8665,124.0
3412.2307,176.0
3413.5957,156.0
3414.9612,150.0
3416.3271,137.0
3417.6936,139.0
3419.0608,155.0
3420.4285,175.0
3421.7966,158.0
3423.1653,145.0
3424.5347,123.0
3425.9045,124.0
3427.275,133.0
3428.6458,147.0
3430.017,164.0
3431.3892,156.0
3432.7617,152.0
3434.1348,135.0
3435.5083,138.0
3436.8826,133.0
3438.2573,150.0
3439.6326,133.0
3441.0083,122.0
3442.3848,135.0
3443.7617,149.0
3445.1392,129.0
3446.5173,146.0
3447.896,133.0
3449.2751,121.0
3450.6548,141.0
3452.0352,118.0
3453.416,162.0
3454.7974,134.0
3456.1792,140.0
3457.5618,135.0
3458.9448,124.0
3460.3284,118.0
3461.7124,152.0
3463.0972,114.0
3464.4824,134.0
3465.8682,162.0
3467.2544,130.0
3468.6414,134.0
3470.0288,126.0
3471.4167,143.0
3472.8054,157.0
3474.1946,157.0
3475.5842,175.0
3476.9744,136.0
3478.3652,136.0
3479.7566,137.0
3481.1484,124.0
3482.541,143.0
3483.934,131.0
3485.3276,137.0
3486.7217,153.0
3488.1165,139.0
3489.5117,165.0
3490.9075,157.0
3492.304,157.0
3493.701,154.0
3495.0984,130.0
3496.4963,142.0
3497.895,125.0
3499.2942,143.0
3500.6938,171.0
3502.0942,131.0
3503.495,136.0
3504.8965,139.0
3506.2983,145.0
3507.701,167.0
3509.104,159.0
3510.5076,153.0
3511.9119,147.0
3513.3167,151.0
3514.722,177.0
3516.128,149.0
3517.5344,123.0
3518.9414,132.0
3520.3489,147.0
3521.757,169.0
3523.1658,156.0
3524.575,169.0
3525.9849,166.0
3527.3953,158.0
3528.8062,143.0
3530.2178,224.0
3531.63,216.0
3533.0425,188.0
3534.4558,153.0
3535.8696,138.0
3537.284,132.0
3538.6987,145.0
3540.1143,126.0
3541.5303,158.0
3542.9468,176.0
3544.364,146.0
3545.7817,145.0
3547.2,145.0
3548.619,159.0
3550.0383,138.0
3551.4583,128.0
3552.879,133.0
3554.3,132.0
3555.7217,144.0
3557.144,114.0
3558.567,159.0
3559.9902,145.0
3561.4143,166.0
3562.8389,160.0
3564.264,171.0
3565.6897,187.0
3567.116,165.0
3568.5427,154.0
3569.9702,159.0
3571.3982,156.0
3572.8267,157.0
3574.2559,172.0
3575.6855,166.0
3577.1157,144.0
3578.5466,185.0
3579.978,171.0
3581.41,191.0
3582.8425,155.0
3584.2756,184.0
3585.7092,181.0
3587.1436,165.0
3588.5784,183.0
3590.014,179.0
3591.45,190.0
3592.8865,178.0
3594.3237,192.0
3595.7615,222.0
3597.1997,178.0
3598.6387,200.0
3600.0781,217.0
3601.518,191.0
3602.9587,169.0
3604.4,173.0
3605.8416,149.0
3607.284,236.0
3608.7268,256.0
3610.1704,197.0
3611.6145,157.0
3613.059,178.0
3614.5044,174.0
3615.9502,256.0
3617.3965,322.0
3618.8435,230.0
3620.291,188.0
3621.739,177.0
3623.1877,158.0
3624.637,182.0
3626.087,166.0
3627.5374,162.0
3628.9883,203.0
3630.44,172.0
3631.892,190.0
3633.3447,162.0
3634.798,163.0
3636.252,158.0
3637.7065,180.0
3639.1616,169.0
3640.6172,162.0
3642.0735,179.0
3643.5303,196.0
3644.9878,187.0
3646.4458,176.0
3647.9043,179.0
3649.3635,165.0
3650.8232,164.0
3652.2837,162.0
3653.7446,170.0
3655.206,165.0
3656.6682,187.0
3658.1309,201.0
3659.594,169.0
3661.0579,171.0
3662.5222,171.0
3663.9873,185.0
3665.453,195.0
3666.919,203.0
3668.3857,164.0
3669.853,160.0
3671.321,160.0
3672.7896,178.0
3674.2585,159.0
3675.7283,177.0
3677.1985,223.0
3678.6694,224.0
3680.1409,188.0
3681.613,179.0
3683.0857,173.0
3684.5588,170.0
3686.0327,162.0
3687.507,173.0
3688.9822,167.0
3690.4578,186.0
3691.9338,167.0
3693.4106,155.0
3694.888,187.0
3696.366,172.0
3697.8445,193.0
3699.3237,157.0
3700.8035,193.0
3702.2837,141.0
3703.7646,172.0
3705.246,157.0
3706.7283,188.0
3708.211,208.0
3709.6943,276.0
3711.1782,249.0
3712.6626,236.0
3714.1477,171.0
3715.6333,175.0
3717.1196,168.0
3718.6064,212.0
3720.094,201.0
3721.582,181.0
3723.0706,185.0
3724.5598,199.0
3726.0496,172.0
3727.54,199.0
3729.031,191.0
3730.5227,187.0
3732.015,208.0
3733.5078,291.0
3735.0012,311.0
3736.495,276.0
3737.9897,218.0
3739.4849,198.0
3740.9807,205.0
3742.477,193.0
3743.974,222.0
3745.4717,214.0
3746.97,181.0
3748.4688,185.0
3749.968,417.0
3751.468,818.0
3752.9685,911.0
3754.4697,513.0
3755.9714,386.0
3757.4739,260.0
3758.9768,229.0
3760.4805,187.0
3761.9846,210.0
3763.4895,197.0
3764.9949,223.0
3766.501,209.0
3768.0076,262.0
3769.515,211.0
3771.0227,222.0
3772.531,207.0
3774.04,223.0
3775.5496,250.0
3777.0598,262.0
3778.5706,244.0
3780.082,212.0
3781.594,239.0
3783.1067,292.0
3784.6199,285.0
3786.1338,286.0
3787.6482,218.0
3789.1633,200.0
3790.679,217.0
3792.1953,198.0
3793.7122,215.0
3795.2297,198.0
3796.7478,218.0
3798.2666,234.0
3799.786,204.0
3801.306,223.0
3802.8264,192.0
3804.3477,196.0
3805.8694,183.0
3807.3918,225.0
3808.9148,217.0
3810.4385,202.0
3811.9626,195.0
3813.4875,211.0
3815.013,238.0
3816.539,274.0
3818.0657,212.0
3819.593,188.0
3821.1208,185.0
3822.6494,205.0
3824.1785,183.0
3825.7083,217.0
3827.2385,180.0
3828.7695,218.0
3830.301,236.0
3831.8333,226.0
3833.366,214.0
3834.8994,201.0
3836.4333,201.0
3837.968,183.0
3839.5032,204.0
3841.039,220.0
3842.5754,207.0
3844.1125,188.0
3845.6501,204.0
3847.1885,249.0
3848.7273,302.0
3850.2668,292.0
3851.807,243.0
3853.3477,229.0
3854.889,218.0
3856.431,212.0
3857.9734,196.0
3859.5166,188.0
3861.0603,192.0
3862.6047,202.0
3864.1497,240.0
3865.6953,214.0
3867.2417,201.0
3868.7886,196.0
3870.3362,184.0
3871.8843,195.0
3873.433,210.0
3874.9824,221.0
3876.5325,202.0
3878.083,227.0
3879.6343,205.0
3881.186,216.0
3882.7385,237.0
3884.2915,268.0
3885.8452,238.0
3887.3997,215.0
3888.9546,221.0
3890.5103,186.0
3892.0664,203.0
3893.6233,185.0
3895.1807,232.0
3896.7388,241.0
3898.2974,227.0
3899.8567,249.0
3901.4167,252.0
3902.9773,246.0
3904.5386,225.0
3906.1003,199.0
3907.6628,192.0
3909.2258,206.0
3910.7896,185.0
3912.3538,199.0
3913.9187,230.0
3915.4844,216.0
3917.0505,221.0
3918.6174,249.0
3920.1848,212.0
3921.753,196.0
3923.3215,191.0
3924.8909,202.0
3926.461,182.0
3928.0315,171.0
3929.6028,202.0
3931.1746,188.0
3932.747,233.0
3934.32,194.0
3935.8938,191.0
3937.4683,187.0
3939.0432,202.0
3940.619,228.0
3942.195,229.0
3943.772,190.0
3945.3494,205.0
3946.9275,182.0
3948.5063,186.0
3950.0857,234.0
3951.6658,228.0
3953.2463,191.0
3954.8276,205.0
3956.4097,171.0
3957.9922,185.0
3959.5754,204.0
3961.1592,199.0
3962.7437,190.0
3964.3289,168.0
3965.9146,195.0
3967.501,206.0
3969.088,191.0
3970.6755,151.0
3972.264,204.0
3973.8528,200.0
3975.4424,200.0
3977.0325,181.0
3978.6233,196.0
3980.2148,185.0
3981.807,203.0
3983.3997,179.0
3984.993,187.0
3986.587,192.0
3988.1816,173.0
3989.7769,193.0
3991.3728,190.0
3992.9692,217.0
3994.5664,202.0
3996.1643,197.0
3997.7627,205.0
3999.3618,190.0
4000.9617,222.0
4002.562,220.0
4004.163,229.0
4005.7646,214.0
4007.367,193.0
4008.97,204.0
4010.5735,221.0
4012.1777,238.0
4013.7827,248.0
4015.3882,204.0
4016.9944,201.0
4018.601,216.0
4020.2085,227.0
4021.8167,237.0
4023.4253,225.0
4025.0347,206.0
4026.6448,217.0
4028.2554,275.0
4029.8667,291.0
4031.4788,252.0
4033.0913,236.0
4034.7046,250.0
4036.3184,261.0
4037.9329,305.0
4039.548,280.0
4041.1638,311.0
4042.7803,340.0
4044.3975,331.0
4046.0151,302.0
4047.6335,259.0
4049.2527,294.0
4050.8723,381.0
4052.4927,414.0
4054.1138,385.0
4055.7354,340.0
4057.3577,290.0
4058.9807,462.0
4060.6042,595.0
4062.2285,421.0
4063.8535,382.0
4065.479,384.0
4067.1052,374.0
4068.7322,424.0
4070.3596,482.0
4071.9878,533.0
4073.6167,574.0
4075.246,431.0
4076.8762,456.0
4078.507,427.0
4080.1384,497.0
4081.7705,633.0
4083.4033,575.0
4085.0366,714.0
4086.6707,834.0
4088.3054,584.0
4089.9407,449.0
4091.5767,381.0
4093.2134,1084.0
4094.8506,1642.0
4096.489,955.0
4098.1274,505.0
4099.7666,382.0
4101.4067,1199.0
4103.0474,3228.0
4104.6885,2504.0
4106.3306,975.0
4107.973,477.0
4109.616,423.0
4111.2603,328.0
4112.905,447.0
4114.55,574.0
4116.196,485.0
4117.8423,286.0
4119.4893,270.0
4121.137,292.0
4122.7856,298.0
4124.4346,276.0
4126.0845,254.0
4127.735,244.0
4129.3857,213.0
4131.0376,235.0
4132.69,271.0
4134.343,239.0
4135.9966,261.0
4137.651,241.0
4139.306,228.0
4140.962,217.0
4142.618,223.0
4144.2754,264.0
4145.933,244.0
4147.5913,236.0
4149.2505,193.0
4150.91,225.0
4152.5703,250.0
4154.2314,273.0
4155.893,206.0
4157.5557,247.0
4159.2188,224.0
4160.8823,266.0
4162.547,239.0
4164.212,217.0
4165.8774,261.0
4167.544,272.0
4169.211,211.0
4170.8784,235.0
4172.547,198.0
4174.216,256.0
4175.8857,272.0
4177.556,289.0
4179.227,253.0
4180.899,289.0
4182.5713,229.0
4184.244,231.0
4185.918,226.0
4187.5923,248.0
4189.267,294.0
4190.943,219.0
4192.619,230.0
4194.2964,231.0
4195.974,266.0
4197.6523,358.0
4199.3315,302.0
4201.011,255.0
4202.6914,219.0
4204.3726,264.0
4206.054,271.0
4207.737,258.0
4209.42,205.0
4211.1035,218.0
4212.788,233.0
4214.473,220.0
4216.1587,222.0
4217.845,252.0
4219.532,226.0
4221.22,219.0
4222.9087,237.0
4224.5977,221.0
4226.2876,229.0
4227.978,241.0
4229.6694,258.0
4231.3613,256.0
4233.0537,236.0
4234.747,257.0
4236.441,207.0
4238.1353,224.0
4239.8306,275.0
4241.5264,239.0
4243.223,246.0
4244.9204,280.0
4246.618,252.0
4248.317,236.0
4250.016,259.0
4251.7163,274.0
4253.417,258.0
4255.118,279.0
4256.8203,280.0
4258.523,260.0
4260.2266,285.0
4261.9307,276.0
4263.6353,312.0
4265.341,293.0
4267.047,293.0
4268.754,370.0
4270.4614,345.0
4272.1694,273.0
4273.8784,285.0
4275.588,371.0
4277.2983,474.0
4279.0093,404.0
4280.7207,277.0
4282.433,283.0
4284.146,490.0
4285.86,775.0
4287.574,548.0
4289.289,391.0
4291.005,307.0
4292.721,248.0
4294.4385,245.0
4296.1562,287.0
4297.8745,369.0
4299.5938,308.0
4301.3135,281.0
4303.034,250.0
4304.7554,282.0
4306.477,278.0
4308.1997,247.0
4309.923,213.0
4311.647,233.0
4313.3716,237.0
4315.097,232.0
4316.823,205.0
4318.55,213.0
4320.2773,227.0
4322.0054,243.0
4323.7344,231.0
4325.464,194.0
4327.194,217.0
4328.925,240.0
4330.6562,235.0
4332.3887,196.0
4334.1216,216.0
4335.8555,229.0
4337.59,210.0
4339.3247,223.0
4341.0605,246.0
4342.797,220.0
4344.534,210.0
4346.272,200.0
4348.0103,211.0
4349.7495,234.0
4351.4893,233.0
4353.23,186.0
4354.971,216.0
4356.7134,247.0
4358.456,244.0
4360.199,233.0
4361.9434,250.0
4363.688,250.0
4365.4336,222.0
4367.1797,239.0
4368.927,220.0
4370.6743,249.0
4372.4224,210.0
4374.1714,241.0
4375.921,249.0
4377.6714,240.0
4379.4224,225.0
4381.1743,205.0
4382.927,249.0
4384.6797,260.0
4386.4336,251.0
4388.188,245.0
4389.9434,282.0
4391.699,272.0
4393.456,275.0
4395.2134,233.0
4396.9717,266.0
4398.7305,284.0
4400.4897,315.0
4402.25,263.0
4404.0107,265.0
4405.7725,277.0
4407.5347,333.0
4409.298,387.0
4411.0615,299.0
4412.826,275.0
4414.5913,250.0
4416.357,368.0
4418.1235,405.0
4419.8906,304.0
4421.6587,302.0
4423.4272,268.0
4425.197,290.0
4426.967,308.0
4428.738,313.0
4430.5093,340.0
4432.2812,299.0
4434.054,324.0
4435.8276,286.0
4437.602,346.0
4439.377,402.0
4441.153,372.0
4442.929,314.0
4444.7065,314.0
4446.4844,285.0
4448.263,342.0
4450.0425,333.0
4451.8223,359.0
4453.603,326.0
4455.3843,319.0
4457.1665,310.0
4458.949,371.0
4460.733,387.0
4462.517,331.0
4464.3022,332.0
4466.088,394.0
4467.8745,458.0
4469.6616,434.0
4471.4497,364.0
4473.2383,405.0
4475.0273,354.0
4476.8174,338.0
4478.608,310.0
4480.3994,399.0
4482.1914,390.0
4483.9844,390.0
4485.778,312.0
4487.5723,319.0
4489.367,392.0
4491.163,429.0
4492.9595,343.0
4494.757,367.0
4496.5547,367.0
4498.3535,358.0
4500.153,434.0
4501.953,353.0
4503.754,354.0
4505.555,406.0
4507.3574,366.0
4509.16,381.0
4510.964,354.0
4512.768,364.0
4514.573,417.0
4516.379,387.0
4518.1855,320.0
4519.9927,331.0
4521.801,439.0
4523.6094,411.0
4525.419,354.0
4527.229,266.0
4529.04,380.0
4530.8516,588.0
4532.664,495.0
4534.477,338.0
4536.291,295.0
4538.1055,355.0
4539.921,392.0
4541.737,324.0
4543.5537,291.0
4545.371,313.0
4547.1895,320.0
4549.0083,325.0
4550.828,304.0
4552.6484,253.0
4554.4697,290.0
4556.2915,265.0
4558.1143,239.0
4559.9375,294.0
4561.7617,281.0
4563.5864,277.0
4565.4116,260.0
4567.238,273.0
4569.0645,277.0
4570.892,256.0
4572.72,292.0
4574.5493,242.0
4576.379,287.0
4578.2095,243.0
4580.0405,243.0
4581.8726,272.0
4583.705,261.0
4585.5386,235.0
4587.3726,243.0
4589.2075,238.0
4591.043,281.0
4592.8794,314.0
4594.7163,303.0
4596.554,219.0
4598.3926,260.0
4600.232,311.0
4602.0723,296.0
4603.913,300.0
4605.755,268.0
4607.597,262.0
4609.4404,245.0
4611.284,284.0
4613.129,278.0
4614.974,282.0
4616.8203,258.0
4618.667,274.0
4620.5146,296.0
4622.363,305.0
4624.212,280.0
4626.0615,285.0
4627.912,286.0
4629.763,250.0
4631.615,269.0
4633.468,240.0
4635.3213,284.0
4637.1753,283.0
4639.0303,220.0
4640.8857,255.0
4642.742,261.0
4644.599,268.0
4646.457,234.0
4648.3154,280.0
4650.175,230.0
4652.0347,262.0
4653.8955,239.0
4655.757,259.0
4657.619,214.0
4659.4824,240.0
4661.346,233.0
4663.211,284.0
4665.076,261.0
4666.9424,256.0
4668.809,302.0
4670.677,284.0
4672.545,265.0
4674.414,245.0
4676.2837,241.0
4678.1543,256.0
4680.0254,290.0
4681.8975,261.0
4683.77,253.0
4685.6436,244.0
4687.5176,282.0
4689.3926,297.0
4691.2686,253.0
4693.145,272.0
4695.0225,312.0
4696.9004,286.0
4698.7793,281.0
4700.6587,278.0
4702.539,243.0
4704.42,251.0
4706.302,238.0
4708.184,287.0
4710.0674,295.0
4711.951,297.0
4713.836,318.0
4715.7217,265.0
4717.608,280.0
4719.495,233.0
4721.383,255.0
4723.2715,270.0
4725.1606,267.0
4727.051,261.0
4728.9414,298.0
4730.833,282.0
4732.725,254.0
4734.618,275.0
4736.512,259.0
4738.4067,240.0
4740.3022,226.0
4742.198,231.0
4744.095,265.0
4745.9927,247.0
4747.891,266.0
4749.79,243.0
4751.69,246.0
4753.591,247.0
4755.492,248.0
4757.3945,218.0
4759.2974,241.0
4761.201,244.0
4763.1055,230.0
4765.0107,251.0
4766.9165,224.0
4768.823,206.0
4770.731,207.0
4772.639,233.0
4774.5483,228.0
4776.458,213.0
4778.3687,228.0
4780.28,207.0
4782.192,238.0
4784.105,213.0
4786.0186,206.0
4787.933,210.0
4789.848,224.0
4791.764,220.0
4793.6807,221.0
4795.598,231.0
4797.5166,232.0
4799.4355,209.0
4801.3555,209.0
4803.276,223.0
4805.1973,212.0
4807.119,212.0
4809.042,225.0
4810.966,228.0
4812.89,194.0
4814.8154,194.0
4816.741,192.0
4818.668,192.0
4820.595,193.0
4822.5234,203.0
4824.4526,204.0
4826.3823,191.0
4828.313,201.0
4830.244,201.0
4832.1763,224.0
4834.1094,200.0
4836.043,202.0
4837.9775,210.0
4839.9126,220.0
4841.8486,194.0
4843.785,194.0
4845.7227,193.0
4847.661,195.0
4849.6,204.0
4851.54,177.0
4853.4805,180.0
4855.422,187.0
4857.3643,200.0
4859.307,180.0
4861.251,183.0
4863.1953,187.0
4865.1406,202.0
4867.087,239.0
4869.0337,200.0
4870.9814,215.0
4872.9297,197.0
4874.879,197.0
4876.829,185.0
4878.78,186.0
4880.7314,193.0
4882.6836,193.0
4884.6367,193.0
4886.5903,192.0
4888.545,197.0
4890.5005,175.0
4892.4565,211.0
4894.4136,202.0
4896.3716,209.0
4898.33,187.0
4900.2896,205.0
4902.2495,190.0
4904.2104,204.0
4906.1724,189.0
4908.135,170.0
4910.098,209.0
4912.062,167.0
4914.027,172.0
4915.9927,197.0
4917.959,210.0
4919.9263,210.0
4921.894,201.0
4923.863,212.0
4925.8325,184.0
4927.8027,217.0
4929.774,194.0
4931.7456,204.0
4933.7183,212.0
4935.692,193.0
4937.666,213.0
4939.641,206.0
4941.617,181.0
4943.5938,192.0
4945.5713,198.0
4947.5493,216.0
4949.5283,217.0
4951.5083,211.0
4953.489,200.0
4955.47,226.0
4957.4526,213.0
4959.4355,219.0
4961.4194,215.0
4963.404,208.0
4965.389,203.0
4967.3755,207.0
4969.3623,208.0
4971.35,220.0
4973.339,221.0
4975.328,222.0
4977.3184,254.0
4979.309,214.0
4981.301,224.0
4983.2935,221.0
4985.2866,181.0
4987.281,236.0
4989.276,195.0
4991.2715,233.0
4993.268,203.0
4995.265,211.0
4997.263,210.0
4999.262,235.0
5001.2617,210.0
5003.262,216.0
5005.2637,226.0
5007.2656,204.0
5009.2686,220.0
5011.2725,194.0
5013.277,216.0
5015.282,217.0
5017.2886,234.0
5019.2954,222.0
5021.303,240.0
5023.3115,227.0
5025.321,233.0
5027.331,218.0
5029.342,229.0
5031.3535,272.0
5033.366,231.0
5035.3794,198.0
5037.3936,216.0
5039.4087,201.0
5041.4243,243.0
5043.441,223.0
5045.4585,244.0
5047.4766,232.0
5049.4956,243.0
5051.5156,233.0
5053.536,266.0
5055.5576,220.0
5057.58,210.0
5059.603,210.0
5061.627,219.0
5063.6514,239.0
5065.677,217.0
5067.703,214.0
5069.73,237.0
5071.758,231.0
5073.7866,227.0
5075.816,224.0
5077.846,225.0
5079.8774,224.0
5081.909,197.0
5083.942,228.0
5085.9756,228.0
5088.01,226.0
5090.045,220.0
5092.081,237.0
5094.1177,235.0
5096.1553,212.0
5098.194,223.0
5100.233,232.0
5102.273,228.0
5104.314,242.0
5106.3555,244.0
5108.398,212.0
5110.4414,247.0
5112.4854,236.0
5114.5303,204.0
5116.576,193.0
5118.6226,189.0
5120.67,223.0
5122.7183,237.0
5124.7676,226.0
5126.8174,256.0
5128.868,269.0
5130.92,239.0
5132.972,216.0
5135.0254,231.0
5137.0796,206.0
5139.1343,185.0
5141.19,264.0
5143.2466,211.0
5145.3037,275.0
5147.362,291.0
5149.421,252.0
5151.4805,242.0
5153.541,230.0
5155.6025,247.0
5157.6646,242.0
5159.7275,230.0
5161.7915,229.0
5163.8564,210.0
5165.922,223.0
5167.9883,212.0
5170.0557,234.0
5172.1235,190.0
5174.1924,231.0
5176.262,233.0
5178.3325,234.0
5180.404,198.0
5182.476,230.0
5184.549,227.0
5186.6226,230.0
5188.6973,233.0
5190.773,221.0
5192.849,228.0
5194.9263,251.0
5197.0044,232.0
5199.083,225.0
5201.1626,260.0
5203.243,281.0
5205.324,256.0
5207.4062,271.0
5209.4893,226.0
5211.573,222.0
5213.6577,231.0
5215.743,257.0
5217.8296,252.0
5219.9165,276.0
5222.0044,277.0
5224.0933,279.0
5226.183,259.0
5228.2734,245.0
5230.3647,255.0
5232.457,235.0
5234.55,219.0
5236.6436,218.0
5238.7383,230.0
5240.834,267.0
5242.93,273.0
5245.0273,261.0
5247.1255,238.0
5249.224,249.0
5251.3237,240.0
5253.4243,223.0
5255.526,263.0
5257.628,237.0
5259.731,256.0
5261.835,219.0
5263.9395,265.0
5266.045,224.0
5268.1514,271.0
5270.259,259.0
5272.3667,229.0
5274.4756,242.0
5276.5854,267.0
5278.6963,249.0
5280.8076,241.0
5282.92,250.0
5285.033,279.0
5287.147,252.0
5289.2617,240.0
5291.3774,215.0
5293.494,236.0
5295.6113,220.0
5297.7295,241.0
5299.8486,314.0
5301.9688,274.0
5304.0894,291.0
5306.211,237.0
5308.3335,226.0
5310.457,231.0
5312.581,230.0
5314.706,259.0
5316.832,306.0
5318.959,357.0
5321.0864,296.0
5323.215,276.0
5325.344,267.0
5327.4746,283.0
5329.6055,232.0
5331.7373,255.0
5333.87,264.0
5336.004,258.0
5338.138,244.0
5340.2734,263.0
5342.4097,243.0
5344.547,266.0
5346.6846,285.0
5348.823,250.0
5350.963,267.0
5353.1035,252.0
5355.2446,230.0
5357.3867,288.0
5359.53,249.0
5361.674,260.0
5363.8184,257.0
5365.964,266.0
5368.1104,251.0
5370.258,266.0
5372.406,272.0
5374.5547,297.0
5376.7046,313.0
5378.8555,247.0
5381.007,285.0
5383.159,246.0
5385.3125,257.0
5387.467,256.0
5389.6216,267.0
5391.7773,289.0
5393.934,275.0
5396.092,260.0
5398.25,296.0
5400.409,253.0
5402.5693,254.0
5404.7305,272.0
5406.8926,280.0
5409.055,321.0
5411.2188,328.0
5413.3833,325.0
5415.549,271.0
5417.715,283.0
5419.882,254.0
5422.05,268.0
5424.2188,268.0
5426.3887,283.0
5428.559,289.0
5430.7305,250.0
5432.903,292.0
5435.076,306.0
5437.25,268.0
5439.425,318.0
5441.6006,276.0
5443.7773,340.0
5445.955,280.0
5448.1333,267.0
5450.3125,244.0
5452.4927,265.0
5454.674,267.0
5456.8555,267.0
5459.038,300.0
5461.2217,294.0
5463.4062,312.0
5465.592,284.0
5467.778,270.0
5469.965,294.0
5472.153,287.0
5474.342,276.0
5476.5317,330.0
5478.722,317.0
5480.9136,314.0
5483.106,260.0
5485.2993,288.0
5487.4937,300.0
5489.6885,309.0
5491.8843,338.0
5494.081,275.0
5496.279,276.0
5498.4775,277.0
5500.677,309.0
5502.877,279.0
5505.078,315.0
5507.2803,314.0
5509.4834,308.0
5511.687,302.0
5513.8916,287.0
5516.097,286.0
5518.3037,275.0
5520.511,265.0
5522.719,335.0
5524.928,314.0
5527.138,330.0
5529.349,353.0
5531.561,302.0
5533.7734,300.0
5535.987,278.0
5538.201,322.0
5540.4165,317.0
5542.633,313.0
5544.85,301.0
5547.068,319.0
5549.2866,289.0
5551.5063,296.0
5553.727,290.0
5555.9487,296.0
5558.171,319.0
5560.394,288.0
5562.618,334.0
5564.8433,299.0
5567.0693,280.0
5569.2964,291.0
5571.524,304.0
5573.7524,282.0
5575.982,319.0
5578.2124,278.0
5580.444,277.0
5582.676,349.0
5584.9087,293.0
5587.1426,305.0
5589.3774,287.0
5591.6133,266.0
5593.85,257.0
5596.0874,295.0
5598.3257,279.0
5600.565,289.0
5602.805,322.0
5605.0464,268.0
5607.2886,266.0
5609.5312,274.0
5611.775,294.0
5614.0195,277.0
5616.265,283.0
5618.5117,271.0
5620.7593,278.0
5623.008,266.0
5625.257,268.0
5627.507,277.0
5629.758,297.0
5632.01,298.0
5634.2627,287.0
5636.5166,290.0
5638.771,258.0
5641.0264,296.0
5643.2827,281.0
5645.54,286.0
5647.7983,270.0
5650.0576,274.0
5652.318,256.0
5654.5786,284.0
5656.8403,278.0
5659.103,282.0
5661.3667,266.0
5663.6313,288.0
5665.897,259.0
5668.1636,251.0
5670.4307,252.0
5672.6987,296.0
5674.968,285.0
5677.238,293.0
5679.509,319.0
5681.781,288.0
5684.0537,325.0
5686.327,274.0
5688.6016,270.0
5690.877,291.0
5693.1533,313.0
5695.4307,316.0
5697.709,268.0
5699.9883,291.0
5702.268,300.0
5704.549,293.0
5706.8306,304.0
5709.1133,293.0
5711.397,298.0
5713.6816,317.0
5715.9673,322.0
5718.254,316.0
5720.541,317.0
5722.829,334.0
5725.118,307.0
5727.408,338.0
5729.699,294.0
5731.991,327.0
5734.284,310.0
5736.578,338.0
5738.8726,377.0
5741.168,320.0
5743.4644,342.0
5745.7617,340.0
5748.06,299.0
5750.3594,336.0
5752.6597,337.0
5754.961,372.0
5757.2627,358.0
5759.5654,373.0
5761.869,349.0
5764.174,351.0
5766.4795,344.0
5768.786,376.0
5771.0938,382.0
5773.4023,384.0
5775.712,327.0
5778.022,379.0
5780.333,343.0
5782.645,343.0
5784.958,393.0
5787.272,369.0
5789.587,357.0
5791.903,368.0
5794.2197,369.0
5796.5376,349.0
5798.8564,380.0
5801.176,390.0
5803.496,375.0
5805.8174,417.0
5808.1396,408.0
5810.463,422.0
5812.787,395.0
5815.1123,478.0
5817.4385,392.0
5819.7656,402.0
5822.0938,444.0
5824.4224,435.0
5826.752,391.0
5829.0825,466.0
5831.414,500.0
5833.7466,461.0
5836.08,389.0
5838.4146,509.0
5840.75,540.0
5843.0864,422.0
5845.424,409.0
5847.762,478.0
5850.101,453.0
5852.441,384.0
5854.7817,387.0
5857.1235,436.0
5859.4663,389.0
5861.81,380.0
5864.155,370.0
5866.5005,403.0
5868.847,385.0
5871.195,395.0
5873.5435,422.0
5875.893,356.0
5878.2437,385.0
5880.5947,390.0
5882.947,403.0
5885.3,425.0
5887.654,371.0
5890.009,406.0
5892.3647,384.0
5894.7217,445.0
5897.0796,402.0
5899.4385,415.0
5901.7983,420.0
5904.159,465.0
5906.521,428.0
5908.884,389.0
5911.2476,467.0
5913.612,450.0
5915.977,446.0
5918.3433,466.0
5920.7104,425.0
5923.0786,440.0
5925.4478,428.0
5927.818,445.0
5930.189,395.0
5932.561,433.0
5934.934,440.0
5937.308,442.0
5939.683,442.0
5942.059,459.0
5944.436,453.0
5946.814,464.0
5949.193,437.0
5951.5728,431.0
5953.9536,414.0
5956.335,445.0
5958.7173,451.0
5961.1006,496.0
5963.485,481.0
5965.87,419.0
5968.2563,524.0
5970.6436,503.0
5973.0317,443.0
5975.421,529.0
5977.811,523.0
5980.202,482.0
5982.594,448.0
5984.9873,495.0
5987.3813,505.0
5989.7764,473.0
5992.1724,499.0
5994.5693,575.0
5996.9673,483.0
5999.366,484.0
6001.766,552.0
6004.167,574.0
6006.569,506.0
6008.9717,526.0
6011.3755,528.0
6013.7803,534.0
6016.1855,494.0
6018.592,524.0
6020.999,542.0
6023.407,482.0
6025.8164,435.0
6028.2266,471.0
6030.6377,455.0
6033.05,455.0
6035.463,510.0
6037.877,514.0
6040.292,472.0
6042.708,472.0
6045.125,521.0
6047.543,486.0
6049.962,461.0
6052.382,484.0
6054.8027,418.0
6057.2246,397.0
6059.6475,451.0
6062.0713,513.0
6064.496,494.0
6066.922,460.0
6069.3486,466.0
6071.7764,421.0
6074.205,435.0
6076.635,433.0
6079.0654,422.0
6081.497,448.0
6083.9297,500.0
6086.3633,446.0
6088.798,448.0
6091.2334,448.0
6093.67,429.0
6096.1074,453.0
6098.546,467.0
6100.9854,483.0
6103.426,502.0
6105.867,454.0
6108.3096,463.0
6110.753,478.0
6113.1973,443.0
6115.6426,521.0
6118.089,531.0
6120.536,528.0
6122.9844,488.0
6125.4336,473.0
6127.884,533.0
6130.335,547.0
6132.787,636.0
6135.24,601.0
6137.6943,577.0
6140.1494,567.0
6142.6055,547.0
6145.0625,514.0
6147.5205,545.0
6149.9795,681.0
6152.4395,643.0
6154.9004,589.0
6157.3623,629.0
6159.825,683.0
6162.289,652.0
6164.754,549.0
6167.2197,547.0
6169.6865,567.0
6172.1543,658.0
6174.623,860.0
6177.093,882.0
6179.5635,800.0
6182.035,623.0
6184.508,595.0
6186.9814,593.0
6189.456,651.0
6191.9316,928.0
6194.408,1100.0
6196.8857,914.0
6199.3643,756.0
6201.844,659.0
6204.325,595.0
6206.807,592.0
6209.29,529.0
6211.774,599.0
6214.259,682.0
6216.7446,749.0
6219.2314,729.0
6221.719,648.0
6224.208,615.0
6226.6978,626.0
6229.1885,702.0
6231.68,888.0
6234.173,835.0
6236.6665,724.0
6239.161,673.0
6241.6567,596.0
6244.1533,657.0
6246.651,741.0
6249.1494,866.0
6251.649,721.0
6254.1494,729.0
6256.651,820.0
6259.1533,738.0
6261.6567,656.0
6264.1616,636.0
6266.6675,580.0
6269.1743,574.0
6271.682,870.0
6274.191,1251.0
6276.7007,978.0
6279.2114,652.0
6281.723,582.0
6284.236,531.0
6286.7495,567.0
6289.264,1163.0
6291.78,1670.0
6294.2964,1232.0
6296.814,820.0
6299.3325,607.0
6301.852,568.0
6304.3726,536.0
6306.8945,520.0
6309.4175,537.0
6311.9414,546.0
6314.4663,630.0
6316.992,537.0
6319.519,525.0
6322.047,467.0
6324.5757,499.0
6327.1055,485.0
6329.636,496.0
6332.168,514.0
6334.7007,527.0
6337.2344,488.0
6339.769,490.0
6342.305,459.0
6344.8423,487.0
6347.3804,491.0
6349.9194,480.0
6352.4595,474.0
6355.0005,468.0
6357.5425,484.0
6360.0854,508.0
6362.6294,484.0
6365.1743,507.0
6367.72,552.0
6370.267,499.0
6372.8154,545.0
6375.3647,521.0
6377.915,516.0
6380.4663,490.0
6383.0186,547.0
6385.572,545.0
6388.126,545.0
6390.681,499.0
6393.2373,480.0
6395.7944,513.0
6398.3525,449.0
6400.912,521.0
6403.4727,564.0
6406.034,573.0
6408.5967,537.0
6411.16,496.0
6413.7246,498.0
6416.29,535.0
6418.8564,519.0
6421.424,507.0
6423.992,490.0
6426.562,495.0
6429.133,592.0
6431.7046,520.0
6434.2773,489.0
6436.851,514.0
6439.426,520.0
6442.0015,529.0
6444.578,558.0
6447.156,592.0
6449.735,550.0
6452.315,533.0
6454.896,505.0
6457.478,511.0
6460.061,500.0
6462.645,503.0
6465.23,488.0
6467.816,497.0
6470.403,509.0
6472.991,516.0
6475.5806,520.0
6478.171,527.0
6480.762,564.0
6483.3545,502.0
6485.9478,536.0
6488.542,561.0
6491.137,550.0
6493.734,552.0
6496.3315,522.0
6498.93,536.0
6501.53,523.0
6504.1304,516.0
6506.732,594.0
6509.3345,500.0
6511.938,615.0
6514.543,574.0
6517.149,580.0
6519.756,544.0
6522.364,593.0
6524.9727,603.0
6527.5825,574.0
6530.1934,593.0
6532.8057,623.0
6535.419,517.0
6538.033,614.0
6540.6484,627.0
6543.2646,636.0
6545.882,593.0
6548.5,582.0
6551.1196,591.0
6553.74,578.0
6556.362,724.0
6558.9844,767.0
6561.608,706.0
6564.2324,611.0
6566.858,530.0
6569.485,623.0
6572.113,616.0
6574.7417,636.0
6577.3716,679.0
6580.0024,604.0
6582.6343,585.0
6585.267,619.0
6587.9014,596.0
6590.5366,644.0
6593.173,635.0
6595.81,662.0
6598.448,585.0
6601.0874,594.0
6603.728,619.0
6606.3696,577.0
6609.012,564.0
6611.656,621.0
6614.3003,647.0
6616.946,618.0
6619.593,626.0
6622.2407,643.0
6624.8896,687.0
6627.5396,605.0
6630.1904,617.0
6632.8423,518.0
6635.4956,574.0
6638.15,720.0
6640.805,750.0
6643.4614,678.0
6646.1187,572.0
6648.7773,614.0
6651.437,547.0
6654.0977,673.0
6656.7593,691.0
6659.422,675.0
6662.0854,589.0
6664.7505,605.0
6667.4165,551.0
6670.0835,542.0
6672.7515,532.0
6675.4204,571.0
6678.091,561.0
6680.762,594.0
6683.4346,511.0
6686.108,498.0
6688.782,492.0
6691.4575,553.0
6694.1343,563.0
6696.812,635.0
6699.4907,603.0
6702.1704,553.0
6704.851,546.0
6707.533,527.0
6710.2163,567.0
6712.9004,601.0
6715.5854,622.0
6718.2715,617.0
6720.959,564.0
6723.6475,627.0
6726.337,595.0
6729.0273,570.0
6731.7188,576.0
6734.4116,570.0
6737.1055,551.0
6739.8003,719.0
6742.496,679.0
6745.193,672.0
6747.891,633.0
6750.5903,606.0
6753.2905,549.0
6755.9917,659.0
6758.6943,781.0
6761.398,793.0
6764.1025,726.0
6766.808,714.0
6769.5146,662.0
6772.2227,585.0
6774.9316,643.0
6777.6416,711.0
6780.3525,694.0
6783.0645,737.0
6785.778,719.0
6788.492,710.0
6791.2075,683.0
6793.924,655.0
6796.6416,607.0
6799.3604,663.0
6802.08,650.0
6804.801,675.0
6807.5225,748.0
6810.2456,798.0
6812.9697,732.0
6815.695,609.0
6818.421,517.0
6821.1484,666.0
6823.877,949.0
6826.6064,959.0
6829.337,735.0
6832.069,600.0
6834.802,529.0
6837.5356,508.0
6840.2705,742.0
6843.007,950.0
6845.744,859.0
6848.4824,572.0
6851.2217,593.0
6853.9624,665.0
6856.704,727.0
6859.447,674.0
6862.1904,664.0
6864.9355,578.0
6867.6816,546.0
6870.4287,573.0
6873.177,537.0
6875.9263,558.0
6878.677,550.0
6881.428,545.0
6884.1807,566.0
6886.9346,573.0
6889.6895,550.0
6892.4453,526.0
6895.202,561.0
6897.9604,592.0
6900.7197,556.0
6903.48,570.0
6906.241,557.0
6909.004,565.0
6911.7676,616.0
6914.532,621.0
6917.298,608.0
6920.065,651.0
6922.833,583.0
6925.602,532.0
6928.372,589.0
6931.1436,565.0
6933.916,536.0
6936.6895,573.0
6939.4644,555.0
6942.24,545.0
6945.017,584.0
6947.795,725.0
6950.574,589.0
6953.3545,596.0
6956.1357,691.0
6958.918,653.0
6961.7017,598.0
6964.4863,638.0
6967.272,604.0
6970.059,593.0
6972.847,629.0
6975.636,690.0
6978.4263,671.0
6981.218,677.0
6984.0103,691.0
6986.8037,603.0
6989.5986,660.0
6992.3945,681.0
6995.1914,726.0
6997.9893,766.0
7000.7886,774.0
7003.589,724.0
7006.39,666.0
7009.193,707.0
7011.9966,735.0
7014.8013,750.0
7017.6074,858.0
7020.4146,801.0
7023.2227,758.0
7026.0317,970.0
7028.8423,848.0
7031.654,677.0
7034.4663,648.0
7037.2803,610.0
7040.095,782.0
7042.911,1081.0
7045.7285,948.0
7048.547,788.0
7051.366,690.0
7054.1865,635.0
7057.0083,826.0
7059.831,1395.0
7062.655,1353.0
7065.48,949.0
7068.306,729.0
7071.1333,639.0
7073.962,621.0
7076.7915,609.0
7079.622,668.0
7082.454,653.0
7085.287,694.0
7088.121,617.0
7090.9565,695.0
7093.793,714.0
7096.6304,746.0
7099.469,759.0
7102.309,609.0
7105.15,689.0
7107.992,750.0
7110.8354,715.0
7113.6797,778.0
7116.5254,768.0
7119.372,724.0
7122.2197,816.0
7125.069,864.0
7127.919,848.0
7130.77,871.0
7133.6226,713.0
7136.476,808.0
7139.3306,1015.0
7142.1865,1056.0
7145.0435,905.0
7147.9014,873.0
7150.7607,833.0
7153.621,918.0
7156.4824,1218.0
7159.345,1350.0
7162.209,1018.0
7165.0737,881.0
7167.94,944.0
7170.807,1000.0
7173.6753,1128.0
7176.545,960.0
7179.4155,962.0
7182.287,948.0
7185.16,848.0
7188.034,1049.0
7190.909,1037.0
7193.7856,940.0
7196.663,1218.0
7199.542,1245.0
7202.422,968.0
7205.3027,787.0
7208.185,662.0
7211.0684,829.0
7213.9526,1599.0
7216.8384,1568.0
7219.725,1002.0
7222.613,804.0
7225.502,672.0
7228.392,937.0
7231.283,2160.0
7234.176,2380.0
7237.0693,1352.0
7239.9644,807.0
7242.8604,639.0
7245.7573,619.0
7248.656,638.0
7251.555,687.0
7254.4556,715.0
7257.3574,708.0
7260.2603,651.0
7263.1646,564.0
7266.07,628.0
7268.976,646.0
7271.884,639.0
7274.7925,600.0
7277.7026,606.0
7280.614,605.0
7283.526,609.0
7286.4395,611.0
7289.354,623.0
7292.2695,607.0
7295.1865,737.0
7298.1045,668.0
7301.024,614.0
7303.9443,561.0
7306.8657,538.0
7309.7886,661.0
7312.7124,895.0
7315.6377,767.0
7318.564,607.0
7321.491,511.0
7324.42,532.0
7327.3496,701.0
7330.281,1005.0
7333.213,954.0
7336.146,663.0
7339.0806,591.0
7342.016,542.0
7344.953,616.0
7347.891,647.0
7350.83,700.0
7353.7705,613.0
7356.712,616.0
7359.655,529.0
7362.5986,513.0
7365.5435,535.0
7368.4897,504.0
7371.437,533.0
7374.3857,613.0
7377.3354,618.0
7380.2866,589.0
7383.239,603.0
7386.192,550.0
7389.1465,551.0
7392.102,530.0
7395.059,542.0
7398.017,642.0
7400.976,711.0
7403.9365,630.0
7406.898,497.0
7409.861,497.0
7412.8247,479.0
7415.79,609.0
7418.7563,677.0
7421.7236,686.0
7424.6924,579.0
7427.662,507.0
7430.6333,462.0
7433.6055,646.0
7436.579,657.0
7439.5537,607.0
7442.5293,551.0
7445.5063,514.0
7448.4844,448.0
7451.464,499.0
7454.4443,487.0
7457.4263,482.0
7460.409,466.0
7463.3936,401.0
7466.379,476.0
7469.365,493.0
7472.353,456.0
7475.342,404.0
7478.332,445.0
7481.323,418.0
7484.316,593.0
7487.3096,626.0
7490.3047,554.0
7493.301,428.0
7496.2983,422.0
7499.297,468.0
7502.2964,488.0
7505.2974,449.0
7508.2993,417.0
7511.3027,460.0
7514.307,423.0
7517.313,418.0
7520.32,461.0
7523.328,493.0
7526.3374,457.0
7529.348,459.0
7532.36,473.0
7535.373,434.0
7538.387,435.0
7541.4023,391.0
7544.419,474.0
7547.4365,530.0
7550.4556,423.0
7553.4756,438.0
7556.497,425.0
7559.5195,427.0
7562.5435,520.0
7565.5684,562.0
7568.5947,478.0
7571.622,476.0
7574.651,413.0
7577.6807,443.0
7580.712,424.0
7583.744,421.0
7586.778,453.0
7589.8125,413.0
7592.8486,379.0
7595.8857,410.0
7598.9243,457.0
7601.964,457.0
7605.005,436.0
7608.047,401.0
7611.0903,427.0
7614.135,457.0
7617.18,506.0
7620.227,485.0
7623.275,408.0
7626.324,419.0
7629.3745,403.0
7632.4263,454.0
7635.479,425.0
7638.533,428.0
7641.5884,406.0
7644.645,380.0
7647.7026,365.0
7650.7617,402.0
7653.8223,386.0
7656.884,393.0
7659.947,431.0
7663.0107,462.0
7666.076,424.0
7669.1426,406.0
7672.2104,389.0
7675.2793,472.0
7678.3496,441.0
7681.421,448.0
7684.4937,467.0
7687.5674,433.0
7690.6426,451.0
7693.7188,450.0
7696.7964,416.0
7699.875,478.0
7702.955,464.0
7706.036,542.0
7709.1187,497.0
7712.202,485.0
7715.287,489.0
7718.373,489.0
7721.4604,518.0
7724.549,506.0
7727.6387,525.0
7730.7295,561.0
7733.822,529.0
7736.9155,543.0
7740.0103,584.0
7743.1064,578.0
7746.2036,580.0
7749.3022,529.0
7752.402,596.0
7755.503,634.0
7758.605,558.0
7761.7085,510.0
7764.813,573.0
7767.919,570.0
7771.026,678.0
7774.1343,611.0
7777.244,565.0
7780.355,507.0
7783.4673,568.0
7786.5806,722.0
7789.6953,765.0
7792.811,717.0
7795.928,631.0
7799.0464,594.0
7802.166,539.0
7805.287,594.0
7808.409,635.0
7811.5327,674.0
7814.657,628.0
7817.783,580.0
7820.91,586.0
7824.0386,567.0
7827.168,778.0
7830.299,733.0
7833.431,676.0
7836.5645,604.0
7839.699,647.0
7842.835,620.0
7845.972,789.0
7849.1104,811.0
7852.25,682.0
7855.391,700.0
7858.533,629.0
7861.677,670.0
7864.8213,626.0
7867.9673,700.0
7871.1143,682.0
7874.2627,646.0
7877.4126,687.0
7880.5635,710.0
7883.716,803.0
7886.869,753.0
7890.024,684.0
7893.18,671.0
7896.3374,701.0
7899.496,890.0
7902.656,865.0
7905.817,728.0
7908.979,742.0
7912.1426,703.0
7915.3076,863.0
7918.4736,1092.0
7921.641,1018.0
7924.8096,831.0
7927.9795,780.0
7931.151,755.0
7934.323,694.0
7937.497,840.0
7940.672,883.0
7943.848,903.0
7947.026,865.0
7950.2046,834.0
7953.385,924.0
7956.566,985.0
7959.7485,974.0
7962.9326,1030.0
7966.1177,974.0
7969.304,1081.0
7972.4917,1100.0
7975.6807,1023.0
7978.871,1060.0
7982.0625,1096.0
7985.2554,1270.0
7988.4497,1327.0
7991.645,1264.0
7994.842,1279.0
7998.0396,1213.0
8001.239,1350.0
8004.4395,1593.0
8007.641,1650.0
8010.844,1534.0
8014.0483,1479.0
8017.254,1529.0
8020.461,1624.0
8023.669,1698.0
8026.8784,1558.0
8030.0894,1601.0
8033.3013,1835.0
8036.5146,2012.0
8039.7295,2160.0
8042.9453,1963.0
8046.1626,1875.0
8049.381,1941.0
8052.6006,2180.0
8055.822,2736.0
8059.044,2722.0
8062.2676,2405.0
8065.4927,2625.0
8068.7188,2822.0
8071.9463,2884.0
8075.1753,3160.0
8078.4053,3103.0
8081.6367,3621.0
8084.869,4170.0
8088.103,3483.0
8091.3384,3171.0
8094.5747,2876.0
8097.8125,3975.0
8101.052,5705.0
8104.292,5172.0
8107.5337,4270.0
8110.777,3865.0
8114.021,3675.0
8117.2666,6070.0
8120.5137,7505.0
8123.7617,6592.0
8127.011,6130.0
8130.262,5086.0
8133.514,4905.0
8136.7676,5739.0
8140.0225,6629.0
8143.2783,8882.0
8146.5356,7937.0
8149.7944,6304.0
8153.054,7473.0
8156.3154,6964.0
8159.578,7678.0
8162.842,9394.0
8166.107,8847.0
8169.3735,13300.0
8172.641,13132.0
8175.91,7475.0
8179.1807,4297.0
8182.452,5231.0
8185.725,20051.0
8188.9995,26501.0
8192.275,12054.0
8195.553,5257.0
8198.831,4042.0
8202.11,19037.0
8205.392,48385.0
8208.674,28761.0
8211.957,9895.0
8215.242,4292.0
8218.528,3030.0
8221.815,2781.0
8225.1045,4204.0
8228.395,5634.0
8231.686,3766.0
8234.979,2155.0
8238.272,1631.0
8241.567,1769.0
8244.864,2049.0
8248.162,2041.0
8251.461,1829.0
8254.762,1389.0
8258.063,1239.0
8261.367,1230.0
8264.672,1467.0
8267.978,1536.0
8271.285,1399.0
8274.594,1281.0
8277.903,1132.0
8281.215,1065.0
8284.527,1142.0
8287.841,1262.0
8291.156,1346.0
8294.473,1205.0
8297.79,1132.0
8301.109,1064.0
8304.43,1298.0
8307.751,1386.0
8311.074,1343.0
8314.398,1404.0
8317.725,1278.0
8321.052,1242.0
8324.38,1194.0
8327.71,1152.0
8331.041,1522.0
8334.373,1572.0
8337.707,1214.0
8341.042,1120.0
8344.378,1109.0
8347.716,1608.0
8351.055,1862.0
8354.3955,1453.0
8357.737,1427.0
8361.08,1271.0
8364.425,1120.0
8367.7705,1059.0
8371.117,1117.0
8374.466,1564.0
8377.815,1672.0
8381.167,1200.0
8384.52,881.0
8387.873,980.0
8391.229,1561.0
8394.585,2017.0
8397.942,1543.0
8401.302,992.0
8404.662,913.0
8408.024,1039.0
8411.388,893.0
8414.752,944.0
8418.118,927.0
8421.485,815.0
8424.854,761.0
8428.224,754.0
8431.595,879.0
8434.968,827.0
8438.342,787.0
8441.717,813.0
8445.094,863.0
8448.472,989.0
8451.851,866.0
8455.231,897.0
8458.613,860.0
8461.997,930.0
8465.382,1055.0
8468.768,1119.0
8472.155,1028.0
8475.544,1100.0
8478.935,953.0
8482.326,1021.0
8485.719,1110.0
8489.113,1354.0
8492.509,1390.0
8495.906,1174.0
8499.305,1265.0
8502.704,1404.0
8506.105,1489.0
8509.508,1746.0
8512.911,1536.0
8516.316,1692.0
8519.723,1828.0
8523.131,1667.0
8526.54,1869.0
8529.95,1775.0
8533.362,2580.0
8536.775,3157.0
8540.19,2166.0
8543.606,1452.0
8547.023,1326.0
8550.442,3157.0
8553.862,4558.0
8557.284,2821.0
8560.707,1580.0
8564.131,1376.0
8567.557,3675.0
8570.983,6972.0
8574.412,4496.0
8577.842,2380.0
8581.272,1546.0
8584.705,1255.0
8588.139,1137.0
8591.574,1426.0
8595.011,1912.0
8598.449,1646.0
8601.889,1102.0
8605.329,872.0
8608.771,855.0
8612.215,827.0
8615.66,868.0
8619.106,907.0
8622.554,887.0
8626.003,815.0
8629.453,725.0
8632.905,753.0
8636.358,791.0
8639.8125,763.0
8643.269,760.0
8646.726,731.0
8650.185,711.0
8653.645,829.0
8657.106,793.0
8660.569,799.0
8664.033,780.0
8667.499,861.0
8670.966,852.0
8674.435,816.0
8677.904,861.0
8681.375,917.0
8684.848,813.0
8688.321,854.0
8691.797,919.0
8695.273,1017.0
8698.752,1115.0
8702.231,965.0
8705.712,1023.0
8709.194,1051.0
8712.678,1187.0
8716.163,1161.0
8719.649,1125.0
8723.138,1135.0
8726.627,1158.0
8730.117,1185.0
8733.609,1205.0
8737.103,1279.0
8740.598,1471.0
8744.094,1320.0
8747.592,1324.0
8751.091,1460.0
8754.591,1597.0
8758.093,1651.0
8761.596,1517.0
8765.101,1512.0
8768.606,1670.0
8772.114,1912.0
8775.623,1805.0
8779.133,1781.0
8782.645,1938.0
8786.157,1787.0
8789.672,1848.0
8793.1875,1943.0
8796.705,2467.0
8800.224,2620.0
8803.744,2097.0
8807.266,1763.0
8810.788,1941.0
8814.3125,3204.0
8817.838,3600.0
8821.365,2544.0
8824.894,2089.0
8828.424,2138.0
8831.955,3797.0
8835.488,4190.0
8839.022,3009.0
8842.558,2546.0
8846.095,2142.0
8849.633,1992.0
8853.173,2085.0
8856.714,2769.0
8860.257,3127.0
8863.801,2566.0
8867.347,2199.0
8870.894,2185.0
8874.442,3142.0
8877.992,3979.0
8881.543,3175.0
8885.096,2700.0
8888.649,2217.0
8892.205,2271.0
8895.762,2414.0
8899.32,2866.0
8902.88,2870.0
8906.441,2482.0
8910.004,2258.0
8913.568,2508.0
8917.134,3201.0
8920.7,3117.0
8924.269,2533.0
8927.838,2488.0
8931.409,2663.0
8934.981,3492.0
8938.556,3321.0
8942.131,2891.0
8945.708,2845.0
8949.286,2431.0
8952.866,2150.0
8956.447,2340.0
8960.03,2880.0
8963.614,2898.0
8967.199,2317.0
8970.786,1995.0
8974.374,2250.0
8977.964,2683.0
8981.555,2601.0
8985.147,2107.0
8988.741,1976.0
8992.337,2439.0
8995.934,2546.0
8999.532,2413.0
9003.132,2031.0
9006.733,2118.0
9010.336,2481.0
9013.94,2337.0
9017.546,1999.0
9021.153,2067.0
9024.762,2432.0
9028.372,2526.0
9031.983,2054.0
9035.597,1602.0
9039.211,1822.0
9042.826,2534.0
9046.443,2340.0
9050.062,1713.0
9053.682,1451.0
9057.303,2111.0
9060.926,3143.0
9064.55,2484.0
9068.176,1605.0
9071.803,1376.0
9075.432,1808.0
9079.062,2100.0
9082.693,1779.0
9086.326,1392.0
9089.961,1282.0
9093.597,1463.0
9097.234,1411.0
9100.873,1403.0
9104.514,1305.0
9108.155,1262.0
9111.799,1053.0
9115.443,1013.0
9119.09,1115.0
9122.737,1185.0
9126.387,1090.0
9130.037,1005.0
9133.689,942.0
9137.343,1105.0
9140.998,1145.0
9144.654,1035.0
9148.3125,1059.0
9151.972,959.0
9155.633,939.0
9159.295,953.0
9162.959,1169.0
9166.624,1166.0
9170.291,964.0
9173.959,841.0
9177.629,958.0
9181.3,1432.0
9184.973,1284.0
9188.646,1073.0
9192.322,789.0
9195.999,1049.0
9199.678,1311.0
9203.357,1143.0
9207.039,1044.0
9210.722,842.0
9214.406,771.0
9218.092,739.0
9221.779,831.0
9225.468,1000.0
9229.158,863.0
9232.85,682.0
9236.543,608.0
9240.237,851.0
9243.934,1021.0
9247.631,884.0
9251.33,746.0
9255.03,584.0
9258.732,497.0
9262.436,513.0
9266.141,661.0
9269.847,623.0
9273.555,473.0
9277.264,463.0
9280.975,487.0
9284.687,550.0
9288.4,508.0
9292.116,448.0
9295.833,439.0
9299.552,437.0
9303.271,423.0
9306.993,379.0
9310.716,398.0
9314.44,364.0
9318.166,367.0
9321.894,366.0
9325.622,397.0
9329.353,416.0
9333.084,365.0
9336.817,343.0
9340.552,354.0
9344.288,375.0
9348.025,377.0
9351.765,360.0
9355.505,384.0
9359.247,324.0
9362.991,374.0
9366.736,326.0
9370.483,356.0
9374.231,372.0
9377.981,349.0
9381.732,302.0
9385.485,350.0
9389.239,348.0
9392.995,319.0
9396.752,337.0
9400.511,333.0
9404.2705,339.0
9408.032,295.0
9411.796,319.0
9415.561,305.0
9419.327,290.0
9423.095,333.0
9426.864,322.0
9430.635,341.0
9434.407,274.0
9438.181,312.0
9441.956,349.0
9445.732,384.0
9449.511,313.0
9453.291,286.0
9457.072,278.0
9460.855,359.0
9464.64,357.0
9468.426,306.0
9472.213,359.0
9476.002,262.0
9479.792,277.0
9483.584,297.0
9487.377,336.0
9491.172,317.0
9494.969,282.0
9498.767,302.0
9502.566,320.0
9506.367,315.0
9510.17,304.0
9513.974,274.0
9517.779,236.0
9521.586,245.0
9525.395,251.0
9529.205,275.0
9533.017,267.0
9536.83,266.0
9540.645,208.0
9544.461,222.0
9548.278,297.0
9552.098,308.0
9555.919,244.0
9559.741,243.0
9563.565,241.0
9567.391,262.0
9571.218,250.0
9575.046,256.0
9578.876,228.0
9582.708,194.0
9586.541,211.0
9590.376,253.0
9594.212,251.0
9598.05,222.0
9601.889,185.0
9605.7295,242.0
9609.572,231.0
9613.416,221.0
9617.262,233.0
9621.108,222.0
9624.957,193.0
9628.807,211.0
9632.658,219.0
9636.512,218.0
9640.366,187.0
9644.223,174.0
9648.08,197.0
9651.939,196.0
9655.8,204.0
9659.662,205.0
9663.526,209.0
9667.392,197.0
9671.259,184.0
9675.127,197.0
9678.997,201.0
9682.869,173.0
9686.742,188.0
9690.617,192.0
9694.493,182.0
9698.371,176.0
9702.25,189.0
9706.131,196.0
9710.014,183.0
9713.897,180.0
9717.783,191.0
9721.67,176.0
9725.559,188.0
9729.449,198.0
9733.341,162.0
9737.234,177.0
9741.129,189.0
9745.025,203.0
9748.924,173.0
9752.823,168.0
9756.725,148.0
9760.627,189.0
9764.531,138.0
9768.4375,186.0
9772.345,170.0
9776.254,159.0
9780.164,177.0
9784.076,170.0
9787.99,191.0
9791.905,158.0
9795.822,194.0
9799.74,190.0
9803.66,162.0
9807.582,181.0
9811.505,197.0
9815.43,197.0
9819.355,177.0
9823.283,168.0
9827.213,191.0
9831.144,222.0
9835.076,188.0
9839.01,171.0
9842.945,213.0
9846.883,222.0
9850.821,196.0
9854.762,183.0
9858.704,185.0
9862.647,199.0
9866.593,219.0
9870.539,191.0
9874.487,178.0
9878.4375,181.0
9882.389,198.0
9886.342,183.0
9890.296,187.0
9894.252,185.0
9898.21,202.0
9902.169,189.0
9906.13,165.0
9910.093,191.0
9914.057,193.0
9918.022,216.0
9921.989,171.0
9925.958,207.0
9929.929,175.0
9933.9,201.0
9937.874,202.0
9941.85,181.0
9945.826,172.0
9949.805,184.0
9953.784,214.0
9957.766,183.0
9961.749,184.0
9965.733,190.0
9969.72,155.0
9973.708,199.0
9977.697,187.0
9981.688,195.0
9985.681,200.0
9989.675,161.0
9993.671,162.0
9997.668,187.0
10001.667,164.0
10005.668,192.0
10009.67,189.0
10013.674,180.0
10017.68,178.0
10021.687,190.0
10025.695,177.0
10029.706,175.0
10033.718,171.0
10037.731,161.0
10041.746,170.0
10045.763,165.0
10049.781,168.0
10053.801,160.0
10057.822,168.0
10061.846,184.0
10065.87,180.0
10069.896,177.0
10073.925,186.0
10077.954,190.0
10081.985,179.0
10086.019,193.0
10090.053,200.0
10094.089,197.0
10098.127,182.0
10102.166,189.0
10106.207,189.0
10110.25,186.0
10114.294,177.0
10118.34,183.0
10122.387,195.0
10126.436,160.0
10130.486,177.0
10134.538,198.0
10138.592,169.0
10142.647,190.0
10146.704,215.0
10150.763,188.0
10154.823,195.0
10158.885,177.0
10162.948,207.0
10167.014,172.0
10171.08,197.0
10175.148,165.0
10179.219,191.0
10183.29,196.0
10187.363,218.0
10191.438,188.0
10195.515,201.0
10199.593,193.0
10203.673,215.0
10207.754,198.0
10211.837,205.0
10215.922,213.0
10220.008,196.0
10224.096,170.0
10228.186,201.0
10232.276,197.0
10236.369,208.0
10240.464,215.0
10244.56,214.0
10248.657,197.0
10252.757,197.0
10256.858,212.0
10260.961,177.0
10265.065,201.0
10269.172,199.0
10273.279,203.0
10277.389,203.0
10281.5,217.0
10285.612,196.0
10289.727,230.0
10293.843,196.0
10297.96,219.0
10302.079,218.0
10306.2,194.0
10310.322,189.0
10314.446,255.0
10318.572,212.0
10322.699,180.0
10326.828,196.0
10330.959,175.0
10335.092,181.0
10339.226,209.0
10343.361,181.0
10347.499,220.0
10351.638,204.0
10355.778,190.0
10359.921,169.0
10364.064,199.0
10368.21,203.0
10372.357,200.0
10376.507,219.0
10380.657,182.0
10384.81,202.0
10388.964,184.0
10393.119,218.0
10397.276,203.0
10401.436,203.0
10405.596,192.0
10409.758,205.0
10413.922,208.0
10418.088,212.0
10422.255,204.0
10426.424,179.0
10430.595,217.0
10434.767,181.0
10438.94,198.0
10443.116,202.0
10447.294,202.0
10451.473,203.0
10455.653,184.0
10459.836,196.0
10464.02,231.0
10468.205,189.0
10472.393,192.0
10476.581,185.0
10480.771,217.0
10484.964,207.0
10489.158,203.0
10493.354,171.0
10497.551,227.0
10501.75,191.0
10505.951,179.0
10510.153,199.0
10514.357,197.0
10518.563,212.0
10522.7705,205.0
10526.9795,186.0
10531.19,204.0
10535.403,200.0
10539.617,255.0
10543.833,217.0
10548.051,194.0
10552.27,199.0
10556.49,203.0
10560.713,227.0
10564.9375,193.0
10569.163,215.0
10573.391,209.0
10577.62,228.0
10581.852,194.0
10586.084,227.0
10590.318,199.0
10594.555,187.0
10598.793,213.0
10603.032,199.0
10607.273,203.0
10611.517,246.0
10615.761,190.0
10620.007,189.0
10624.255,206.0
10628.505,211.0
10632.756,187.0
10637.009,199.0
10641.264,202.0
10645.5205,208.0
10649.778,184.0
10654.038,209.0
10658.3,226.0
10662.563,206.0
10666.828,206.0
10671.095,219.0
10675.363,200.0
10679.634,204.0
10683.905,211.0
10688.179,189.0
10692.454,199.0
10696.731,207.0
10701.01,226.0
10705.29,216.0
10709.572,210.0
10713.856,196.0
10718.142,222.0
10722.429,251.0
10726.718,231.0
10731.009,200.0
10735.301,227.0
10739.595,225.0
10743.891,217.0
10748.188,171.0
10752.487,170.0
10756.788,213.0
10761.091,215.0
10765.3955,220.0
10769.702,207.0
10774.01,217.0
10778.319,228.0
10782.631,187.0
10786.944,215.0
10791.259,220.0
10795.575,206.0
10799.894,199.0
10804.214,187.0
10808.535,206.0
10812.858,205.0
10817.184,213.0
10821.511,213.0
10825.839,191.0
10830.169,220.0
10834.501,202.0
10838.835,224.0
10843.171,232.0
10847.508,230.0
10851.847,213.0
10856.1875,205.0
10860.53,229.0
10864.874,219.0
10869.22,230.0
10873.567,220.0
10877.917,207.0
10882.269,259.0
10886.621,210.0
10890.976,216.0
10895.332,240.0
10899.69,223.0
10904.051,238.0
10908.412,217.0
10912.775,216.0
10917.141,241.0
10921.508,214.0
10925.876,231.0
10930.246,217.0
10934.618,224.0
10938.992,243.0
10943.368,227.0
10947.745,229.0
10952.124,246.0
10956.505,203.0
10960.888,237.0
10965.272,215.0
10969.658,232.0
10974.046,241.0
10978.436,261.0
10982.827,236.0
10987.221,249.0
10991.615,216.0
10996.012,211.0
11000.41,236.0
11004.811,216.0
11009.213,241.0
11013.616,234.0
11018.021,245.0
11022.429,256.0
11026.838,267.0
11031.249,254.0
11035.661,246.0
11040.075,229.0
11044.491,241.0
11048.909,256.0
11053.329,231.0
11057.75,245.0
11062.173,228.0
11066.598,283.0
11071.024,266.0
11075.453,236.0
11079.884,260.0
11084.315,282.0
11088.749,263.0
11093.185,269.0
11097.622,246.0
11102.062,261.0
11106.502,250.0
11110.944,255.0
11115.389,275.0
11119.835,292.0
11124.283,274.0
11128.733,286.0
11133.185,297.0
11137.638,288.0
11142.093,273.0
11146.55,241.0
11151.009,301.0
11155.469,304.0
11159.931,297.0
11164.395,274.0
11168.86,308.0
11173.328,296.0
11177.798,302.0
11182.269,318.0
11186.741,296.0
11191.216,299.0
11195.692,266.0
11200.171,318.0
11204.651,281.0
11209.133,321.0
11213.616,303.0
11218.102,298.0
11222.589,297.0
11227.078,320.0
11231.569,320.0
11236.062,303.0
11240.556,291.0
11245.052,321.0
11249.55,309.0
11254.05,327.0
11258.552,342.0
11263.056,326.0
11267.561,376.0
11272.067,300.0
11276.576,328.0
11281.087,381.0
11285.6,386.0
11290.114,370.0
11294.63,372.0
11299.147,365.0
11303.667,360.0
11308.188,405.0
11312.712,404.0
11317.237,394.0
11321.765,419.0
11326.293,427.0
11330.823,430.0
11335.355,409.0
11339.89,433.0
11344.426,468.0
11348.964,483.0
11353.504,479.0
11358.045,449.0
11362.588,491.0
11367.133,506.0
11371.68,496.0
11376.229,513.0
11380.779,526.0
11385.332,575.0
11389.886,550.0
11394.441,611.0
11398.999,591.0
11403.559,612.0
11408.12,603.0
11412.684,588.0
11417.249,665.0
11421.816,641.0
11426.385,635.0
11430.955,730.0
11435.527,705.0
11440.102,666.0
11444.678,718.0
11449.256,759.0
11453.836,735.0
11458.417,773.0
11463.0,831.0
11467.585,836.0
11472.172,847.0
11476.761,818.0
11481.352,872.0
11485.944,901.0
11490.539,928.0
11495.136,935.0
11499.733,976.0
11504.333,902.0
11508.935,992.0
11513.538,1026.0
11518.144,1000.0
11522.751,978.0
11527.36,1073.0
11531.972,1058.0
11536.584,1106.0
11541.198,1026.0
11545.814,1188.0
11550.433,1109.0
11555.053,1052.0
11559.675,1173.0
11564.299,1236.0
11568.925,1073.0
11573.553,1239.0
11578.183,1296.0
11582.813,1240.0
11587.446,1051.0
11592.081,1240.0
11596.718,1278.0
11601.356,1095.0
11605.997,1123.0
11610.64,1324.0
11615.284,1316.0
11619.931,1164.0
11624.579,1326.0
11629.229,1299.0
11633.88,1204.0
11638.533,1155.0
11643.188,1456.0
11647.846,1218.0
11652.505,949.0
11657.166,1270.0
11661.829,1430.0
11666.494,998.0
11671.161,937.0
11675.83,1586.0
11680.5,1532.0
11685.172,994.0
11689.846,951.0
11694.521,1144.0
11699.199,864.0
11703.879,788.0
11708.561,775.0
11713.244,728.0
11717.93,672.0
11722.617,605.0
11727.307,590.0
11731.998,514.0
11736.69,515.0
11741.385,501.0
11746.081,480.0
11750.779,459.0
11755.4795,449.0
11760.182,424.0
11764.886,430.0
11769.592,459.0
11774.3,443.0
11779.01,383.0
11783.722,428.0
11788.436,417.0
11793.151,409.0
11797.868,397.0
11802.587,423.0
11807.308,375.0
11812.03,413.0
11816.755,384.0
11821.481,420.0
11826.21,397.0
11830.94,348.0
11835.673,347.0
11840.407,340.0
11845.144,350.0
11849.882,371.0
11854.622,358.0
11859.364,337.0
11864.108,321.0
11868.8545,351.0
11873.602,293.0
11878.351,263.0
11883.102,304.0
11887.8545,303.0
11892.609,261.0
11897.366,284.0
11902.125,268.0
11906.886,285.0
11911.648,273.0
11916.413,250.0
11921.18,230.0
11925.948,246.0
11930.719,263.0
11935.491,244.0
11940.266,268.0
11945.042,234.0
11949.82,234.0
11954.601,220.0
11959.383,233.0
11964.167,248.0
11968.953,230.0
11973.74,218.0
11978.529,230.0
11983.32,239.0
11988.113,231.0
11992.908,253.0
