M/Z,Intensity
800.0,151.0
800.32,198.0
800.64014,79.0
800.9604,183.0
801.28076,194.0
801.60126,67.0
801.9219,133.0
802.2426,206.0
802.56354,68.0
802.8846,265.0
803.20575,166.0
803.52704,86.0
803.84845,140.0
804.17,200.0
804.49164,102.0
804.8134,83.0
805.1353,146.0
805.4574,147.0
805.7796,70.0
806.1019,178.0
806.4244,190.0
806.74695,67.0
807.06964,151.0
807.39246,157.0
807.7154,42.0
808.03845,119.0
808.3617,192.0
808.68506,69.0
809.00854,99.0
809.33215,219.0
809.6559,61.0
809.97974,98.0
810.3037,191.0
810.6278,80.0
810.9521,121.0
811.2765,165.0
811.601,73.0
811.92566,116.0
812.2504,163.0
812.5753,92.0
812.9003,117.0
813.22546,149.0
813.5508,71.0
813.8762,85.0
814.2018,162.0
814.52747,80.0
814.8533,99.0
815.1792,166.0
815.50525,112.0
815.8314,84.0
816.1578,171.0
816.48425,101.0
816.81085,122.0
817.1376,194.0
817.4644,117.0
817.7914,90.0
818.11847,166.0
818.44574,119.0
818.77313,88.0
819.10065,163.0
819.4283,106.0
819.75604,53.0
820.0839,155.0
820.412,149.0
820.7402,72.0
821.0685,151.0
821.3969,127.0
821.72546,61.0
822.05414,126.0
822.38293,126.0
822.7119,77.0
823.041,230.0
823.37024,133.0
823.6996,71.0
824.02905,226.0
824.35864,175.0
824.6884,288.0
825.0183,3127.0
825.3483,197.0
825.67847,132.0
826.0087,1434.0
826.3391,186.0
826.6696,87.0
827.0003,452.0
827.3311,164.0
827.66205,71.0
827.9931,160.0
828.3243,144.0
828.65564,59.0
828.9871,104.0
829.3187,183.0
829.65045,51.0
829.9823,97.0
830.3143,178.0
830.6464,53.0
830.9787,121.0
831.3111,141.0
831.6436,60.0
831.97626,103.0
832.309,181.0
832.64197,54.0
832.97504,108.0
833.3082,165.0
833.64154,64.0
833.975,113.0
834.3086,155.0
834.64233,75.0
834.9762,133.0
835.3102,167.0
835.6443,78.0
835.9785,126.0
836.3129,172.0
836.64746,53.0
836.9821,137.0
837.3169,172.0
837.6518,68.0
837.9869,96.0
838.3221,153.0
838.6574,89.0
838.99286,475.0
839.3284,161.0
839.6642,78.0
840.00006,238.0
840.33606,164.0
840.6722,119.0
841.0084,564.0
841.34485,160.0
841.6814,77.0
842.01807,349.0
842.35486,198.0
842.6918,90.0
843.0289,256.0
843.3661,183.0
843.7034,67.0
844.0409,135.0
844.37854,152.0
844.7163,110.0
845.0542,455.0
845.3922,191.0
845.73035,101.0
846.06866,294.0
846.4071,163.0
846.74567,91.0
847.08435,215.0
847.42316,113.0
847.76215,80.0
848.10126,185.0
848.4405,109.0
848.77985,57.0
849.1194,127.0
849.45905,133.0
849.7988,67.0
850.13873,143.0
850.47876,119.0
850.819,80.0
851.1593,160.0
851.49976,103.0
851.84033,61.0
852.1811,155.0
852.522,84.0
852.863,92.0
853.2041,167.0
853.5454,97.0
853.88684,79.0
854.2284,174.0
854.57007,81.0
854.9119,308.0
855.2539,162.0
855.596,79.0
855.93823,191.0
856.2806,164.0
856.6231,61.0
856.96576,199.0
857.30853,172.0
857.6514,79.0
857.9945,153.0
858.3377,145.0
858.681,58.0
859.0245,150.0
859.3681,158.0
859.71185,65.0
860.0557,146.0
860.3997,152.0
860.7439,644.0
861.0882,773.0
861.4326,146.0
861.77716,416.0
862.1219,325.0
862.46674,122.0
862.8117,244.0
863.15686,183.0
863.50214,104.0
863.84753,125.0
864.19305,157.0
864.53876,97.0
864.8846,109.0
865.2305,156.0
865.5766,89.0
865.92285,104.0
866.2692,162.0
866.6157,75.0
866.96234,226.0
867.30914,147.0
867.65607,68.0
868.0031,134.0
868.35034,147.0
868.6977,58.0
869.04517,98.0
869.39276,115.0
869.74054,54.0
870.08844,105.0
870.43646,113.0
870.7846,70.0
871.13293,111.0
871.4814,82.0
871.82996,81.0
872.1787,124.0
872.5276,88.0
872.8766,115.0
873.2257,153.0
873.575,55.0
873.92444,99.0
874.274,190.0
874.6237,70.0
874.9736,119.0
875.32355,155.0
875.6737,60.0
876.024,121.0
876.3744,155.0
876.7249,199.0
877.0756,215.0
877.42645,138.0
877.7774,160.0
878.12854,160.0
878.4798,98.0
878.8312,117.0
879.18274,136.0
879.5344,82.0
879.8862,102.0
880.23816,208.0
880.5903,62.0
880.9425,105.0
881.29486,157.0
881.6474,56.0
882.00006,90.0
882.35284,120.0
882.7058,85.0
883.0589,147.0
883.4121,117.0
883.7655,59.0
884.119,128.0
884.47266,119.0
884.8264,83.0
885.18036,124.0
885.5344,72.0
885.8886,85.0
886.243,127.0
886.5975,62.0
886.9521,83.0
887.3069,142.0
887.6618,54.0
888.01685,90.0
888.3721,132.0
888.7274,80.0
889.0829,99.0
889.43854,144.0
889.7943,70.0
890.1502,120.0
890.5063,128.0
890.8625,65.0
891.2188,160.0
891.5753,72.0
891.93195,83.0
892.2887,193.0
892.6456,60.0
893.0027,100.0
893.35986,164.0
893.7172,63.0
894.0747,119.0
894.4323,156.0
894.7901,90.0
895.148,127.0
895.50604,92.0
895.86426,87.0
896.2226,135.0
896.58105,67.0
896.9397,87.0
897.29846,125.0
897.6574,62.0
898.0165,76.0
898.3757,113.0
898.73505,69.0
899.09454,134.0
899.45416,115.0
899.81396,60.0
900.1739,131.0
900.53394,90.0
900.89417,69.0
901.2545,163.0
901.615,58.0
901.97565,98.0
902.3364,115.0
902.6974,51.0
903.0585,88.0
903.4197,120.0
903.78107,56.0
904.1426,153.0
904.5042,120.0
904.866,67.0
905.22797,147.0
905.5901,87.0
905.95233,94.0
906.3147,187.0
906.67725,53.0
907.0399,93.0
907.4027,117.0
907.7657,51.0
908.1288,111.0
908.49207,122.0
908.85547,82.0
909.219,134.0
909.5827,82.0
909.94653,73.0
910.3105,140.0
910.6746,68.0
911.0389,106.0
911.4033,111.0
911.7679,55.0
912.13257,133.0
912.49744,95.0
912.8624,69.0
913.2276,140.0
913.5929,77.0
913.9583,62.0
914.3239,115.0
914.68964,51.0
915.05554,108.0
915.4216,120.0
915.7877,62.0
916.15405,132.0
916.5205,96.0
916.88715,79.0
917.2539,159.0
917.6208,56.0
917.98785,57.0
918.35504,160.0
918.7224,52.0
919.0899,116.0
919.4575,113.0
919.8253,68.0
920.19324,147.0
920.56134,75.0
920.92957,71.0
921.2979,144.0
921.66644,45.0
922.0351,88.0
922.40393,133.0
922.7729,72.0
923.14197,111.0
923.5112,107.0
923.8806,66.0
924.2502,126.0
924.6199,77.0
924.98975,72.0
925.35974,126.0
925.72986,48.0
926.10016,103.0
926.4706,92.0
926.8412,78.0
927.2119,124.0
927.5828,71.0
927.95386,78.0
928.325,100.0
928.69635,68.0
929.0678,111.0
929.43945,147.0
929.8112,66.0
930.18317,126.0
930.55524,99.0
930.9274,65.0
931.2998,129.0
931.6723,60.0
932.045,81.0
932.4178,132.0
932.7908,47.0
933.1639,111.0
933.5372,104.0
933.9106,65.0
934.2841,143.0
934.65784,58.0
935.0317,97.0
935.4057,123.0
935.77985,61.0
936.1542,105.0
936.5286,95.0
936.90326,51.0
937.278,152.0
937.65295,47.0
938.028,78.0
938.4032,108.0
938.77856,61.0
939.15405,97.0
939.5297,69.0
939.9055,82.0
940.2815,123.0
940.6576,70.0
941.0339,91.0
941.4103,103.0
941.78687,73.0
942.1636,125.0
942.54047,82.0
942.9175,76.0
943.2947,112.0
943.672,62.0
944.04944,93.0
944.42706,112.0
944.8048,59.0
945.18274,123.0
945.5608,78.0
945.939,91.0
946.3174,121.0
946.6959,67.0
947.0746,109.0
947.4534,114.0
947.8324,70.0
948.21155,146.0
948.5908,75.0
948.9703,74.0
949.34985,123.0
949.7296,46.0
950.1095,106.0
950.48956,109.0
950.86975,59.0
951.2501,128.0
951.6306,76.0
952.0113,63.0
952.3921,117.0
952.7731,51.0
953.1542,99.0
953.53546,91.0
953.9169,63.0
954.29846,153.0
954.6802,64.0
955.0621,81.0
955.4441,128.0
955.8263,58.0
956.2086,137.0
956.5911,71.0
956.97375,65.0
957.35657,122.0
957.7395,51.0
958.1226,83.0
958.50586,99.0
958.8893,61.0
959.2728,127.0
959.65656,74.0
960.0404,91.0
960.42444,115.0
960.8086,50.0
961.19293,118.0
961.5774,71.0
961.96204,89.0
962.3468,139.0
962.73175,52.0
963.1168,87.0
963.5021,93.0
963.88745,81.0
964.273,138.0
964.6587,48.0
965.04456,90.0
965.4306,137.0
965.8168,66.0
966.2031,134.0
966.5896,72.0
966.97626,71.0
967.36304,112.0
967.75,55.0
968.1371,121.0
968.52435,108.0
968.91174,79.0
969.2993,125.0
969.687,57.0
970.0749,157.0
970.4629,181.0
970.8511,89.0
971.23944,143.0
971.6279,95.0
972.0166,85.0
972.4054,138.0
972.7944,70.0
973.1835,150.0
973.57275,90.0
973.96216,84.0
974.35175,133.0
974.7415,49.0
975.1314,92.0
975.5215,104.0
975.9117,65.0
976.30206,131.0
976.69257,66.0
977.08325,93.0
977.47406,124.0
977.86505,51.0
978.2562,144.0
978.6475,57.0
979.039,98.0
979.4306,117.0
979.8224,65.0
980.2143,114.0
980.6064,78.0
980.99866,84.0
981.39105,128.0
981.7836,69.0
982.17633,112.0
982.5692,83.0
982.9622,92.0
983.3554,123.0
983.7488,54.0
984.1423,92.0
984.53595,96.0
984.92975,97.0
985.3237,115.0
985.71783,76.0
986.1121,124.0
986.5066,95.0
986.9012,95.0
987.29596,139.0
987.69086,66.0
988.08594,119.0
988.4812,119.0
988.8766,74.0
989.27216,129.0
989.66785,68.0
990.0637,108.0
990.4597,109.0
990.8559,66.0
991.25226,128.0
991.64874,53.0
992.0454,117.0
992.4422,105.0
992.8392,97.0
993.2363,119.0
993.6336,78.0
994.03107,120.0
994.42865,118.0
994.8264,71.0
995.22437,136.0
995.62244,69.0
996.0207,105.0
996.4191,107.0
996.8177,59.0
997.21643,129.0
997.6153,75.0
998.01434,89.0
998.4136,114.0
998.8129,69.0
999.21246,128.0
999.6121,86.0
1000.01196,71.0
1000.412,123.0
1000.81213,72.0
1001.21246,126.0
1001.613,77.0
1002.0136,101.0
1002.4144,128.0
1002.81537,56.0
1003.2165,125.0
1003.6178,53.0
1004.0192,90.0
1004.42084,147.0
1004.82263,69.0
1005.22455,141.0
1005.62665,98.0
1006.0289,121.0
1006.4313,111.0
1006.83386,89.0
1007.2366,152.0
1007.63947,70.0
1008.04254,138.0
1008.44574,117.0
1008.8491,89.0
1009.2527,156.0
1009.6564,84.0
1010.06024,118.0
1010.4643,108.0
1010.86847,81.0
1011.2728,116.0
1011.6773,59.0
1012.082,140.0
1012.4868,135.0
1012.8918,70.0
1013.29694,124.0
1013.7023,86.0
1014.1077,217.0
1014.51337,93.0
1014.9192,158.0
1015.32513,142.0
1015.73126,76.0
1016.1376,115.0
1016.544,124.0
1016.9506,107.0
1017.3574,136.0
1017.76434,62.0
1018.17145,132.0
1018.57874,77.0
1018.98615,85.0
1019.39374,124.0
1019.8015,77.0
1020.2094,103.0
1020.6175,81.0
1021.02576,81.0
1021.43414,168.0
1021.8427,80.0
1022.25146,123.0
1022.66034,83.0
1023.0694,94.0
1023.47864,124.0
1023.888,79.0
1024.2976,122.0
1024.7073,56.0
1025.1172,103.0
1025.5272,110.0
1025.9374,80.0
1026.3478,141.0
1026.7583,69.0
1027.169,109.0
1027.5798,84.0
1027.9908,143.0
1028.4021,96.0
1028.8135,99.0
1029.225,148.0
1029.6367,97.0
1030.0486,235.0
1030.4606,130.0
1030.8728,142.0
1031.2852,139.0
1031.6976,74.0
1032.1104,118.0
1032.5232,124.0
1032.9362,94.0
1033.3494,131.0
1033.7627,109.0
1034.1761,122.0
1034.5898,85.0
1035.0037,125.0
1035.4177,110.0
1035.8319,132.0
1036.2462,148.0
1036.6608,81.0
1037.0754,95.0
1037.4902,101.0
1037.9053,81.0
1038.3204,126.0
1038.7357,56.0
1039.1512,98.0
1039.5669,106.0
1039.9827,88.0
1040.3987,123.0
1040.8148,60.0
1041.2312,114.0
1041.6477,69.0
1042.0643,88.0
1042.4812,114.0
1042.8982,69.0
1043.3153,132.0
1043.7327,118.0
1044.1501,127.0
1044.5677,82.0
1044.9856,119.0
1045.4036,127.0
1045.8218,91.0
1046.2401,140.0
1046.6586,87.0
1047.0773,104.0
1047.4961,105.0
1047.915,89.0
1048.3342,152.0
1048.7535,59.0
1049.1731,103.0
1049.5928,118.0
1050.0126,269.0
1050.4326,136.0
1050.8528,185.0
1051.2731,127.0
1051.6936,111.0
1052.1143,164.0
1052.5352,101.0
1052.9562,105.0
1053.3773,124.0
1053.7987,125.0
1054.2202,125.0
1054.6418,93.0
1055.0637,127.0
1055.4857,106.0
1055.908,124.0
1056.3303,146.0
1056.7528,79.0
1057.1755,137.0
1057.5984,125.0
1058.0215,100.0
1058.4447,142.0
1058.868,93.0
1059.2916,140.0
1059.7153,82.0
1060.1392,111.0
1060.5632,136.0
1060.9874,97.0
1061.4119,152.0
1061.8364,75.0
1062.2611,142.0
1062.686,74.0
1063.1111,97.0
1063.5364,115.0
1063.9618,64.0
1064.3873,102.0
1064.8131,76.0
1065.239,118.0
1065.6652,172.0
1066.0914,257.0
1066.5178,115.0
1066.9445,211.0
1067.3712,142.0
1067.7982,130.0
1068.2253,118.0
1068.6526,89.0
1069.0801,119.0
1069.5077,99.0
1069.9355,99.0
1070.3635,145.0
1070.7916,76.0
1071.22,135.0
1071.6484,121.0
1072.0771,165.0
1072.506,113.0
1072.9349,139.0
1073.3641,130.0
1073.7935,109.0
1074.223,133.0
1074.6527,95.0
1075.0825,91.0
1075.5126,122.0
1075.9427,87.0
1076.3732,122.0
1076.8037,75.0
1077.2344,112.0
1077.6653,80.0
1078.0963,133.0
1078.5276,121.0
1078.959,105.0
1079.3906,128.0
1079.8224,86.0
1080.2543,109.0
1080.6864,82.0
1081.1187,92.0
1081.5511,88.0
1081.9838,132.0
1082.4165,79.0
1082.8495,88.0
1083.2826,115.0
1083.716,75.0
1084.1494,88.0
1084.5831,111.0
1085.017,90.0
1085.4509,120.0
1085.8851,67.0
1086.3195,113.0
1086.754,57.0
1087.1887,79.0
1087.6235,98.0
1088.0586,117.0
1088.4938,111.0
1088.9292,84.0
1089.3647,102.0
1089.8005,83.0
1090.2365,140.0
1090.6725,93.0
1091.1088,140.0
1091.5452,106.0
1091.9818,95.0
1092.4186,104.0
1092.8556,42.0
1093.2927,117.0
1093.7301,94.0
1094.1676,104.0
1094.6052,116.0
1095.0431,92.0
1095.4811,114.0
1095.9193,100.0
1096.3577,136.0
1096.7963,75.0
1097.235,118.0
1097.6738,76.0
1098.1129,91.0
1098.5521,116.0
1098.9916,81.0
1099.4312,133.0
1099.871,107.0
1100.3109,128.0
1100.751,81.0
1101.1913,110.0
1101.6317,58.0
1102.0724,99.0
1102.5132,94.0
1102.9542,79.0
1103.3954,129.0
1103.8368,74.0
1104.2783,150.0
1104.72,77.0
1105.1619,90.0
1105.6039,119.0
1106.0461,85.0
1106.4885,119.0
1106.9312,87.0
1107.3739,127.0
1107.8169,76.0
1108.26,122.0
1108.7034,74.0
1109.1469,94.0
1109.5905,87.0
1110.0343,94.0
1110.4783,116.0
1110.9225,79.0
1111.3668,104.0
1111.8114,70.0
1112.2561,122.0
1112.701,68.0
1113.1461,104.0
1113.5914,102.0
1114.0369,70.0
1114.4824,84.0
1114.9282,77.0
1115.3741,130.0
1115.8203,72.0
1116.2666,124.0
1116.7131,62.0
1117.1598,106.0
1117.6067,79.0
1118.0537,83.0
1118.501,106.0
1118.9484,79.0
1119.396,116.0
1119.8438,67.0
1120.2917,137.0
1120.7399,60.0
1121.1881,108.0
1121.6366,85.0
1122.0852,84.0
1122.534,101.0
1122.983,91.0
1123.4323,95.0
1123.8816,57.0
1124.3312,102.0
1124.7809,67.0
1125.2308,91.0
1125.6809,77.0
1126.1312,90.0
1126.5817,99.0
1127.0323,82.0
1127.4832,111.0
1127.9342,60.0
1128.3854,125.0
1128.8367,52.0
1129.2882,108.0
1129.7399,74.0
1130.1918,91.0
1130.6438,101.0
1131.0961,94.0
1131.5485,121.0
1132.0011,90.0
1132.4539,127.0
1132.9069,55.0
1133.36,127.0
1133.8134,67.0
1134.2668,140.0
1134.7206,87.0
1135.1744,97.0
1135.6285,74.0
1136.0828,90.0
1136.5372,114.0
1136.9918,87.0
1137.4467,130.0
1137.9016,69.0
1138.3568,116.0
1138.8121,72.0
1139.2677,107.0
1139.7234,84.0
1140.1793,104.0
1140.6354,87.0
1141.0917,67.0
1141.5481,105.0
1142.0048,72.0
1142.4615,125.0
1142.9186,64.0
1143.3757,103.0
1143.8331,72.0
1144.2906,136.0
1144.7484,74.0
1145.2063,119.0
1145.6644,95.0
1146.1227,94.0
1146.5812,99.0
1147.0398,82.0
1147.4987,118.0
1147.9576,92.0
1148.4169,157.0
1148.8762,73.0
1149.3358,151.0
1149.7955,72.0
1150.2555,93.0
1150.7156,89.0
1151.1759,88.0
1151.6364,94.0
1152.097,76.0
1152.5579,113.0
1153.0189,86.0
1153.4801,126.0
1153.9415,88.0
1154.4031,113.0
1154.8649,78.0
1155.3268,119.0
1155.789,61.0
1156.2512,140.0
1156.7137,77.0
1157.1764,107.0
1157.6393,96.0
1158.1023,84.0
1158.5656,109.0
1159.0289,94.0
1159.4926,126.0
1159.9563,79.0
1160.4203,106.0
1160.8844,75.0
1161.3488,128.0
1161.8134,54.0
1162.2781,92.0
1162.743,77.0
1163.2081,121.0
1163.6735,84.0
1164.1389,97.0
1164.6046,109.0
1165.0704,86.0
1165.5365,120.0
1166.0027,73.0
1166.4691,131.0
1166.9357,83.0
1167.4025,147.0
1167.8694,68.0
1168.3365,131.0
1168.8038,92.0
1169.2714,112.0
1169.739,91.0
1170.2069,116.0
1170.675,106.0
1171.1433,102.0
1171.6118,105.0
1172.0804,83.0
1172.5493,105.0
1173.0183,81.0
1173.4875,117.0
1173.9569,61.0
1174.4265,138.0
1174.8962,82.0
1175.3662,126.0
1175.8363,79.0
1176.3066,146.0
1176.7772,79.0
1177.2479,110.0
1177.7189,86.0
1178.19,115.0
1178.6613,81.0
1179.1327,83.0
1179.6044,86.0
1180.0762,96.0
1180.5482,116.0
1181.0204,94.0
1181.4928,124.0
1181.9655,84.0
1182.4382,121.0
1182.9113,78.0
1183.3844,125.0
1183.8578,85.0
1184.3313,128.0
1184.805,70.0
1185.2789,114.0
1185.753,97.0
1186.2273,106.0
1186.7018,96.0
1187.1765,98.0
1187.6514,96.0
1188.1265,84.0
1188.6017,91.0
1189.0771,83.0
1189.5527,117.0
1190.0286,61.0
1190.5045,108.0
1190.9807,76.0
1191.4572,119.0
1191.9337,70.0
1192.4105,122.0
1192.8875,73.0
1193.3646,130.0
1193.8419,76.0
1194.3195,106.0
1194.7972,66.0
1195.2751,104.0
1195.7533,81.0
1196.2316,125.0
1196.7101,88.0
1197.1887,103.0
1197.6676,111.0
1198.1467,95.0
1198.626,96.0
1199.1055,81.0
1199.5851,115.0
1200.065,80.0
1200.5449,103.0
1201.0251,69.0
1201.5056,113.0
1201.9862,75.0
1202.467,117.0
1202.948,85.0
1203.4292,104.0
1203.9105,74.0
1204.3921,117.0
1204.8739,77.0
1205.3558,126.0
1205.838,73.0
1206.3203,105.0
1206.8029,74.0
1207.2855,114.0
1207.7684,73.0
1208.2516,102.0
1208.7349,76.0
1209.2184,82.0
1209.702,115.0
1210.1859,94.0
1210.67,104.0
1211.1543,78.0
1211.6388,98.0
1212.1234,87.0
1212.6083,107.0
1213.0933,96.0
1213.5785,104.0
1214.064,85.0
1214.5496,113.0
1215.0354,93.0
1215.5214,90.0
1216.0076,74.0
1216.494,127.0
1216.9806,82.0
1217.4674,90.0
1217.9543,73.0
1218.4415,110.0
1218.929,93.0
1219.4165,136.0
1219.9043,85.0
1220.3922,105.0
1220.8804,78.0
1221.3688,115.0
1221.8573,81.0
1222.3461,115.0
1222.835,82.0
1223.3241,110.0
1223.8135,87.0
1224.303,107.0
1224.7927,80.0
1225.2826,105.0
1225.7727,74.0
1226.2631,104.0
1226.7535,80.0
1227.2443,95.0
1227.7351,94.0
1228.2262,90.0
1228.7175,86.0
1229.209,110.0
1229.7007,86.0
1230.1925,86.0
1230.6846,81.0
1231.1769,96.0
1231.6693,77.0
1232.162,113.0
1232.6549,83.0
1233.148,91.0
1233.6412,102.0
1234.1346,90.0
1234.6283,104.0
1235.1222,106.0
1235.6162,111.0
1236.1105,96.0
1236.6049,101.0
1237.0995,74.0
1237.5944,90.0
1238.0894,81.0
1238.5846,83.0
1239.0801,115.0
1239.5757,91.0
1240.0715,91.0
1240.5675,118.0
1241.0637,109.0
1241.5602,100.0
1242.0568,111.0
1242.5536,108.0
1243.0507,90.0
1243.5479,135.0
1244.0453,96.0
1244.5428,112.0
1245.0406,78.0
1245.5387,100.0
1246.0369,84.0
1246.5353,138.0
1247.0339,95.0
1247.5327,119.0
1248.0317,72.0
1248.531,116.0
1249.0304,102.0
1249.53,97.0
1250.0298,87.0
1250.5298,105.0
1251.03,73.0
1251.5304,122.0
1252.031,71.0
1252.5319,91.0
1253.0328,85.0
1253.534,91.0
1254.0355,79.0
1254.5371,124.0
1255.039,126.0
1255.541,107.0
1256.0432,106.0
1256.5457,111.0
1257.0482,82.0
1257.551,90.0
1258.0541,75.0
1258.5573,108.0
1259.0607,80.0
1259.5643,93.0
1260.0681,71.0
1260.5721,124.0
1261.0764,116.0
1261.5808,117.0
1262.0854,101.0
1262.5903,121.0
1263.0953,130.0
1263.6006,103.0
1264.1061,110.0
1264.6117,119.0
1265.1176,105.0
1265.6237,110.0
1266.1299,80.0
1266.6364,82.0
1267.1431,114.0
1267.6499,104.0
1268.157,110.0
1268.6642,97.0
1269.1716,91.0
1269.6793,97.0
1270.1871,102.0
1270.6952,100.0
1271.2035,98.0
1271.7119,83.0
1272.2206,98.0
1272.7295,82.0
1273.2385,83.0
1273.7478,96.0
1274.2573,88.0
1274.767,98.0
1275.2769,105.0
1275.787,82.0
1276.2972,86.0
1276.8077,155.0
1277.3185,118.0
1277.8295,137.0
1278.3406,105.0
1278.8519,139.0
1279.3635,119.0
1279.8752,102.0
1280.3872,103.0
1280.8994,76.0
1281.4117,124.0
1281.9243,87.0
1282.4371,102.0
1282.9501,112.0
1283.4633,99.0
1283.9767,81.0
1284.4902,126.0
1285.004,101.0
1285.5181,104.0
1286.0322,112.0
1286.5466,104.0
1287.0613,93.0
1287.576,125.0
1288.0911,82.0
1288.6063,113.0
1289.1218,84.0
1289.6375,124.0
1290.1533,87.0
1290.6694,116.0
1291.1857,107.0
1291.7021,108.0
1292.2189,111.0
1292.7357,96.0
1293.2528,106.0
1293.7701,96.0
1294.2876,109.0
1294.8053,76.0
1295.3232,98.0
1295.8414,68.0
1296.3597,93.0
1296.8783,79.0
1297.3971,103.0
1297.916,70.0
1298.4352,116.0
1298.9546,89.0
1299.4741,103.0
1299.9939,89.0
1300.5139,109.0
1301.0342,76.0
1301.5546,132.0
1302.0752,93.0
1302.5961,125.0
1303.1171,88.0
1303.6383,121.0
1304.1598,79.0
1304.6814,95.0
1305.2032,122.0
1305.7253,95.0
1306.2477,92.0
1306.7701,91.0
1307.2928,112.0
1307.8158,93.0
1308.3389,95.0
1308.8622,75.0
1309.3857,106.0
1309.9095,63.0
1310.4335,110.0
1310.9576,72.0
1311.482,113.0
1312.0066,74.0
1312.5314,125.0
1313.0564,85.0
1313.5817,110.0
1314.107,84.0
1314.6327,88.0
1315.1586,77.0
1315.6847,100.0
1316.2109,112.0
1316.7374,97.0
1317.2642,87.0
1317.791,73.0
1318.3181,105.0
1318.8455,73.0
1319.373,105.0
1319.9008,64.0
1320.4287,85.0
1320.9569,73.0
1321.4854,108.0
1322.0139,77.0
1322.5427,110.0
1323.0718,80.0
1323.601,107.0
1324.1304,86.0
1324.66,98.0
1325.19,93.0
1325.72,100.0
1326.2502,91.0
1326.7808,78.0
1327.3115,97.0
1327.8424,86.0
1328.3735,105.0
1328.9049,68.0
1329.4365,120.0
1329.9683,77.0
1330.5002,104.0
1331.0325,91.0
1331.565,119.0
1332.0975,91.0
1332.6304,98.0
1333.1635,97.0
1333.6968,99.0
1334.2302,116.0
1334.7639,95.0
1335.2979,120.0
1335.832,72.0
1336.3663,109.0
1336.9009,76.0
1337.4357,91.0
1337.9707,73.0
1338.5059,104.0
1339.0413,85.0
1339.5769,102.0
1340.1128,79.0
1340.6488,85.0
1341.185,103.0
1341.7216,90.0
1342.2583,94.0
1342.7952,87.0
1343.3323,103.0
1343.8696,65.0
1344.4072,118.0
1344.945,78.0
1345.4829,120.0
1346.0211,87.0
1346.5596,121.0
1347.0981,88.0
1347.637,112.0
1348.176,104.0
1348.7153,105.0
1349.2548,96.0
1349.7944,105.0
1350.3344,104.0
1350.8745,93.0
1351.4149,97.0
1351.9554,73.0
1352.4962,97.0
1353.0372,61.0
1353.5785,104.0
1354.1199,93.0
1354.6615,90.0
1355.2034,80.0
1355.7455,113.0
1356.2878,100.0
1356.8303,80.0
1357.373,103.0
1357.916,71.0
1358.4592,116.0
1359.0026,68.0
1359.5461,101.0
1360.09,84.0
1360.634,121.0
1361.1783,97.0
1361.7228,96.0
1362.2675,125.0
1362.8124,99.0
1363.3575,110.0
1363.9028,83.0
1364.4484,117.0
1364.9941,75.0
1365.5402,96.0
1366.0864,82.0
1366.6328,101.0
1367.1794,70.0
1367.7263,102.0
1368.2734,92.0
1368.8208,77.0
1369.3683,108.0
1369.916,89.0
1370.464,112.0
1371.0122,83.0
1371.5607,119.0
1372.1093,87.0
1372.6581,98.0
1373.2072,95.0
1373.7565,98.0
1374.306,113.0
1374.8557,73.0
1375.4056,116.0
1375.9558,82.0
1376.5062,118.0
1377.0569,77.0
1377.6077,121.0
1378.1587,89.0
1378.71,101.0
1379.2615,92.0
1379.8132,94.0
1380.3651,104.0
1380.9172,66.0
1381.4696,98.0
1382.0222,78.0
1382.5751,98.0
1383.128,71.0
1383.6813,106.0
1384.2347,102.0
1384.7885,78.0
1385.3424,108.0
1385.8965,80.0
1386.4508,114.0
1387.0054,68.0
1387.5602,95.0
1388.1152,88.0
1388.6705,112.0
1389.226,129.0
1389.7816,111.0
1390.3375,116.0
1390.8937,76.0
1391.4501,122.0
1392.0067,98.0
1392.5635,105.0
1393.1205,114.0
1393.6777,102.0
1394.2352,97.0
1394.793,76.0
1395.3508,110.0
1395.9089,83.0
1396.4673,111.0
1397.0259,98.0
1397.5847,111.0
1398.1438,68.0
1398.703,112.0
1399.2625,102.0
1399.8221,102.0
1400.3821,125.0
1400.9423,91.0
1401.5027,119.0
1402.0632,80.0
1402.624,118.0
1403.185,87.0
1403.7463,106.0
1404.3079,105.0
1404.8696,92.0
1405.4315,149.0
1405.9937,85.0
1406.556,146.0
1407.1187,105.0
1407.6815,109.0
1408.2446,97.0
1408.808,103.0
1409.3715,113.0
1409.9352,74.0
1410.4991,86.0
1411.0634,89.0
1411.6278,97.0
1412.1925,95.0
1412.7573,109.0
1413.3224,115.0
1413.8877,82.0
1414.4532,133.0
1415.019,87.0
1415.5851,125.0
1416.1514,82.0
1416.7178,110.0
1417.2844,101.0
1417.8513,83.0
1418.4185,114.0
1418.9858,97.0
1419.5535,127.0
1420.1213,82.0
1420.6893,130.0
1421.2576,84.0
1421.826,93.0
1422.3948,131.0
1422.9637,77.0
1423.533,134.0
1424.1024,86.0
1424.672,129.0
1425.2418,95.0
1425.8119,88.0
1426.3822,132.0
1426.9528,78.0
1427.5236,117.0
1428.0946,98.0
1428.6659,89.0
1429.2373,104.0
1429.809,98.0
1430.3809,131.0
1430.953,73.0
1431.5254,120.0
1432.098,81.0
1432.6709,134.0
1433.244,106.0
1433.8173,124.0
1434.3907,117.0
1434.9645,67.0
1435.5385,131.0
1436.1127,97.0
1436.6871,106.0
1437.2618,92.0
1437.8368,108.0
1438.412,105.0
1438.9873,89.0
1439.5629,106.0
1440.1387,80.0
1440.7147,97.0
1441.291,105.0
1441.8676,86.0
1442.4443,91.0
1443.0214,77.0
1443.5985,105.0
1444.1759,98.0
1444.7535,100.0
1445.3314,129.0
1445.9095,85.0
1446.4879,106.0
1447.0665,73.0
1447.6454,118.0
1448.2245,102.0
1448.8038,95.0
1449.3833,130.0
1449.963,78.0
1450.543,130.0
1451.1232,106.0
1451.7036,125.0
1452.2843,104.0
1452.8652,93.0
1453.4464,133.0
1454.0278,103.0
1454.6095,146.0
1455.1913,98.0
1455.7733,111.0
1456.3556,119.0
1456.9381,100.0
1457.5209,130.0
1458.1039,92.0
1458.6871,103.0
1459.2706,87.0
1459.8544,93.0
1460.4384,92.0
1461.0226,83.0
1461.6069,134.0
1462.1915,100.0
1462.7764,102.0
1463.3615,123.0
1463.9468,87.0
1464.5323,113.0
1465.1182,72.0
1465.7042,95.0
1466.2905,102.0
1466.8771,92.0
1467.4639,96.0
1468.0509,83.0
1468.6382,107.0
1469.2256,105.0
1469.8132,103.0
1470.4011,111.0
1470.9893,66.0
1471.5776,131.0
1472.1663,91.0
1472.7551,115.0
1473.3442,111.0
1473.9336,94.0
1474.5232,116.0
1475.113,84.0
1475.7031,110.0
1476.2935,94.0
1476.884,115.0
1477.4747,121.0
1478.0657,93.0
1478.6569,99.0
1479.2483,83.0
1479.84,88.0
1480.4319,115.0
1481.024,83.0
1481.6165,105.0
1482.2091,88.0
1482.802,90.0
1483.3951,110.0
1483.9885,60.0
1484.5822,114.0
1485.176,92.0
1485.7701,101.0
1486.3645,114.0
1486.9591,88.0
1487.5538,126.0
1488.1488,96.0
1488.744,105.0
1489.3395,94.0
1489.9352,82.0
1490.5311,122.0
1491.1273,89.0
1491.7238,105.0
1492.3204,106.0
1492.9174,84.0
1493.5145,91.0
1494.1119,86.0
1494.7096,94.0
1495.3075,132.0
1495.9056,116.0
1496.504,143.0
1497.1027,81.0
1497.7015,121.0
1498.3007,95.0
1498.9,90.0
1499.4996,113.0
1500.0995,73.0
1500.6996,98.0
1501.2998,111.0
1501.9003,90.0
1502.501,115.0
1503.1019,80.0
1503.7031,117.0
1504.3046,110.0
1504.9062,74.0
1505.5082,113.0
1506.1104,84.0
1506.7128,107.0
1507.3154,107.0
1507.9183,80.0
1508.5215,119.0
1509.1249,68.0
1509.7285,111.0
1510.3324,97.0
1510.9365,82.0
1511.5409,114.0
1512.1455,121.0
1512.7504,339.0
1513.3555,218.0
1513.9608,138.0
1514.5664,192.0
1515.1722,83.0
1515.7783,125.0
1516.3846,116.0
1516.9912,82.0
1517.598,117.0
1518.2051,94.0
1518.8124,89.0
1519.4199,109.0
1520.0277,62.0
1520.6357,128.0
1521.244,75.0
1521.8525,77.0
1522.4613,100.0
1523.0703,56.0
1523.6796,103.0
1524.2891,84.0
1524.8988,87.0
1525.5088,132.0
1526.119,80.0
1526.7295,110.0
1527.3402,99.0
1527.9512,80.0
1528.5624,104.0
1529.1738,75.0
1529.7855,90.0
1530.3975,82.0
1531.0096,74.0
1531.6221,100.0
1532.2347,86.0
1532.8477,89.0
1533.4608,119.0
1534.0742,71.0
1534.6879,127.0
1535.3018,95.0
1535.9159,85.0
1536.5303,99.0
1537.1449,63.0
1537.7598,98.0
1538.3749,78.0
1538.9902,81.0
1539.6058,106.0
1540.2217,93.0
1540.8378,100.0
1541.4541,105.0
1542.0707,89.0
1542.6875,110.0
1543.3046,92.0
1543.9219,83.0
1544.5394,125.0
1545.1572,79.0
1545.7753,103.0
1546.3936,111.0
1547.0121,74.0
1547.6309,91.0
1548.2499,81.0
1548.8691,81.0
1549.4886,93.0
1550.1084,73.0
1550.7284,107.0
1551.3486,104.0
1551.9691,65.0
1552.5898,124.0
1553.2109,84.0
1553.8323,96.0
1554.4539,109.0
1555.0757,88.0
1555.6978,96.0
1556.3201,97.0
1556.9426,76.0
1557.5654,109.0
1558.1885,76.0
1558.8118,110.0
1559.4353,127.0
1560.0591,76.0
1560.6831,103.0
1561.3074,97.0
1561.9319,66.0
1562.5566,105.0
1563.1816,82.0
1563.8069,104.0
1564.4324,82.0
1565.0581,58.0
1565.6841,105.0
1566.3103,84.0
1566.9368,68.0
1567.5636,109.0
1568.1907,83.0
1568.818,84.0
1569.4456,100.0
1570.0734,64.0
1570.7014,95.0
1571.3297,73.0
1571.9583,78.0
1572.587,105.0
1573.2161,82.0
1573.8453,103.0
1574.4749,95.0
1575.1046,88.0
1575.7346,104.0
1576.3649,89.0
1576.9954,88.0
1577.6261,99.0
1578.2572,91.0
1578.8885,84.0
1579.5201,97.0
1580.152,67.0
1580.784,97.0
1581.4164,93.0
1582.049,73.0
1582.6818,95.0
1583.3148,111.0
1583.9481,92.0
1584.5817,94.0
1585.2155,83.0
1585.8495,112.0
1586.4839,117.0
1587.1185,88.0
1587.7534,98.0
1588.3885,110.0
1589.0239,92.0
1589.6595,101.0
1590.2954,103.0
1590.9315,86.0
1591.5679,103.0
1592.2045,79.0
1592.8413,72.0
1593.4784,103.0
1594.1158,74.0
1594.7535,106.0
1595.3915,107.0
1596.0297,80.0
1596.6681,118.0
1597.3068,113.0
1597.9457,71.0
1598.5848,106.0
1599.2242,81.0
1599.8639,86.0
1600.5038,95.0
1601.144,78.0
1601.7845,107.0
1602.4253,135.0
1603.0663,100.0
1603.7075,122.0
1604.349,114.0
1604.9907,89.0
1605.6327,105.0
1606.2749,87.0
1606.9174,88.0
1607.5602,109.0
1608.2032,85.0
1608.8466,100.0
1609.4901,124.0
1610.1339,78.0
1610.778,95.0
1611.4222,95.0
1612.0668,56.0
1612.7115,108.0
1613.3567,111.0
1614.0021,83.0
1614.6477,117.0
1615.2936,93.0
1615.9397,85.0
1616.586,104.0
1617.2327,85.0
1617.8795,87.0
1618.5266,105.0
1619.1741,85.0
1619.8218,88.0
1620.4697,119.0
1621.1179,80.0
1621.7664,105.0
1622.415,96.0
1623.064,64.0
1623.7131,103.0
1624.3627,89.0
1625.0125,101.0
1625.6625,89.0
1626.3127,90.0
1626.9633,66.0
1627.614,93.0
1628.265,97.0
1628.9163,96.0
1629.5679,115.0
1630.2197,85.0
1630.8718,124.0
1631.5242,120.0
1632.1768,75.0
1632.8296,89.0
1633.4827,126.0
1634.1361,69.0
1634.7898,101.0
1635.4437,83.0
1636.0979,74.0
1636.7523,103.0
1637.407,90.0
1638.0619,76.0
1638.7172,93.0
1639.3727,102.0
1640.0284,105.0
1640.6844,90.0
1641.3407,96.0
1641.9972,93.0
1642.6539,108.0
1643.311,82.0
1643.9684,75.0
1644.626,171.0
1645.2838,136.0
1645.9419,101.0
1646.6002,113.0
1647.2589,104.0
1647.9178,128.0
1648.577,117.0
1649.2365,71.0
1649.8961,91.0
1650.556,108.0
1651.2163,74.0
1651.8768,104.0
1652.5376,106.0
1653.1986,67.0
1653.8599,90.0
1654.5214,108.0
1655.1832,67.0
1655.8453,99.0
1656.5077,105.0
1657.1703,89.0
1657.8331,99.0
1658.4962,113.0
1659.1597,68.0
1659.8234,88.0
1660.4873,101.0
1661.1515,66.0
1661.8159,103.0
1662.4806,100.0
1663.1456,66.0
1663.8109,115.0
1664.4764,105.0
1665.1422,84.0
1665.8082,104.0
1666.4746,91.0
1667.1412,72.0
1667.8081,100.0
1668.4752,121.0
1669.1426,75.0
1669.8102,72.0
1670.4781,110.0
1671.1464,70.0
1671.8148,101.0
1672.4835,117.0
1673.1525,78.0
1673.8218,108.0
1674.4913,126.0
1675.1611,88.0
1675.8312,96.0
1676.5015,103.0
1677.1721,78.0
1677.843,82.0
1678.5142,88.0
1679.1855,90.0
1679.8572,94.0
1680.5292,98.0
1681.2014,66.0
1681.8739,72.0
1682.5466,93.0
1683.2196,72.0
1683.893,99.0
1684.5665,110.0
1685.2404,85.0
1685.9144,110.0
1686.5887,92.0
1687.2634,79.0
1687.9384,82.0
1688.6135,102.0
1689.289,81.0
1689.9646,75.0
1690.6406,90.0
1691.3169,79.0
1691.9934,74.0
1692.6702,94.0
1693.3473,82.0
1694.0247,68.0
1694.7023,87.0
1695.3801,88.0
1696.0582,74.0
1696.7367,92.0
1697.4154,92.0
1698.0944,69.0
1698.7736,104.0
1699.4531,96.0
1700.1329,68.0
1700.813,100.0
1701.4933,123.0
1702.1738,73.0
1702.8547,103.0
1703.5359,111.0
1704.2173,74.0
1704.8989,87.0
1705.5809,99.0
1706.2632,91.0
1706.9457,98.0
1707.6284,87.0
1708.3115,80.0
1708.9949,79.0
1709.6785,97.0
1710.3623,111.0
1711.0465,77.0
1711.731,74.0
1712.4156,93.0
1713.1006,79.0
1713.7858,113.0
1714.4713,102.0
1715.1571,56.0
1715.8431,96.0
1716.5294,74.0
1717.2161,67.0
1717.903,71.0
1718.5901,96.0
1719.2775,82.0
1719.9652,69.0
1720.6532,89.0
1721.3414,91.0
1722.0299,84.0
1722.7188,102.0
1723.4078,102.0
1724.0972,78.0
1724.7869,76.0
1725.4768,90.0
1726.167,71.0
1726.8574,94.0
1727.5482,112.0
1728.2393,85.0
1728.9305,86.0
1729.6221,104.0
1730.314,83.0
1731.0061,92.0
1731.6985,83.0
1732.3911,84.0
1733.0841,71.0
1733.7773,98.0
1734.4708,87.0
1735.1647,45.0
1735.8588,76.0
1736.5531,98.0
1737.2477,83.0
1737.9426,99.0
1738.6378,92.0
1739.3333,79.0
1740.0289,64.0
1740.725,97.0
1741.4213,95.0
1742.1178,65.0
1742.8147,83.0
1743.5118,99.0
1744.2092,64.0
1744.9069,93.0
1745.6049,69.0
1746.3031,81.0
1747.0016,62.0
1747.7004,94.0
1748.3995,79.0
1749.0989,59.0
1749.7985,88.0
1750.4984,87.0
1751.1986,66.0
1751.899,81.0
1752.5999,111.0
1753.3009,74.0
1754.0022,81.0
1754.7039,81.0
1755.4058,77.0
1756.1079,61.0
1756.8103,85.0
1757.5131,110.0
1758.2161,64.0
1758.9193,97.0
1759.6229,92.0
1760.3268,88.0
1761.0309,74.0
1761.7354,73.0
1762.4401,91.0
1763.145,80.0
1763.8502,96.0
1764.5558,95.0
1765.2616,74.0
1765.9677,81.0
1766.6741,85.0
1767.3807,69.0
1768.0876,68.0
1768.7949,91.0
1769.5024,99.0
1770.2102,62.0
1770.9183,101.0
1771.6267,107.0
1772.3353,87.0
1773.0443,89.0
1773.7535,103.0
1774.463,85.0
1775.1729,78.0
1775.8829,71.0
1776.5933,76.0
1777.304,72.0
1778.0149,66.0
1778.7261,81.0
1779.4376,66.0
1780.1494,71.0
1780.8615,87.0
1781.5739,82.0
1782.2865,63.0
1782.9994,75.0
1783.7126,76.0
1784.4261,95.0
1785.1399,71.0
1785.854,92.0
1786.5684,82.0
1787.283,77.0
1787.9979,72.0
1788.7131,95.0
1789.4286,80.0
1790.1444,67.0
1790.8605,87.0
1791.5768,83.0
1792.2935,74.0
1793.0104,77.0
1793.7275,88.0
1794.4451,79.0
1795.1628,70.0
1795.8809,81.0
1796.5992,73.0
1797.3179,78.0
1798.0367,74.0
1798.756,89.0
1799.4755,82.0
1800.1953,72.0
1800.9154,94.0
1801.6357,86.0
1802.3564,89.0
1803.0774,77.0
1803.7986,99.0
1804.5201,106.0
1805.242,96.0
1805.964,93.0
1806.6864,139.0
1807.409,105.0
1808.1321,79.0
1808.8553,125.0
1809.5789,109.0
1810.3027,81.0
1811.0269,105.0
1811.7512,88.0
1812.476,99.0
1813.2009,74.0
1813.9261,73.0
1814.6517,106.0
1815.3776,79.0
1816.1038,81.0
1816.8302,99.0
1817.5569,95.0
1818.2839,66.0
1819.0112,68.0
1819.7389,88.0
1820.4668,80.0
1821.195,67.0
1821.9235,72.0
1822.6522,71.0
1823.3812,87.0
1824.1106,66.0
1824.8402,76.0
1825.5702,84.0
1826.3004,90.0
1827.0309,90.0
1827.7617,99.0
1828.4928,85.0
1829.2242,82.0
1829.9559,82.0
1830.6879,96.0
1831.4202,74.0
1832.1527,48.0
1832.8856,83.0
1833.6188,86.0
1834.3522,75.0
1835.0859,60.0
1835.82,88.0
1836.5543,142.0
1837.289,85.0
1838.0238,111.0
1838.759,108.0
1839.4945,93.0
1840.2303,86.0
1840.9664,112.0
1841.7028,116.0
1842.4395,91.0
1843.1764,80.0
1843.9137,78.0
1844.6512,92.0
1845.3892,75.0
1846.1273,81.0
1846.8657,77.0
1847.6045,74.0
1848.3435,78.0
1849.0829,64.0
1849.8225,91.0
1850.5624,88.0
1851.3026,79.0
1852.0431,76.0
1852.7839,97.0
1853.525,94.0
1854.2665,80.0
1855.0082,79.0
1855.7501,94.0
1856.4924,88.0
1857.235,90.0
1857.9779,194.0
1858.7211,200.0
1859.4646,104.0
1860.2084,78.0
1860.9525,101.0
1861.6969,88.0
1862.4415,103.0
1863.1865,78.0
1863.9318,83.0
1864.6774,69.0
1865.4232,87.0
1866.1694,77.0
1866.9159,95.0
1867.6627,78.0
1868.4098,106.0
1869.1571,90.0
1869.9048,101.0
1870.6527,102.0
1871.401,84.0
1872.1495,72.0
1872.8984,83.0
1873.6476,108.0
1874.3971,95.0
1875.1469,101.0
1875.8969,133.0
1876.6472,132.0
1877.3978,117.0
1878.1488,72.0
1878.9,105.0
1879.6516,100.0
1880.4034,90.0
1881.1556,68.0
1881.9081,77.0
1882.6609,100.0
1883.414,89.0
1884.1674,116.0
1884.921,333.0
1885.675,365.0
1886.4293,234.0
1887.1838,138.0
1887.9387,169.0
1888.6938,127.0
1889.4493,90.0
1890.2051,86.0
1890.9612,80.0
1891.7175,76.0
1892.4742,90.0
1893.2312,87.0
1893.9885,91.0
1894.7461,88.0
1895.504,106.0
1896.2622,80.0
1897.0208,122.0
1897.7795,120.0
1898.5387,106.0
1899.2981,71.0
1900.0579,83.0
1900.8179,120.0
1901.5782,103.0
1902.3389,75.0
1903.0999,66.0
1903.8611,75.0
1904.6227,96.0
1905.3845,76.0
1906.1467,81.0
1906.9092,96.0
1907.672,87.0
1908.435,82.0
1909.1985,67.0
1909.9622,86.0
1910.7262,88.0
1911.4905,99.0
1912.2551,68.0
1913.02,93.0
1913.7853,361.0
1914.5508,358.0
1915.3167,194.0
1916.0828,266.0
1916.8492,148.0
1917.616,120.0
1918.383,80.0
1919.1504,83.0
1919.9181,86.0
1920.686,91.0
1921.4543,94.0
1922.2229,66.0
1922.9918,73.0
1923.761,93.0
1924.5305,85.0
1925.3003,76.0
1926.0704,66.0
1926.8408,74.0
1927.6116,96.0
1928.3826,88.0
1929.1539,78.0
1929.9255,101.0
1930.6975,92.0
1931.4698,74.0
1932.2424,82.0
1933.0154,86.0
1933.7886,73.0
1934.5621,81.0
1935.3359,88.0
1936.1101,83.0
1936.8845,90.0
1937.6593,100.0
1938.4343,91.0
1939.2097,70.0
1939.9854,75.0
1940.7614,91.0
1941.5376,88.0
1942.3142,63.0
1943.0912,61.0
1943.8684,92.0
1944.646,89.0
1945.4238,80.0
1946.202,85.0
1946.9805,63.0
1947.7593,93.0
1948.5383,90.0
1949.3177,88.0
1950.0975,77.0
1950.8776,86.0
1951.658,96.0
1952.4386,95.0
1953.2196,79.0
1954.0009,76.0
1954.7825,85.0
1955.5643,86.0
1956.3466,70.0
1957.1292,66.0
1957.912,78.0
1958.6952,100.0
1959.4786,67.0
1960.2625,65.0
1961.0465,79.0
1961.8309,83.0
1962.6157,61.0
1963.4008,69.0
1964.1862,75.0
1964.9718,75.0
1965.7578,70.0
1966.5441,107.0
1967.3307,81.0
1968.1177,63.0
1968.9049,86.0
1969.6925,96.0
1970.4803,87.0
1971.2686,84.0
1972.057,80.0
1972.8458,73.0
1973.635,67.0
1974.4244,78.0
1975.2142,72.0
1976.0043,76.0
1976.7947,84.0
1977.5854,116.0
1978.3765,78.0
1979.1678,62.0
1979.9595,62.0
1980.7515,73.0
1981.5438,70.0
1982.3364,80.0
1983.1294,89.0
1983.9226,88.0
1984.7162,93.0
1985.5101,86.0
1986.3043,71.0
1987.0989,83.0
1987.8937,68.0
1988.6888,89.0
1989.4844,91.0
1990.2802,70.0
1991.0763,82.0
1991.8727,78.0
1992.6694,87.0
1993.4666,87.0
1994.2639,74.0
1995.0616,98.0
1995.8596,121.0
1996.658,89.0
1997.4567,92.0
1998.2556,64.0
1999.0549,69.0
1999.8546,92.0
2000.6545,89.0
2001.4548,72.0
2002.2554,80.0
2003.0563,70.0
2003.8575,81.0
2004.659,69.0
2005.4609,71.0
2006.2631,75.0
2007.0656,60.0
2007.8684,88.0
2008.6715,87.0
2009.475,107.0
2010.2788,88.0
2011.0829,74.0
2011.8873,148.0
2012.6921,142.0
2013.4972,82.0
2014.3026,80.0
2015.1083,88.0
2015.9143,100.0
2016.7207,92.0
2017.5273,83.0
2018.3344,77.0
2019.1417,67.0
2019.9493,105.0
2020.7573,89.0
2021.5657,85.0
2022.3743,66.0
2023.1832,66.0
2023.9926,65.0
2024.8021,86.0
2025.612,85.0
2026.4224,80.0
2027.2329,81.0
2028.0438,100.0
2028.855,122.0
2029.6665,113.0
2030.4784,90.0
2031.2905,79.0
2032.103,70.0
2032.9159,89.0
2033.729,85.0
2034.5425,85.0
2035.3563,84.0
2036.1704,67.0
2036.9849,92.0
2037.7997,94.0
2038.6147,98.0
2039.4302,77.0
2040.246,98.0
2041.062,70.0
2041.8784,84.0
2042.6952,83.0
2043.5123,82.0
2044.3297,63.0
2045.1475,89.0
2045.9656,76.0
2046.7839,81.0
2047.6027,90.0
2048.4216,81.0
2049.241,75.0
2050.0605,88.0
2050.8806,67.0
2051.701,84.0
2052.5217,94.0
2053.3428,99.0
2054.164,84.0
2054.9858,94.0
2055.8079,97.0
2056.6301,83.0
2057.453,89.0
2058.276,60.0
2059.099,77.0
2059.9229,81.0
2060.7468,64.0
2061.571,78.0
2062.3958,65.0
2063.2207,73.0
2064.046,74.0
2064.8716,83.0
2065.6975,91.0
2066.5237,99.0
2067.3503,78.0
2068.1772,76.0
2069.0046,72.0
2069.8323,95.0
2070.6602,88.0
2071.4885,86.0
2072.3171,76.0
2073.146,92.0
2073.9753,93.0
2074.805,86.0
2075.6348,85.0
2076.465,75.0
2077.2957,59.0
2078.1265,60.0
2078.9578,86.0
2079.7893,74.0
2080.6213,96.0
2081.4536,85.0
2082.2861,100.0
2083.1191,132.0
2083.9524,134.0
2084.786,117.0
2085.6199,85.0
2086.454,107.0
2087.2886,68.0
2088.1235,70.0
2088.9587,81.0
2089.7944,78.0
2090.6304,90.0
2091.4666,67.0
2092.3032,69.0
2093.1401,76.0
2093.9773,77.0
2094.815,84.0
2095.6528,77.0
2096.4912,88.0
2097.3298,80.0
2098.1687,62.0
2099.008,64.0
2099.8477,75.0
2100.6875,70.0
2101.5278,65.0
2102.3684,77.0
2103.2095,79.0
2104.0508,79.0
2104.8923,80.0
2105.7344,79.0
2106.5767,80.0
2107.4192,75.0
2108.2622,70.0
2109.1055,60.0
2109.9492,87.0
2110.7932,63.0
2111.6375,91.0
2112.4822,98.0
2113.3271,84.0
2114.1724,67.0
2115.018,85.0
2115.864,83.0
2116.7104,87.0
2117.5571,67.0
2118.404,69.0
2119.2515,65.0
2120.099,69.0
2120.9473,62.0
2121.7957,92.0
2122.6443,72.0
2123.4934,60.0
2124.3428,68.0
2125.1926,84.0
2126.0427,101.0
2126.893,91.0
2127.744,80.0
2128.595,88.0
2129.4463,75.0
2130.298,65.0
2131.1501,82.0
2132.0027,82.0
2132.8555,68.0
2133.7085,87.0
2134.562,77.0
2135.4158,85.0
2136.27,75.0
2137.1245,66.0
2137.9792,86.0
2138.8345,83.0
2139.69,92.0
2140.546,82.0
2141.402,96.0
2142.2585,105.0
2143.1155,150.0
2143.9727,119.0
2144.8303,96.0
2145.6882,72.0
2146.5464,88.0
2147.405,73.0
2148.264,65.0
2149.1233,80.0
2149.983,78.0
2150.843,81.0
2151.7034,92.0
2152.564,91.0
2153.425,76.0
2154.2864,79.0
2155.1482,79.0
2156.0103,72.0
2156.8726,90.0
2157.7354,71.0
2158.5984,90.0
2159.462,74.0
2160.3257,82.0
2161.1897,74.0
2162.0542,97.0
2162.919,81.0
2163.7842,73.0
2164.6497,81.0
2165.5156,87.0
2166.3818,79.0
2167.2483,94.0
2168.1152,84.0
2168.9824,102.0
2169.85,88.0
2170.718,103.0
2171.5864,83.0
2172.455,81.0
2173.324,57.0
2174.1934,62.0
2175.063,68.0
2175.933,94.0
2176.8035,85.0
2177.674,93.0
2178.5452,114.0
2179.4165,81.0
2180.2883,82.0
2181.1604,79.0
2182.033,78.0
2182.9058,88.0
2183.7788,100.0
2184.6523,87.0
2185.5261,95.0
2186.4004,76.0
2187.275,79.0
2188.15,88.0
2189.0251,81.0
2189.9006,86.0
2190.7766,71.0
2191.6528,90.0
2192.5295,79.0
2193.4065,87.0
2194.284,108.0
2195.1616,120.0
2196.0398,105.0
2196.9182,101.0
2197.7969,95.0
2198.676,71.0
2199.5554,80.0
2200.4353,92.0
2201.3154,100.0
2202.196,89.0
2203.077,83.0
2203.9583,90.0
2204.8398,81.0
2205.7217,86.0
2206.604,90.0
2207.4866,80.0
2208.3696,68.0
2209.253,67.0
2210.1367,72.0
2211.0208,85.0
2211.9053,91.0
2212.79,93.0
2213.675,96.0
2214.5605,76.0
2215.4463,100.0
2216.3325,81.0
2217.219,71.0
2218.106,98.0
2218.9932,98.0
2219.8809,78.0
2220.7688,87.0
2221.6572,88.0
2222.546,65.0
2223.4348,69.0
2224.3242,76.0
2225.2139,68.0
2226.104,96.0
2226.9944,66.0
2227.8853,92.0
2228.7764,87.0
2229.668,93.0
2230.5598,98.0
2231.4521,88.0
2232.3447,83.0
2233.2375,96.0
2234.1309,113.0
2235.0244,89.0
2235.9185,106.0
2236.8127,102.0
2237.7075,94.0
2238.6025,94.0
2239.498,94.0
2240.3938,67.0
2241.29,97.0
2242.1865,80.0
2243.0835,104.0
2243.9807,107.0
2244.8784,88.0
2245.7764,91.0
2246.6746,101.0
2247.5732,91.0
2248.4722,82.0
2249.3716,97.0
2250.2712,86.0
2251.1714,89.0
2252.0718,89.0
2252.9727,91.0
2253.8738,88.0
2254.7754,92.0
2255.6772,85.0
2256.5796,90.0
2257.4822,88.0
2258.3853,98.0
2259.2886,101.0
2260.1924,98.0
2261.0964,115.0
2262.001,111.0
2262.9058,94.0
2263.811,108.0
2264.7166,99.0
2265.6226,95.0
2266.5288,86.0
2267.4353,106.0
2268.3423,77.0
2269.2495,98.0
2270.1572,76.0
2271.0652,92.0
2271.9736,86.0
2272.8823,110.0
2273.7915,104.0
2274.701,103.0
2275.6108,149.0
2276.521,115.0
2277.4316,136.0
2278.3425,96.0
2279.254,100.0
2280.1655,90.0
2281.0776,110.0
2281.99,118.0
2282.9028,106.0
2283.816,114.0
2284.7295,102.0
2285.6433,99.0
2286.5576,92.0
2287.4722,81.0
2288.3872,85.0
2289.3025,101.0
2290.2183,102.0
2291.1343,90.0
2292.0508,97.0
2292.9675,121.0
2293.8848,114.0
2294.8022,109.0
2295.7202,104.0
2296.6384,110.0
2297.5571,101.0
2298.476,99.0
2299.3955,106.0
2300.3152,92.0
2301.2354,96.0
2302.1558,117.0
2303.0767,106.0
2303.9978,106.0
2304.9194,95.0
2305.8413,109.0
2306.7637,102.0
2307.6863,94.0
2308.6094,118.0
2309.5327,100.0
2310.4565,95.0
2311.3806,96.0
2312.3052,108.0
2313.23,100.0
2314.1553,104.0
2315.081,93.0
2316.007,112.0
2316.9336,100.0
2317.8604,113.0
2318.7876,129.0
2319.715,113.0
2320.643,124.0
2321.5713,113.0
2322.5,112.0
2323.429,96.0
2324.3584,96.0
2325.288,119.0
2326.2183,106.0
2327.1487,124.0
2328.0796,112.0
2329.0107,125.0
2329.9424,133.0
2330.8743,119.0
2331.8066,115.0
2332.7393,95.0
2333.6724,88.0
2334.6057,106.0
2335.5396,98.0
2336.4739,97.0
2337.4084,83.0
2338.3435,109.0
2339.2788,107.0
2340.2146,106.0
2341.1506,92.0
2342.0872,123.0
2343.024,97.0
2343.9612,119.0
2344.8987,107.0
2345.8367,126.0
2346.775,124.0
2347.7136,133.0
2348.6526,110.0
2349.592,121.0
2350.532,101.0
2351.4722,99.0
2352.4128,105.0
2353.3538,87.0
2354.2952,114.0
2355.2368,114.0
2356.179,85.0
2357.1213,111.0
2358.0642,85.0
2359.0073,77.0
2359.951,91.0
2360.895,94.0
2361.8394,98.0
2362.7842,104.0
2363.7292,75.0
2364.6748,108.0
2365.6206,93.0
2366.567,96.0
2367.5134,97.0
2368.4604,86.0
2369.4077,95.0
2370.3555,96.0
2371.3037,85.0
2372.2522,98.0
2373.2012,100.0
2374.1504,104.0
2375.1,78.0
2376.05,93.0
2377.0005,89.0
2377.9512,105.0
2378.9023,103.0
2379.854,95.0
2380.806,95.0
2381.7583,101.0
2382.711,93.0
2383.664,82.0
2384.6174,84.0
2385.5713,76.0
2386.5256,95.0
2387.4802,118.0
2388.4353,111.0
2389.3906,121.0
2390.3464,114.0
2391.3025,100.0
2392.259,76.0
2393.2158,86.0
2394.173,88.0
2395.1309,87.0
2396.0889,86.0
2397.0474,105.0
2398.006,86.0
2398.9653,91.0
2399.9248,72.0
2400.8848,64.0
2401.8452,90.0
2402.806,91.0
2403.767,98.0
2404.7285,93.0
2405.6904,73.0
2406.6526,97.0
2407.6152,85.0
2408.5784,83.0
2409.5417,84.0
2410.5056,92.0
2411.4697,97.0
2412.4343,106.0
2413.3994,92.0
2414.3647,108.0
2415.3306,105.0
2416.2966,102.0
2417.2632,96.0
2418.23,82.0
2419.1973,93.0
2420.165,83.0
2421.133,113.0
2422.1016,95.0
2423.0703,90.0
2424.0396,102.0
2425.0093,80.0
2425.9792,94.0
2426.9497,83.0
2427.9204,96.0
2428.8916,91.0
2429.863,73.0
2430.835,86.0
2431.8074,108.0
2432.78,92.0
2433.7532,96.0
2434.7266,76.0
2435.7004,86.0
2436.6748,95.0
2437.6494,91.0
2438.6245,101.0
2439.5999,79.0
2440.5757,88.0
2441.552,72.0
2442.5286,92.0
2443.5056,85.0
2444.483,86.0
2445.4607,69.0
2446.439,86.0
2447.4175,91.0
2448.3965,99.0
2449.3757,90.0
2450.3555,85.0
2451.3357,94.0
2452.3162,71.0
2453.297,78.0
2454.2783,87.0
2455.26,95.0
2456.2422,78.0
2457.2246,97.0
2458.2075,89.0
2459.191,74.0
2460.1746,69.0
2461.1587,80.0
2462.143,93.0
2463.128,102.0
2464.1133,95.0
2465.0989,88.0
2466.085,87.0
2467.0713,83.0
2468.058,92.0
2469.0454,84.0
2470.033,77.0
2471.021,93.0
2472.0095,96.0
2472.9983,89.0
2473.9875,73.0
2474.977,81.0
2475.967,89.0
2476.9575,78.0
2477.9482,75.0
2478.9395,94.0
2479.931,75.0
2480.9229,76.0
2481.9153,98.0
2482.908,71.0
2483.9011,84.0
2484.8948,69.0
2485.8887,101.0
2486.883,95.0
2487.878,81.0
2488.873,80.0
2489.8687,92.0
2490.8645,96.0
2491.8608,82.0
2492.8577,71.0
2493.8547,85.0
2494.8523,97.0
2495.8503,78.0
2496.8486,91.0
2497.8474,84.0
2498.8464,97.0
2499.846,83.0
2500.846,90.0
2501.8462,68.0
2502.847,92.0
2503.8481,79.0
2504.8496,100.0
2505.8516,77.0
2506.854,82.0
2507.8567,82.0
2508.8599,89.0
2509.8635,90.0
2510.8674,74.0
2511.8718,73.0
2512.8765,78.0
2513.8816,74.0
2514.8872,70.0
2515.893,72.0
2516.8994,80.0
2517.9062,76.0
2518.9133,89.0
2519.921,81.0
2520.929,91.0
2521.9373,91.0
2522.946,95.0
2523.9553,93.0
2524.9648,86.0
2525.9749,80.0
2526.9854,89.0
2527.996,85.0
2529.0073,79.0
2530.019,89.0
2531.031,93.0
2532.0435,105.0
2533.0562,93.0
2534.0693,93.0
2535.083,87.0
2536.097,70.0
2537.1113,92.0
2538.1262,83.0
2539.1414,79.0
2540.157,82.0
2541.173,75.0
2542.1895,77.0
2543.2063,73.0
2544.2236,84.0
2545.2412,85.0
2546.2593,80.0
2547.2778,76.0
2548.2966,94.0
2549.316,104.0
2550.3357,67.0
2551.3557,101.0
2552.3762,87.0
2553.3972,87.0
2554.4185,82.0
2555.4402,78.0
2556.4624,76.0
2557.485,84.0
2558.508,77.0
2559.5315,81.0
2560.5554,95.0
2561.5796,77.0
2562.6042,97.0
2563.6294,91.0
2564.6548,93.0
2565.6807,73.0
2566.707,80.0
2567.7336,79.0
2568.7607,99.0
2569.7883,88.0
2570.8162,84.0
2571.8445,78.0
2572.8733,95.0
2573.9023,65.0
2574.932,76.0
2575.962,80.0
2576.9922,88.0
2578.023,97.0
2579.0542,98.0
2580.086,61.0
2581.118,84.0
2582.1504,86.0
2583.1833,68.0
2584.2166,82.0
2585.2502,102.0
2586.2844,99.0
2587.3188,81.0
2588.3538,88.0
2589.3892,73.0
2590.4248,82.0
2591.461,98.0
2592.4976,97.0
2593.5347,91.0
2594.572,90.0
2595.6099,91.0
2596.6482,74.0
2597.6868,90.0
2598.7258,87.0
2599.7654,79.0
2600.8052,73.0
2601.8455,72.0
2602.8862,105.0
2603.9275,84.0
2604.969,72.0
2606.011,79.0
2607.0535,87.0
2608.0962,85.0
2609.1394,102.0
2610.183,108.0
2611.2273,81.0
2612.2717,101.0
2613.3167,84.0
2614.362,89.0
2615.4077,74.0
2616.4539,89.0
2617.5005,92.0
2618.5476,105.0
2619.595,89.0
2620.6428,85.0
2621.6912,66.0
2622.7397,90.0
2623.7888,92.0
2624.8384,86.0
2625.8884,75.0
2626.9387,85.0
2627.9895,80.0
2629.0408,97.0
2630.0923,77.0
2631.1443,86.0
2632.1968,84.0
2633.2498,91.0
2634.303,103.0
2635.3567,112.0
2636.411,87.0
2637.4653,88.0
2638.5203,104.0
2639.5757,61.0
2640.6316,96.0
2641.6877,94.0
2642.7444,96.0
2643.8015,86.0
2644.8591,79.0
2645.917,99.0
2646.9753,73.0
2648.0342,86.0
2649.0935,102.0
2650.153,80.0
2651.2131,84.0
2652.2737,85.0
2653.3345,80.0
2654.3958,88.0
2655.4575,87.0
2656.5198,83.0
2657.5823,95.0
2658.6453,85.0
2659.7087,91.0
2660.7727,97.0
2661.837,104.0
2662.9016,91.0
2663.9668,102.0
2665.0325,81.0
2666.0984,111.0
2667.1648,100.0
2668.2317,112.0
2669.299,94.0
2670.3667,85.0
2671.4348,100.0
2672.5034,71.0
2673.5725,72.0
2674.6418,75.0
2675.7117,79.0
2676.782,89.0
2677.8528,76.0
2678.9238,106.0
2679.9954,103.0
2681.0674,96.0
2682.14,101.0
2683.2126,85.0
2684.286,93.0
2685.3596,94.0
2686.4338,75.0
2687.5083,91.0
2688.5833,87.0
2689.6587,88.0
2690.7346,86.0
2691.8108,97.0
2692.8875,83.0
2693.9646,87.0
2695.0422,97.0
2696.1204,91.0
2697.1987,86.0
2698.2776,79.0
2699.357,103.0
2700.4368,99.0
2701.5168,116.0
2702.5974,85.0
2703.6785,93.0
2704.76,93.0
2705.8418,108.0
2706.924,100.0
2708.0068,100.0
2709.09,123.0
2710.1738,94.0
2711.2578,101.0
2712.3423,93.0
2713.4272,87.0
2714.5127,91.0
2715.5984,82.0
2716.6846,94.0
2717.7712,92.0
2718.8584,96.0
2719.946,99.0
2721.034,102.0
2722.1223,105.0
2723.2112,134.0
2724.3005,120.0
2725.3901,97.0
2726.4802,99.0
2727.5708,95.0
2728.6619,115.0
2729.7534,127.0
2730.8452,118.0
2731.9375,77.0
2733.0303,87.0
2734.1235,106.0
2735.2173,157.0
2736.3113,203.0
2737.4058,151.0
2738.5007,100.0
2739.5962,89.0
2740.6921,88.0
2741.7883,75.0
2742.885,76.0
2743.9822,84.0
2745.0798,110.0
2746.178,87.0
2747.2764,87.0
2748.3752,78.0
2749.4746,80.0
2750.5745,91.0
2751.6748,104.0
2752.7754,67.0
2753.8765,90.0
2754.978,94.0
2756.08,82.0
2757.1826,97.0
2758.2854,85.0
2759.3887,79.0
2760.4924,75.0
2761.5967,92.0
2762.7014,111.0
2763.8064,111.0
2764.9119,105.0
2766.0178,88.0
2767.1243,94.0
2768.2312,83.0
2769.3384,66.0
2770.446,82.0
2771.5542,84.0
2772.6628,85.0
2773.772,88.0
2774.8816,95.0
2775.9915,90.0
2777.1018,84.0
2778.2126,86.0
2779.324,85.0
2780.4358,108.0
2781.5479,90.0
2782.6604,99.0
2783.7734,106.0
2784.887,93.0
2786.001,77.0
2787.1155,76.0
2788.2302,67.0
2789.3455,93.0
2790.4612,88.0
2791.5774,71.0
2792.694,96.0
2793.8113,124.0
2794.9287,165.0
2796.0466,156.0
2797.165,158.0
2798.284,165.0
2799.4033,139.0
2800.5232,120.0
2801.6433,150.0
2802.764,121.0
2803.885,150.0
2805.0066,142.0
2806.1287,129.0
2807.2512,135.0
2808.374,152.0
2809.4973,138.0
2810.621,136.0
2811.7454,137.0
2812.87,152.0
2813.9954,158.0
2815.1208,143.0
2816.2468,127.0
2817.3733,139.0
2818.5002,144.0
2819.6277,126.0
2820.7556,138.0
2821.884,138.0
2823.0127,133.0
2824.1418,104.0
2825.2715,130.0
2826.4016,125.0
2827.5322,114.0
2828.6633,140.0
2829.7947,159.0
2830.9265,144.0
2832.0588,133.0
2833.1917,152.0
2834.325,138.0
2835.4587,146.0
2836.593,144.0
2837.7275,129.0
2838.8625,122.0
2839.998,139.0
2841.134,121.0
2842.2705,150.0
2843.4075,128.0
2844.545,133.0
2845.6829,126.0
2846.821,116.0
2847.9597,138.0
2849.0989,129.0
2850.2385,122.0
2851.3787,125.0
2852.5193,149.0
2853.6604,151.0
2854.8018,121.0
2855.9436,146.0
2857.086,174.0
2858.2288,187.0
2859.372,137.0
2860.5159,129.0
2861.6602,126.0
2862.805,134.0
2863.95,127.0
2865.0955,149.0
2866.2415,162.0
2867.388,147.0
2868.535,149.0
2869.6824,135.0
2870.8303,123.0
2871.9788,161.0
2873.1274,149.0
2874.2766,146.0
2875.4263,148.0
2876.5764,135.0
2877.727,137.0
2878.8782,105.0
2880.0298,126.0
2881.182,131.0
2882.3345,148.0
2883.4873,172.0
2884.6406,115.0
2885.7944,104.0
2886.9487,119.0
2888.1035,162.0
2889.2588,126.0
2890.4146,148.0
2891.5708,163.0
2892.7275,136.0
2893.8845,113.0
2895.042,133.0
2896.2,140.0
2897.3584,154.0
2898.5173,134.0
2899.6768,133.0
2900.8367,114.0
2901.997,116.0
2903.158,141.0
2904.3193,127.0
2905.481,171.0
2906.643,150.0
2907.8057,192.0
2908.9688,171.0
2910.1323,156.0
2911.2964,136.0
2912.461,145.0
2913.626,134.0
2914.7915,131.0
2915.9575,123.0
2917.124,140.0
2918.2908,115.0
2919.458,113.0
2920.6257,144.0
2921.794,180.0
2922.9626,208.0
2924.1318,196.0
2925.3015,180.0
2926.4717,166.0
2927.6423,122.0
2928.8135,153.0
2929.985,119.0
2931.157,123.0
2932.3293,138.0
2933.5022,144.0
2934.6755,135.0
2935.8494,132.0
2937.0237,124.0
2938.1985,131.0
2939.3738,161.0
2940.5496,172.0
2941.7258,149.0
2942.9026,147.0
2944.0798,156.0
2945.2576,143.0
2946.4358,147.0
2947.6143,116.0
2948.7932,131.0
2949.9727,146.0
2951.1526,139.0
2952.333,141.0
2953.514,133.0
2954.6953,125.0
2955.8772,112.0
2957.0596,122.0
2958.2424,129.0
2959.4258,134.0
2960.6096,133.0
2961.794,145.0
2962.9788,134.0
2964.164,117.0
2965.3496,145.0
2966.5356,130.0
2967.7222,138.0
2968.9092,147.0
2970.0967,110.0
2971.2847,130.0
2972.4731,127.0
2973.662,126.0
2974.8516,124.0
2976.0415,124.0
2977.232,150.0
2978.4229,145.0
2979.6143,167.0
2980.8062,131.0
2981.9985,114.0
2983.1914,128.0
2984.3848,135.0
2985.5786,116.0
2986.773,129.0
2987.9678,113.0
2989.1628,119.0
2990.3584,134.0
2991.5544,127.0
2992.751,142.0
2993.948,151.0
2995.1455,133.0
2996.3435,120.0
2997.542,140.0
2998.741,127.0
2999.9404,131.0
3001.1404,124.0
3002.3408,144.0
3003.5417,146.0
3004.7432,131.0
3005.945,139.0
3007.1475,127.0
3008.3503,149.0
3009.5537,173.0
3010.7576,128.0
3011.962,121.0
3013.1667,119.0
3014.372,154.0
3015.578,127.0
3016.7842,125.0
3017.991,124.0
3019.1982,114.0
3020.406,159.0
3021.6143,167.0
3022.823,160.0
3024.0322,129.0
3025.242,128.0
3026.4521,117.0
3027.6628,127.0
3028.874,120.0
3030.0857,140.0
3031.2976,131.0
3032.51,136.0
3033.723,126.0
3034.9363,130.0
3036.1501,136.0
3037.3645,141.0
3038.5793,125.0
3039.7947,148.0
3041.0105,137.0
3042.2268,129.0
3043.4436,137.0
3044.661,145.0
3045.8787,134.0
3047.097,143.0
3048.3157,144.0
3049.535,130.0
3050.7546,152.0
3051.9749,115.0
3053.1956,137.0
3054.4167,143.0
3055.6384,155.0
3056.8606,138.0
3058.0833,127.0
3059.3064,132.0
3060.53,139.0
3061.7542,136.0
3062.9788,110.0
3064.2039,132.0
3065.4294,127.0
3066.6555,111.0
3067.882,135.0
3069.1091,151.0
3070.3367,136.0
3071.5647,148.0
3072.7932,118.0
3074.0222,139.0
3075.2517,115.0
3076.4817,137.0
3077.7124,128.0
3078.9436,163.0
3080.1753,138.0
3081.4075,124.0
3082.6401,144.0
3083.8733,122.0
3085.107,136.0
3086.341,132.0
3087.5757,129.0
3088.8108,143.0
3090.0464,130.0
3091.2825,116.0
3092.519,139.0
3093.756,129.0
3094.9937,140.0
3096.2317,144.0
3097.4702,142.0
3098.7092,130.0
3099.9487,136.0
3101.1887,124.0
3102.4292,125.0
3103.6702,144.0
3104.9116,148.0
3106.1536,121.0
3107.396,126.0
3108.639,137.0
3109.8823,139.0
3111.1262,129.0
3112.3706,160.0
3113.6155,127.0
3114.8608,128.0
3116.1067,127.0
3117.353,143.0
3118.5999,163.0
3119.8474,145.0
3121.0955,122.0
3122.344,152.0
3123.593,175.0
3124.8425,141.0
3126.0925,124.0
3127.343,146.0
3128.594,116.0
3129.8455,122.0
3131.0974,119.0
3132.3499,132.0
3133.6028,145.0
3134.8562,125.0
3136.11,134.0
3137.3645,142.0
3138.6194,151.0
3139.8748,136.0
3141.1306,124.0
3142.387,152.0
3143.6438,147.0
3144.9014,135.0
3146.1594,144.0
3147.418,159.0
3148.677,148.0
3149.9365,122.0
3151.1965,137.0
3152.457,165.0
3153.718,148.0
3154.9795,146.0
3156.2415,143.0
3157.504,146.0
3158.7668,134.0
3160.0303,117.0
3161.2942,117.0
3162.5586,136.0
3163.8237,144.0
3165.0894,119.0
3166.3555,117.0
3167.622,126.0
3168.8892,144.0
3170.1567,149.0
3171.4248,103.0
3172.6934,136.0
3173.9624,129.0
3175.232,141.0
3176.502,144.0
3177.7725,130.0
3179.0435,134.0
3180.3152,134.0
3181.5874,152.0
3182.86,120.0
3184.1333,126.0
3185.407,114.0
3186.6812,117.0
3187.9558,120.0
3189.231,146.0
3190.5066,134.0
3191.7827,161.0
3193.0593,155.0
3194.3367,161.0
3195.6145,150.0
3196.8928,136.0
3198.1716,146.0
3199.451,126.0
3200.7307,122.0
3202.011,119.0
3203.2917,149.0
3204.573,147.0
3205.8547,167.0
3207.137,131.0
3208.42,147.0
3209.7034,140.0
3210.9873,115.0
3212.2717,148.0
3213.5566,133.0
3214.842,138.0
3216.128,136.0
3217.4143,175.0
3218.7012,159.0
3219.9888,129.0
3221.2769,157.0
3222.5654,134.0
3223.8545,144.0
3225.144,144.0
3226.434,165.0
3227.7246,156.0
3229.0156,126.0
3230.3071,132.0
3231.5994,144.0
3232.892,155.0
3234.1853,146.0
3235.479,133.0
3236.7732,137.0
3238.0679,136.0
3239.363,165.0
3240.6587,143.0
3241.9548,127.0
3243.2517,120.0
3244.549,156.0
3245.847,131.0
3247.1453,141.0
3248.444,140.0
3249.7434,152.0
3251.0432,142.0
3252.3438,137.0
3253.6448,140.0
3254.9463,137.0
3256.2483,151.0
3257.5508,142.0
3258.8538,150.0
3260.1572,151.0
3261.4612,150.0
3262.7659,160.0
3264.071,138.0
3265.3767,123.0
3266.6829,132.0
3267.9895,137.0
3269.2966,146.0
3270.6042,149.0
3271.9126,143.0
3273.2214,153.0
3274.5308,141.0
3275.8406,140.0
3277.151,139.0
3278.4617,176.0
3279.773,150.0
3281.085,135.0
3282.3975,143.0
3283.7104,134.0
3285.024,161.0
3286.338,140.0
3287.6523,171.0
3288.9673,177.0
3290.283,142.0
3291.599,160.0
3292.9158,157.0
3294.233,164.0
3295.5505,131.0
3296.8687,158.0
3298.1875,118.0
3299.5068,170.0
3300.8267,153.0
3302.147,158.0
3303.4678,147.0
3304.789,151.0
3306.111,162.0
3307.4336,143.0
3308.7566,169.0
3310.08,149.0
3311.404,153.0
3312.7285,158.0
3314.0537,143.0
3315.3794,148.0
3316.7056,141.0
3318.0322,157.0
3319.3594,157.0
3320.687,158.0
3322.0154,159.0
3323.3442,156.0
3324.6736,176.0
3326.0034,144.0
3327.3337,151.0
3328.6648,150.0
3329.9963,137.0
3331.3284,134.0
3332.661,147.0
3333.994,126.0
3335.3274,132.0
3336.6616,143.0
3337.9963,133.0
3339.3315,158.0
3340.6672,164.0
3342.0034,147.0
3343.3403,144.0
3344.6777,156.0
3346.0156,148.0
3347.354,150.0
3348.6929,175.0
3350.0322,153.0
3351.3723,176.0
3352.713,176.0
3354.054,145.0
3355.3955,174.0
3356.7375,182.0
3358.0803,158.0
3359.4236,145.0
3360.7673,165.0
3362.1116,142.0
3363.4563,151.0
3364.8018,167.0
3366.1477,140.0
3367.4941,157.0
3368.841,213.0
3370.1887,174.0
3371.5369,182.0
3372.8855,157.0
3374.2346,165.0
3375.5842,173.0
3376.9346,149.0
3378.2854,167.0
3379.6367,165.0
3380.9885,147.0
3382.3408,126.0
3383.6938,160.0
3385.0474,145.0
3386.4014,174.0
3387.7559,178.0
3389.1108,146.0
3390.4666,158.0
3391.8228,156.0
3393.1794,163.0
3394.5366,154.0
3395.8945,149.0
3397.253,155.0
3398.6118,162.0
3399.9712,174.0
3401.3313,156.0
3402.692,188.0
3404.053,189.0
3405.4146,153.0
3406.7766,165.0
3408.1394,137.0
3409.5027,174.0
3410.8665,125.0
3412.2307,174.0
3413.5957,199.0
3414.9612,173.0
3416.3271,148.0
3417.6936,174.0
3419.0608,153.0
3420.4285,175.0
3421.7966,175.0
3423.1653,181.0
3424.5347,171.0
3425.9045,174.0
3427.275,141.0
3428.6458,185.0
3430.017,152.0
3431.3892,162.0
3432.7617,145.0
3434.1348,173.0
3435.5083,174.0
3436.8826,171.0
3438.2573,146.0
3439.6326,180.0
3441.0083,142.0
3442.3848,147.0
3443.7617,162.0
3445.1392,149.0
3446.5173,139.0
3447.896,157.0
3449.2751,164.0
3450.6548,158.0
3452.0352,185.0
3453.416,159.0
3454.7974,166.0
3456.1792,147.0
3457.5618,154.0
3458.9448,151.0
3460.3284,152.0
3461.7124,138.0
3463.0972,132.0
3464.4824,163.0
3465.8682,156.0
3467.2544,158.0
3468.6414,165.0
3470.0288,165.0
3471.4167,184.0
3472.8054,145.0
3474.1946,177.0
3475.5842,186.0
3476.9744,181.0
3478.3652,158.0
3479.7566,161.0
3481.1484,155.0
3482.541,155.0
3483.934,175.0
3485.3276,167.0
3486.7217,181.0
3488.1165,146.0
3489.5117,168.0
3490.9075,193.0
3492.304,175.0
3493.701,176.0
3495.0984,147.0
3496.4963,188.0
3497.895,144.0
3499.2942,192.0
3500.6938,196.0
3502.0942,166.0
3503.495,191.0
3504.8965,164.0
3506.2983,134.0
3507.701,206.0
3509.104,190.0
3510.5076,202.0
3511.9119,175.0
3513.3167,176.0
3514.722,172.0
3516.128,146.0
3517.5344,161.0
3518.9414,148.0
3520.3489,172.0
3521.757,230.0
3523.1658,225.0
3524.575,170.0
3525.9849,153.0
3527.3953,180.0
3528.8062,167.0
3530.2178,245.0
3531.63,255.0
3533.0425,191.0
3534.4558,153.0
3535.8696,169.0
3537.284,148.0
3538.6987,182.0
3540.1143,192.0
3541.5303,195.0
3542.9468,163.0
3544.364,166.0
3545.7817,174.0
3547.2,177.0
3548.619,190.0
3550.0383,168.0
3551.4583,181.0
3552.879,156.0
3554.3,187.0
3555.7217,197.0
3557.144,167.0
3558.567,181.0
3559.9902,178.0
3561.4143,182.0
3562.8389,175.0
3564.264,183.0
3565.6897,195.0
3567.116,178.0
3568.5427,185.0
3569.9702,189.0
3571.3982,192.0
3572.8267,217.0
3574.2559,166.0
3575.6855,198.0
3577.1157,196.0
3578.5466,228.0
3579.978,230.0
3581.41,205.0
3582.8425,202.0
3584.2756,181.0
3585.7092,220.0
3587.1436,221.0
3588.5784,211.0
3590.014,191.0
3591.45,189.0
3592.8865,192.0
3594.3237,172.0
3595.7615,212.0
3597.1997,208.0
3598.6387,234.0
3600.0781,239.0
3601.518,218.0
3602.9587,223.0
3604.4,189.0
3605.8416,212.0
3607.284,235.0
3608.7268,303.0
3610.1704,206.0
3611.6145,184.0
3613.059,197.0
3614.5044,176.0
3615.9502,341.0
3617.3965,378.0
3618.8435,293.0
3620.291,223.0
3621.739,208.0
3623.1877,198.0
3624.637,198.0
3626.087,207.0
3627.5374,200.0
3628.9883,204.0
3630.44,192.0
3631.892,207.0
3633.3447,196.0
3634.798,218.0
3636.252,200.0
3637.7065,235.0
3639.1616,204.0
3640.6172,174.0
3642.0735,185.0
3643.5303,203.0
3644.9878,249.0
3646.4458,213.0
3647.9043,236.0
3649.3635,204.0
3650.8232,203.0
3652.2837,181.0
3653.7446,176.0
3655.206,188.0
3656.6682,211.0
3658.1309,198.0
3659.594,222.0
3661.0579,215.0
3662.5222,223.0
3663.9873,214.0
3665.453,238.0
3666.919,245.0
3668.3857,216.0
3669.853,175.0
3671.321,183.0
3672.7896,228.0
3674.2585,182.0
3675.7283,223.0
3677.1985,255.0
3678.6694,273.0
3680.1409,249.0
3681.613,202.0
3683.0857,218.0
3684.5588,205.0
3686.0327,179.0
3687.507,220.0
3688.9822,167.0
3690.4578,204.0
3691.9338,235.0
3693.4106,243.0
3694.888,239.0
3696.366,226.0
3697.8445,246.0
3699.3237,195.0
3700.8035,231.0
3702.2837,219.0
3703.7646,187.0
3705.246,197.0
3706.7283,234.0
3708.211,246.0
3709.6943,350.0
3711.1782,313.0
3712.6626,280.0
3714.1477,235.0
3715.6333,238.0
3717.1196,222.0
3718.6064,223.0
3720.094,238.0
3721.582,227.0
3723.0706,240.0
3724.5598,211.0
3726.0496,227.0
3727.54,201.0
3729.031,211.0
3730.5227,210.0
3732.015,221.0
3733.5078,368.0
3735.0012,423.0
3736.495,355.0
3737.9897,255.0
3739.4849,235.0
3740.9807,237.0
3742.477,276.0
3743.974,287.0
3745.4717,259.0
3746.97,219.0
3748.4688,267.0
3749.968,565.0
3751.468,1193.0
3752.9685,1258.0
3754.4697,684.0
3755.9714,515.0
3757.4739,308.0
3758.9768,286.0
3760.4805,239.0
3761.9846,263.0
3763.4895,210.0
3764.9949,244.0
3766.501,307.0
3768.0076,320.0
3769.515,250.0
3771.0227,259.0
3772.531,259.0
3774.04,309.0
3775.5496,290.0
3777.0598,282.0
3778.5706,269.0
3780.082,246.0
3781.594,253.0
3783.1067,333.0
3784.6199,398.0
3786.1338,295.0
3787.6482,284.0
3789.1633,242.0
3790.679,239.0
3792.1953,198.0
3793.7122,213.0
3795.2297,225.0
3796.7478,261.0
3798.2666,250.0
3799.786,261.0
3801.306,237.0
3802.8264,217.0
3804.3477,219.0
3805.8694,259.0
3807.3918,208.0
3808.9148,226.0
3810.4385,260.0
3811.9626,258.0
3813.4875,257.0
3815.013,346.0
3816.539,280.0
3818.0657,281.0
3819.593,242.0
3821.1208,235.0
3822.6494,184.0
3824.1785,216.0
3825.7083,213.0
3827.2385,251.0
3828.7695,265.0
3830.301,252.0
3831.8333,263.0
3833.366,264.0
3834.8994,241.0
3836.4333,216.0
3837.968,214.0
3839.5032,232.0
3841.039,292.0
3842.5754,256.0
3844.1125,225.0
3845.6501,262.0
3847.1885,304.0
3848.7273,340.0
3850.2668,369.0
3851.807,320.0
3853.3477,215.0
3854.889,247.0
3856.431,232.0
3857.9734,265.0
3859.5166,202.0
3861.0603,208.0
3862.6047,239.0
3864.1497,234.0
3865.6953,260.0
3867.2417,244.0
3868.7886,263.0
3870.3362,238.0
3871.8843,251.0
3873.433,240.0
3874.9824,273.0
3876.5325,236.0
3878.083,240.0
3879.6343,230.0
3881.186,269.0
3882.7385,287.0
3884.2915,248.0
3885.8452,313.0
3887.3997,246.0
3888.9546,234.0
3890.5103,214.0
3892.0664,210.0
3893.6233,237.0
3895.1807,247.0
3896.7388,258.0
3898.2974,251.0
3899.8567,306.0
3901.4167,283.0
3902.9773,272.0
3904.5386,247.0
3906.1003,260.0
3907.6628,262.0
3909.2258,206.0
3910.7896,228.0
3912.3538,224.0
3913.9187,232.0
3915.4844,265.0
3917.0505,293.0
3918.6174,249.0
3920.1848,254.0
3921.753,212.0
3923.3215,230.0
3924.8909,252.0
3926.461,224.0
3928.0315,240.0
3929.6028,219.0
3931.1746,210.0
3932.747,257.0
3934.32,246.0
3935.8938,223.0
3937.4683,201.0
3939.0432,207.0
3940.619,222.0
3942.195,201.0
3943.772,247.0
3945.3494,203.0
3946.9275,193.0
3948.5063,233.0
3950.0857,264.0
3951.6658,267.0
3953.2463,208.0
3954.8276,227.0
3956.4097,228.0
3957.9922,233.0
3959.5754,241.0
3961.1592,233.0
3962.7437,240.0
3964.3289,180.0
3965.9146,188.0
3967.501,165.0
3969.088,227.0
3970.6755,198.0
3972.264,206.0
3973.8528,236.0
3975.4424,231.0
3977.0325,209.0
3978.6233,234.0
3980.2148,223.0
3981.807,247.0
3983.3997,199.0
3984.993,233.0
3986.587,245.0
3988.1816,221.0
3989.7769,219.0
3991.3728,243.0
3992.9692,282.0
3994.5664,224.0
3996.1643,249.0
3997.7627,222.0
3999.3618,219.0
4000.9617,221.0
4002.562,294.0
4004.163,257.0
4005.7646,254.0
4007.367,227.0
4008.97,242.0
4010.5735,213.0
4012.1777,266.0
4013.7827,274.0
4015.3882,234.0
4016.9944,282.0
4018.601,260.0
4020.2085,316.0
4021.8167,287.0
4023.4253,284.0
4025.0347,285.0
4026.6448,307.0
4028.2554,346.0
4029.8667,328.0
4031.4788,302.0
4033.0913,310.0
4034.7046,304.0
4036.3184,364.0
4037.9329,381.0
4039.548,331.0
4041.1638,373.0
4042.7803,408.0
4044.3975,362.0
4046.0151,368.0
4047.6335,292.0
4049.2527,394.0
4050.8723,570.0
4052.4927,496.0
4054.1138,466.0
4055.7354,410.0
4057.3577,358.0
4058.9807,702.0
4060.6042,882.0
4062.2285,547.0
4063.8535,507.0
4065.479,445.0
4067.1052,452.0
4068.7322,501.0
4070.3596,484.0
4071.9878,644.0
4073.6167,590.0
4075.246,473.0
4076.8762,480.0
4078.507,512.0
4080.1384,551.0
4081.7705,791.0
4083.4033,621.0
4085.0366,842.0
4086.6707,941.0
4088.3054,646.0
4089.9407,489.0
4091.5767,477.0
4093.2134,1273.0
4094.8506,2006.0
4096.489,1148.0
4098.1274,529.0
4099.7666,407.0
4101.4067,1395.0
4103.0474,4046.0
4104.6885,3022.0
4106.3306,1101.0
4107.973,566.0
4109.616,401.0
4111.2603,338.0
4112.905,430.0
4114.55,510.0
4116.196,429.0
4117.8423,328.0
4119.4893,292.0
4121.137,298.0
4122.7856,328.0
4124.4346,296.0
4126.0845,280.0
4127.735,293.0
4129.3857,247.0
4131.0376,259.0
4132.69,281.0
4134.343,254.0
4135.9966,262.0
4137.651,288.0
4139.306,256.0
4140.962,234.0
4142.618,211.0
4144.2754,263.0
4145.933,231.0
4147.5913,263.0
4149.2505,242.0
4150.91,268.0
4152.5703,287.0
4154.2314,272.0
4155.893,299.0
4157.5557,266.0
4159.2188,295.0
4160.8823,279.0
4162.547,246.0
4164.212,261.0
4165.8774,316.0
4167.544,286.0
4169.211,266.0
4170.8784,309.0
4172.547,261.0
4174.216,281.0
4175.8857,390.0
4177.556,329.0
4179.227,283.0
4180.899,283.0
4182.5713,273.0
4184.244,248.0
4185.918,257.0
4187.5923,320.0
4189.267,299.0
4190.943,261.0
4192.619,242.0
4194.2964,266.0
4195.974,278.0
4197.6523,341.0
4199.3315,289.0
4201.011,254.0
4202.6914,275.0
4204.3726,261.0
4206.054,256.0
4207.737,292.0
4209.42,268.0
4211.1035,270.0
4212.788,224.0
4214.473,241.0
4216.1587,276.0
4217.845,247.0
4219.532,277.0
4221.22,266.0
4222.9087,272.0
4224.5977,267.0
4226.2876,259.0
4227.978,265.0
4229.6694,287.0
4231.3613,253.0
4233.0537,299.0
4234.747,268.0
4236.441,290.0
4238.1353,268.0
4239.8306,317.0
4241.5264,258.0
4243.223,263.0
4244.9204,269.0
4246.618,277.0
4248.317,298.0
4250.016,256.0
4251.7163,269.0
4253.417,283.0
4255.118,313.0
4256.8203,296.0
4258.523,327.0
4260.2266,330.0
4261.9307,336.0
4263.6353,345.0
4265.341,325.0
4267.047,337.0
4268.754,422.0
4270.4614,357.0
4272.1694,323.0
4273.8784,312.0
4275.588,427.0
4277.2983,580.0
4279.0093,451.0
4280.7207,315.0
4282.433,294.0
4284.146,524.0
4285.86,1015.0
4287.574,697.0
4289.289,431.0
4291.005,346.0
4292.721,303.0
4294.4385,273.0
4296.1562,311.0
4297.8745,357.0
4299.5938,342.0
4301.3135,290.0
4303.034,281.0
4304.7554,303.0
4306.477,268.0
4308.1997,255.0
4309.923,265.0
4311.647,278.0
4313.3716,255.0
4315.097,235.0
4316.823,226.0
4318.55,236.0
4320.2773,221.0
4322.0054,242.0
4323.7344,266.0
4325.464,271.0
4327.194,247.0
4328.925,233.0
4330.6562,278.0
4332.3887,265.0
4334.1216,252.0
4335.8555,237.0
4337.59,236.0
4339.3247,267.0
4341.0605,272.0
4342.797,260.0
4344.534,257.0
4346.272,235.0
4348.0103,241.0
4349.7495,277.0
4351.4893,245.0
4353.23,245.0
4354.971,273.0
4356.7134,324.0
4358.456,308.0
4360.199,293.0
4361.9434,246.0
4363.688,295.0
4365.4336,245.0
4367.1797,267.0
4368.927,265.0
4370.6743,273.0
4372.4224,283.0
4374.1714,284.0
4375.921,279.0
4377.6714,266.0
4379.4224,279.0
4381.1743,282.0
4382.927,267.0
4384.6797,289.0
4386.4336,285.0
4388.188,249.0
4389.9434,280.0
4391.699,295.0
4393.456,280.0
4395.2134,284.0
4396.9717,273.0
4398.7305,310.0
4400.4897,324.0
4402.25,311.0
4404.0107,294.0
4405.7725,319.0
4407.5347,344.0
4409.298,419.0
4411.0615,337.0
4412.826,276.0
4414.5913,294.0
4416.357,396.0
4418.1235,451.0
4419.8906,387.0
4421.6587,317.0
4423.4272,324.0
4425.197,299.0
4426.967,296.0
4428.738,328.0
4430.5093,370.0
4432.2812,373.0
4434.054,287.0
4435.8276,311.0
4437.602,364.0
4439.377,431.0
4441.153,369.0
4442.929,303.0
4444.7065,289.0
4446.4844,329.0
4448.263,325.0
4450.0425,322.0
4451.8223,344.0
4453.603,371.0
4455.3843,272.0
4457.1665,326.0
4458.949,380.0
4460.733,412.0
4462.517,303.0
4464.3022,310.0
4466.088,336.0
4467.8745,442.0
4469.6616,490.0
4471.4497,400.0
4473.2383,327.0
4475.0273,317.0
4476.8174,330.0
4478.608,346.0
4480.3994,356.0
4482.1914,369.0
4483.9844,334.0
4485.778,294.0
4487.5723,349.0
4489.367,337.0
4491.163,319.0
4492.9595,320.0
4494.757,334.0
4496.5547,294.0
4498.3535,362.0
4500.153,370.0
4501.953,358.0
4503.754,331.0
4505.555,357.0
4507.3574,366.0
4509.16,332.0
4510.964,313.0
4512.768,334.0
4514.573,366.0
4516.379,340.0
4518.1855,289.0
4519.9927,340.0
4521.801,399.0
4523.6094,349.0
4525.419,308.0
4527.229,253.0
4529.04,337.0
4530.8516,479.0
4532.664,443.0
4534.477,349.0
4536.291,290.0
4538.1055,325.0
4539.921,355.0
4541.737,293.0
4543.5537,258.0
4545.371,245.0
4547.1895,299.0
4549.0083,286.0
4550.828,270.0
4552.6484,295.0
4554.4697,274.0
4556.2915,250.0
4558.1143,234.0
4559.9375,274.0
4561.7617,263.0
4563.5864,259.0
4565.4116,292.0
4567.238,255.0
4569.0645,285.0
4570.892,313.0
4572.72,257.0
4574.5493,263.0
4576.379,265.0
4578.2095,302.0
4580.0405,269.0
4581.8726,298.0
4583.705,283.0
4585.5386,301.0
4587.3726,269.0
4589.2075,244.0
4591.043,300.0
4592.8794,313.0
4594.7163,295.0
4596.554,237.0
4598.3926,317.0
4600.232,311.0
4602.0723,328.0
4603.913,306.0
4605.755,269.0
4607.597,275.0
4609.4404,258.0
4611.284,294.0
4613.129,292.0
4614.974,275.0
4616.8203,255.0
4618.667,282.0
4620.5146,296.0
4622.363,286.0
4624.212,282.0
4626.0615,297.0
4627.912,286.0
4629.763,284.0
4631.615,235.0
4633.468,263.0
4635.3213,291.0
4637.1753,314.0
4639.0303,260.0
4640.8857,249.0
4642.742,293.0
4644.599,293.0
4646.457,280.0
4648.3154,271.0
4650.175,247.0
4652.0347,257.0
4653.8955,244.0
4655.757,296.0
4657.619,281.0
4659.4824,276.0
4661.346,305.0
4663.211,263.0
4665.076,298.0
4666.9424,286.0
4668.809,234.0
4670.677,288.0
4672.545,262.0
4674.414,252.0
4676.2837,274.0
4678.1543,310.0
4680.0254,299.0
4681.8975,272.0
4683.77,261.0
4685.6436,301.0
4687.5176,276.0
4689.3926,287.0
4691.2686,252.0
4693.145,326.0
4695.0225,315.0
4696.9004,267.0
4698.7793,281.0
4700.6587,248.0
4702.539,279.0
4704.42,287.0
4706.302,278.0
4708.184,294.0
4710.0674,292.0
4711.951,321.0
4713.836,288.0
4715.7217,262.0
4717.608,252.0
4719.495,265.0
4721.383,260.0
4723.2715,254.0
4725.1606,289.0
4727.051,307.0
4728.9414,308.0
4730.833,298.0
4732.725,269.0
4734.618,248.0
4736.512,261.0
4738.4067,271.0
4740.3022,239.0
4742.198,260.0
4744.095,272.0
4745.9927,279.0
4747.891,279.0
4749.79,253.0
4751.69,282.0
4753.591,258.0
4755.492,276.0
4757.3945,253.0
4759.2974,268.0
4761.201,275.0
4763.1055,255.0
4765.0107,265.0
4766.9165,280.0
4768.823,230.0
4770.731,248.0
4772.639,249.0
4774.5483,244.0
4776.458,245.0
4778.3687,246.0
4780.28,214.0
4782.192,258.0
4784.105,239.0
4786.0186,264.0
4787.933,248.0
4789.848,224.0
4791.764,240.0
4793.6807,236.0
4795.598,267.0
4797.5166,239.0
4799.4355,225.0
4801.3555,202.0
4803.276,220.0
4805.1973,257.0
4807.119,254.0
4809.042,263.0
4810.966,272.0
4812.89,229.0
4814.8154,216.0
4816.741,217.0
4818.668,239.0
4820.595,247.0
4822.5234,219.0
4824.4526,225.0
4826.3823,254.0
4828.313,243.0
4830.244,245.0
4832.1763,246.0
4834.1094,210.0
4836.043,208.0
4837.9775,254.0
4839.9126,208.0
4841.8486,280.0
4843.785,227.0
4845.7227,235.0
4847.661,239.0
4849.6,250.0
4851.54,228.0
4853.4805,225.0
4855.422,244.0
4857.3643,278.0
4859.307,241.0
4861.251,225.0
4863.1953,211.0
4865.1406,238.0
4867.087,260.0
4869.0337,230.0
4870.9814,245.0
4872.9297,223.0
4874.879,236.0
4876.829,215.0
4878.78,233.0
4880.7314,216.0
4882.6836,245.0
4884.6367,256.0
4886.5903,237.0
4888.545,231.0
4890.5005,199.0
4892.4565,213.0
4894.4136,226.0
4896.3716,235.0
4898.33,219.0
4900.2896,232.0
4902.2495,267.0
4904.2104,234.0
4906.1724,219.0
4908.135,229.0
4910.098,232.0
4912.062,229.0
4914.027,236.0
4915.9927,222.0
4917.959,239.0
4919.9263,250.0
4921.894,252.0
4923.863,233.0
4925.8325,228.0
4927.8027,229.0
4929.774,259.0
4931.7456,266.0
4933.7183,241.0
4935.692,217.0
4937.666,268.0
4939.641,230.0
4941.617,243.0
4943.5938,200.0
4945.5713,239.0
4947.5493,253.0
4949.5283,264.0
4951.5083,235.0
4953.489,242.0
4955.47,243.0
4957.4526,270.0
4959.4355,234.0
4961.4194,250.0
4963.404,217.0
4965.389,209.0
4967.3755,229.0
4969.3623,258.0
4971.35,237.0
4973.339,236.0
4975.328,258.0
4977.3184,231.0
4979.309,260.0
4981.301,258.0
4983.2935,261.0
4985.2866,259.0
4987.281,276.0
4989.276,292.0
4991.2715,263.0
4993.268,242.0
4995.265,258.0
4997.263,272.0
4999.262,262.0
5001.2617,257.0
5003.262,250.0
5005.2637,284.0
5007.2656,263.0
5009.2686,292.0
5011.2725,271.0
5013.277,274.0
5015.282,275.0
5017.2886,269.0
5019.2954,271.0
5021.303,236.0
5023.3115,269.0
5025.321,289.0
5027.331,290.0
5029.342,286.0
5031.3535,283.0
5033.366,305.0
5035.3794,292.0
5037.3936,256.0
5039.4087,240.0
5041.4243,265.0
5043.441,252.0
5045.4585,246.0
5047.4766,290.0
5049.4956,306.0
5051.5156,232.0
5053.536,254.0
5055.5576,243.0
5057.58,270.0
5059.603,296.0
5061.627,266.0
5063.6514,261.0
5065.677,291.0
5067.703,270.0
5069.73,269.0
5071.758,274.0
5073.7866,284.0
5075.816,285.0
5077.846,234.0
5079.8774,241.0
5081.909,267.0
5083.942,284.0
5085.9756,245.0
5088.01,271.0
5090.045,292.0
5092.081,272.0
5094.1177,261.0
5096.1553,277.0
5098.194,249.0
5100.233,269.0
5102.273,265.0
5104.314,269.0
5106.3555,289.0
5108.398,246.0
5110.4414,261.0
5112.4854,279.0
5114.5303,262.0
5116.576,241.0
5118.6226,257.0
5120.67,247.0
5122.7183,266.0
5124.7676,286.0
5126.8174,250.0
5128.868,300.0
5130.92,292.0
5132.972,296.0
5135.0254,261.0
5137.0796,281.0
5139.1343,288.0
5141.19,282.0
5143.2466,285.0
5145.3037,318.0
5147.362,307.0
5149.421,326.0
5151.4805,238.0
5153.541,256.0
5155.6025,262.0
5157.6646,263.0
5159.7275,301.0
5161.7915,267.0
5163.8564,259.0
5165.922,260.0
5167.9883,252.0
5170.0557,256.0
5172.1235,252.0
5174.1924,269.0
5176.262,276.0
5178.3325,324.0
5180.404,264.0
5182.476,258.0
5184.549,297.0
5186.6226,311.0
5188.6973,280.0
5190.773,259.0
5192.849,263.0
5194.9263,260.0
5197.0044,267.0
5199.083,240.0
5201.1626,261.0
5203.243,319.0
5205.324,262.0
5207.4062,258.0
5209.4893,287.0
5211.573,245.0
5213.6577,272.0
5215.743,259.0
5217.8296,297.0
5219.9165,299.0
5222.0044,316.0
5224.0933,281.0
5226.183,265.0
5228.2734,282.0
5230.3647,282.0
5232.457,280.0
5234.55,251.0
5236.6436,256.0
5238.7383,291.0
5240.834,272.0
5242.93,312.0
5245.0273,266.0
5247.1255,319.0
5249.224,296.0
5251.3237,281.0
5253.4243,286.0
5255.526,296.0
5257.628,275.0
5259.731,292.0
5261.835,271.0
5263.9395,268.0
5266.045,296.0
5268.1514,301.0
5270.259,290.0
5272.3667,296.0
5274.4756,273.0
5276.5854,321.0
5278.6963,339.0
5280.8076,284.0
5282.92,307.0
5285.033,332.0
5287.147,299.0
5289.2617,263.0
5291.3774,257.0
5293.494,267.0
5295.6113,237.0
5297.7295,294.0
5299.8486,362.0
5301.9688,364.0
5304.0894,305.0
5306.211,271.0
5308.3335,285.0
5310.457,281.0
5312.581,298.0
5314.706,244.0
5316.832,361.0
5318.959,413.0
5321.0864,346.0
5323.215,294.0
5325.344,297.0
5327.4746,266.0
5329.6055,303.0
5331.7373,282.0
5333.87,266.0
5336.004,266.0
5338.138,292.0
5340.2734,288.0
5342.4097,248.0
5344.547,322.0
5346.6846,325.0
5348.823,297.0
5350.963,257.0
5353.1035,290.0
5355.2446,270.0
5357.3867,295.0
5359.53,334.0
5361.674,385.0
5363.8184,306.0
5365.964,300.0
5368.1104,332.0
5370.258,265.0
5372.406,314.0
5374.5547,337.0
5376.7046,370.0
5378.8555,334.0
5381.007,332.0
5383.159,281.0
5385.3125,299.0
5387.467,276.0
5389.6216,343.0
5391.7773,368.0
5393.934,346.0
5396.092,322.0
5398.25,335.0
5400.409,301.0
5402.5693,285.0
5404.7305,338.0
5406.8926,333.0
5409.055,366.0
5411.2188,336.0
5413.3833,336.0
5415.549,329.0
5417.715,352.0
5419.882,318.0
5422.05,315.0
5424.2188,331.0
5426.3887,299.0
5428.559,314.0
5430.7305,315.0
5432.903,310.0
5435.076,313.0
5437.25,311.0
5439.425,334.0
5441.6006,388.0
5443.7773,364.0
5445.955,341.0
5448.1333,297.0
5450.3125,317.0
5452.4927,331.0
5454.674,330.0
5456.8555,335.0
5459.038,366.0
5461.2217,303.0
5463.4062,313.0
5465.592,324.0
5467.778,329.0
5469.965,370.0
5472.153,332.0
5474.342,367.0
5476.5317,347.0
5478.722,329.0
5480.9136,323.0
5483.106,337.0
5485.2993,350.0
5487.4937,356.0
5489.6885,345.0
5491.8843,346.0
5494.081,334.0
5496.279,340.0
5498.4775,342.0
5500.677,334.0
5502.877,366.0
5505.078,398.0
5507.2803,346.0
5509.4834,339.0
5511.687,375.0
5513.8916,354.0
5516.097,345.0
5518.3037,362.0
5520.511,340.0
5522.719,375.0
5524.928,344.0
5527.138,316.0
5529.349,316.0
5531.561,339.0
5533.7734,356.0
5535.987,353.0
5538.201,350.0
5540.4165,374.0
5542.633,366.0
5544.85,365.0
5547.068,347.0
5549.2866,352.0
5551.5063,333.0
5553.727,312.0
5555.9487,348.0
5558.171,335.0
5560.394,362.0
5562.618,351.0
5564.8433,375.0
5567.0693,369.0
5569.2964,376.0
5571.524,341.0
5573.7524,376.0
5575.982,301.0
5578.2124,304.0
5580.444,315.0
5582.676,360.0
5584.9087,367.0
5587.1426,334.0
5589.3774,310.0
5591.6133,327.0
5593.85,314.0
5596.0874,325.0
5598.3257,351.0
5600.565,336.0
5602.805,364.0
5605.0464,324.0
5607.2886,319.0
5609.5312,310.0
5611.775,293.0
5614.0195,335.0
5616.265,365.0
5618.5117,317.0
5620.7593,274.0
5623.008,278.0
5625.257,307.0
5627.507,305.0
5629.758,312.0
5632.01,324.0
5634.2627,316.0
5636.5166,311.0
5638.771,307.0
5641.0264,309.0
5643.2827,329.0
5645.54,333.0
5647.7983,295.0
5650.0576,338.0
5652.318,286.0
5654.5786,298.0
5656.8403,340.0
5659.103,303.0
5661.3667,304.0
5663.6313,316.0
5665.897,346.0
5668.1636,278.0
5670.4307,305.0
5672.6987,316.0
5674.968,347.0
5677.238,309.0
5679.509,343.0
5681.781,300.0
5684.0537,349.0
5686.327,300.0
5688.6016,323.0
5690.877,325.0
5693.1533,333.0
5695.4307,352.0
5697.709,326.0
5699.9883,336.0
5702.268,305.0
5704.549,315.0
5706.8306,338.0
5709.1133,317.0
5711.397,325.0
5713.6816,318.0
5715.9673,314.0
5718.254,347.0
5720.541,344.0
5722.829,367.0
5725.118,358.0
5727.408,327.0
5729.699,297.0
5731.991,297.0
5734.284,339.0
5736.578,338.0
5738.8726,374.0
5741.168,345.0
5743.4644,357.0
5745.7617,343.0
5748.06,338.0
5750.3594,344.0
5752.6597,380.0
5754.961,372.0
5757.2627,397.0
5759.5654,391.0
5761.869,332.0
5764.174,349.0
5766.4795,338.0
5768.786,385.0
5771.0938,372.0
5773.4023,384.0
5775.712,378.0
5778.022,354.0
5780.333,387.0
5782.645,400.0
5784.958,367.0
5787.272,387.0
5789.587,387.0
5791.903,414.0
5794.2197,369.0
5796.5376,383.0
5798.8564,434.0
5801.176,434.0
5803.496,436.0
5805.8174,415.0
5808.1396,431.0
5810.463,433.0
5812.787,390.0
5815.1123,455.0
5817.4385,441.0
5819.7656,484.0
5822.0938,491.0
5824.4224,448.0
5826.752,398.0
5829.0825,445.0
5831.414,514.0
5833.7466,395.0
5836.08,421.0
5838.4146,514.0
5840.75,556.0
5843.0864,433.0
5845.424,412.0
5847.762,474.0
5850.101,467.0
5852.441,414.0
5854.7817,432.0
5857.1235,466.0
5859.4663,424.0
5861.81,428.0
5864.155,431.0
5866.5005,432.0
5868.847,430.0
5871.195,422.0
5873.5435,458.0
5875.893,454.0
5878.2437,420.0
5880.5947,424.0
5882.947,449.0
5885.3,438.0
5887.654,476.0
5890.009,465.0
5892.3647,478.0
5894.7217,439.0
5897.0796,452.0
5899.4385,443.0
5901.7983,444.0
5904.159,508.0
5906.521,454.0
5908.884,502.0
5911.2476,516.0
5913.612,491.0
5915.977,513.0
5918.3433,511.0
5920.7104,475.0
5923.0786,446.0
5925.4478,482.0
5927.818,581.0
5930.189,526.0
5932.561,554.0
5934.934,512.0
5937.308,446.0
5939.683,495.0
5942.059,502.0
5944.436,577.0
5946.814,512.0
5949.193,528.0
5951.5728,494.0
5953.9536,509.0
5956.335,512.0
5958.7173,551.0
5961.1006,588.0
5963.485,535.0
5965.87,480.0
5968.2563,552.0
5970.6436,564.0
5973.0317,527.0
5975.421,527.0
5977.811,593.0
5980.202,565.0
5982.594,513.0
5984.9873,539.0
5987.3813,575.0
5989.7764,525.0
5992.1724,589.0
5994.5693,618.0
5996.9673,552.0
5999.366,492.0
6001.766,648.0
6004.167,625.0
6006.569,607.0
6008.9717,598.0
6011.3755,658.0
6013.7803,548.0
6016.1855,517.0
6018.592,565.0
6020.999,608.0
6023.407,513.0
6025.8164,516.0
6028.2266,525.0
6030.6377,595.0
6033.05,525.0
6035.463,524.0
6037.877,611.0
6040.292,552.0
6042.708,517.0
6045.125,599.0
6047.543,624.0
6049.962,478.0
6052.382,484.0
6054.8027,465.0
6057.2246,475.0
6059.6475,470.0
6062.0713,605.0
6064.496,646.0
6066.922,529.0
6069.3486,504.0
6071.7764,540.0
6074.205,490.0
6076.635,546.0
6079.0654,512.0
6081.497,523.0
6083.9297,558.0
6086.3633,558.0
6088.798,560.0
6091.2334,572.0
6093.67,561.0
6096.1074,549.0
6098.546,506.0
6100.9854,584.0
6103.426,558.0
6105.867,601.0
6108.3096,559.0
6110.753,593.0
6113.1973,590.0
6115.6426,624.0
6118.089,663.0
6120.536,611.0
6122.9844,581.0
6125.4336,554.0
6127.884,621.0
6130.335,768.0
6132.787,758.0
6135.24,722.0
6137.6943,747.0
6140.1494,652.0
6142.6055,675.0
6145.0625,673.0
6147.5205,711.0
6149.9795,813.0
6152.4395,779.0
6154.9004,793.0
6157.3623,818.0
6159.825,843.0
6162.289,745.0
6164.754,670.0
6167.2197,639.0
6169.6865,714.0
6172.1543,826.0
6174.623,1051.0
6177.093,1104.0
6179.5635,835.0
6182.035,752.0
6184.508,711.0
6186.9814,806.0
6189.456,880.0
6191.9316,1232.0
6194.408,1234.0
6196.8857,1094.0
6199.3643,948.0
6201.844,903.0
6204.325,777.0
6206.807,717.0
6209.29,629.0
6211.774,655.0
6214.259,808.0
6216.7446,919.0
6219.2314,896.0
6221.719,763.0
6224.208,668.0
6226.6978,662.0
6229.1885,736.0
6231.68,1091.0
6234.173,1204.0
6236.6665,963.0
6239.161,758.0
6241.6567,697.0
6244.1533,684.0
6246.651,853.0
6249.1494,959.0
6251.649,826.0
6254.1494,844.0
6256.651,952.0
6259.1533,862.0
6261.6567,735.0
6264.1616,609.0
6266.6675,594.0
6269.1743,564.0
6271.682,1003.0
6274.191,1388.0
6276.7007,1211.0
6279.2114,726.0
6281.723,526.0
6284.236,572.0
6286.7495,622.0
6289.264,1305.0
6291.78,1976.0
6294.2964,1468.0
6296.814,806.0
6299.3325,629.0
6301.852,632.0
6304.3726,568.0
6306.8945,545.0
6309.4175,606.0
6311.9414,634.0
6314.4663,576.0
6316.992,598.0
6319.519,564.0
6322.047,485.0
6324.5757,515.0
6327.1055,514.0
6329.636,589.0
6332.168,530.0
6334.7007,536.0
6337.2344,526.0
6339.769,521.0
6342.305,567.0
6344.8423,515.0
6347.3804,581.0
6349.9194,623.0
6352.4595,561.0
6355.0005,558.0
6357.5425,561.0
6360.0854,550.0
6362.6294,586.0
6365.1743,571.0
6367.72,521.0
6370.267,494.0
6372.8154,550.0
6375.3647,561.0
6377.915,577.0
6380.4663,565.0
6383.0186,630.0
6385.572,611.0
6388.126,617.0
6390.681,582.0
6393.2373,565.0
6395.7944,607.0
6398.3525,568.0
6400.912,609.0
6403.4727,643.0
6406.034,642.0
6408.5967,635.0
6411.16,583.0
6413.7246,567.0
6416.29,577.0
6418.8564,605.0
6421.424,549.0
6423.992,575.0
6426.562,522.0
6429.133,632.0
6431.7046,591.0
6434.2773,562.0
6436.851,630.0
6439.426,602.0
6442.0015,538.0
6444.578,629.0
6447.156,606.0
6449.735,600.0
6452.315,567.0
6454.896,563.0
6457.478,549.0
6460.061,548.0
6462.645,590.0
6465.23,552.0
6467.816,589.0
6470.403,562.0
6472.991,603.0
6475.5806,562.0
6478.171,549.0
6480.762,601.0
6483.3545,565.0
6485.9478,562.0
6488.542,605.0
6491.137,586.0
6493.734,520.0
6496.3315,672.0
6498.93,621.0
6501.53,539.0
6504.1304,619.0
6506.732,612.0
6509.3345,612.0
6511.938,623.0
6514.543,684.0
6517.149,703.0
6519.756,631.0
6522.364,655.0
6524.9727,663.0
6527.5825,659.0
6530.1934,636.0
6532.8057,699.0
6535.419,653.0
6538.033,690.0
6540.6484,723.0
6543.2646,705.0
6545.882,683.0
6548.5,774.0
6551.1196,740.0
6553.74,706.0
6556.362,789.0
6558.9844,874.0
6561.608,790.0
6564.2324,703.0
6566.858,647.0
6569.485,669.0
6572.113,678.0
6574.7417,722.0
6577.3716,784.0
6580.0024,737.0
6582.6343,687.0
6585.267,715.0
6587.9014,679.0
6590.5366,725.0
6593.173,839.0
6595.81,775.0
6598.448,686.0
6601.0874,728.0
6603.728,723.0
6606.3696,752.0
6609.012,733.0
6611.656,761.0
6614.3003,780.0
6616.946,749.0
6619.593,733.0
6622.2407,770.0
6624.8896,729.0
6627.5396,699.0
6630.1904,760.0
6632.8423,682.0
6635.4956,679.0
6638.15,893.0
6640.805,902.0
6643.4614,805.0
6646.1187,734.0
6648.7773,723.0
6651.437,692.0
6654.0977,756.0
6656.7593,909.0
6659.422,786.0
6662.0854,736.0
6664.7505,667.0
6667.4165,627.0
6670.0835,593.0
6672.7515,622.0
6675.4204,676.0
6678.091,702.0
6680.762,683.0
6683.4346,649.0
6686.108,612.0
6688.782,595.0
6691.4575,588.0
6694.1343,679.0
6696.812,798.0
6699.4907,700.0
6702.1704,631.0
6704.851,607.0
6707.533,602.0
6710.2163,620.0
6712.9004,671.0
6715.5854,753.0
6718.2715,701.0
6720.959,658.0
6723.6475,735.0
6726.337,723.0
6729.0273,664.0
6731.7188,616.0
6734.4116,672.0
6737.1055,701.0
6739.8003,778.0
6742.496,859.0
6745.193,760.0
6747.891,693.0
6750.5903,675.0
6753.2905,633.0
6755.9917,722.0
6758.6943,948.0
6761.398,884.0
6764.1025,848.0
6766.808,803.0
6769.5146,708.0
6772.2227,702.0
6774.9316,767.0
6777.6416,878.0
6780.3525,835.0
6783.0645,896.0
6785.778,882.0
6788.492,752.0
6791.2075,839.0
6793.924,799.0
6796.6416,723.0
6799.3604,727.0
6802.08,764.0
6804.801,767.0
6807.5225,919.0
6810.2456,1018.0
6812.9697,830.0
6815.695,688.0
6818.421,646.0
6821.1484,860.0
6823.877,1233.0
6826.6064,1206.0
6829.337,865.0
6832.069,676.0
6834.802,562.0
6837.5356,706.0
6840.2705,915.0
6843.007,1130.0
6845.744,936.0
6848.4824,681.0
6851.2217,623.0
6853.9624,759.0
6856.704,877.0
6859.447,852.0
6862.1904,760.0
6864.9355,639.0
6867.6816,623.0
6870.4287,655.0
6873.177,605.0
6875.9263,576.0
6878.677,609.0
6881.428,632.0
6884.1807,618.0
6886.9346,608.0
6889.6895,567.0
6892.4453,593.0
6895.202,687.0
6897.9604,631.0
6900.7197,628.0
6903.48,669.0
6906.241,631.0
6909.004,652.0
6911.7676,694.0
6914.532,683.0
6917.298,746.0
6920.065,762.0
6922.833,661.0
6925.602,669.0
6928.372,682.0
6931.1436,685.0
6933.916,619.0
6936.6895,625.0
6939.4644,633.0
6942.24,618.0
6945.017,619.0
6947.795,738.0
6950.574,700.0
6953.3545,682.0
6956.1357,736.0
6958.918,660.0
6961.7017,722.0
6964.4863,717.0
6967.272,688.0
6970.059,658.0
6972.847,733.0
6975.636,804.0
6978.4263,700.0
6981.218,856.0
6984.0103,810.0
6986.8037,725.0
6989.5986,760.0
6992.3945,876.0
6995.1914,905.0
6997.9893,877.0
7000.7886,1014.0
7003.589,863.0
7006.39,780.0
7009.193,855.0
7011.9966,746.0
7014.8013,822.0
7017.6074,985.0
7020.4146,966.0
7023.2227,1021.0
7026.0317,1212.0
7028.8423,1018.0
7031.654,794.0
7034.4663,679.0
7037.2803,673.0
7040.095,902.0
7042.911,1355.0
7045.7285,1039.0
7048.547,809.0
7051.366,733.0
7054.1865,703.0
7057.0083,985.0
7059.831,1806.0
7062.655,1605.0
7065.48,1048.0
7068.306,769.0
7071.1333,711.0
7073.962,741.0
7076.7915,700.0
7079.622,750.0
7082.454,770.0
7085.287,721.0
7088.121,729.0
7090.9565,752.0
7093.793,759.0
7096.6304,780.0
7099.469,866.0
7102.309,747.0
7105.15,821.0
7107.992,790.0
7110.8354,864.0
7113.6797,936.0
7116.5254,948.0
7119.372,832.0
7122.2197,938.0
7125.069,1015.0
7127.919,1046.0
7130.77,988.0
7133.6226,870.0
7136.476,944.0
7139.3306,1213.0
7142.1865,1236.0
7145.0435,1040.0
7147.9014,997.0
7150.7607,988.0
7153.621,1024.0
7156.4824,1512.0
7159.345,1637.0
7162.209,1222.0
7165.0737,1046.0
7167.94,1130.0
7170.807,1236.0
7173.6753,1324.0
7176.545,1197.0
7179.4155,1142.0
7182.287,1089.0
7185.16,1071.0
7188.034,1148.0
7190.909,1232.0
7193.7856,1100.0
7196.663,1475.0
7199.542,1573.0
7202.422,1161.0
7205.3027,879.0
7208.185,701.0
7211.0684,914.0
7213.9526,1939.0
7216.8384,1946.0
7219.725,1195.0
7222.613,823.0
7225.502,698.0
7228.392,1055.0
7231.283,2671.0
7234.176,2880.0
7237.0693,1610.0
7239.9644,965.0
7242.8604,745.0
7245.7573,719.0
7248.656,711.0
7251.555,756.0
7254.4556,712.0
7257.3574,723.0
7260.2603,637.0
7263.1646,670.0
7266.07,687.0
7268.976,758.0
7271.884,718.0
7274.7925,658.0
7277.7026,677.0
7280.614,731.0
7283.526,718.0
7286.4395,824.0
7289.354,747.0
7292.2695,704.0
7295.1865,836.0
7298.1045,755.0
7301.024,720.0
7303.9443,665.0
7306.8657,675.0
7309.7886,725.0
7312.7124,1141.0
7315.6377,948.0
7318.564,708.0
7321.491,615.0
7324.42,604.0
7327.3496,815.0
7330.281,1183.0
7333.213,1059.0
7336.146,794.0
7339.0806,670.0
7342.016,626.0
7344.953,706.0
7347.891,866.0
7350.83,774.0
7353.7705,727.0
7356.712,656.0
7359.655,703.0
7362.5986,640.0
7365.5435,634.0
7368.4897,587.0
7371.437,635.0
7374.3857,728.0
7377.3354,700.0
7380.2866,728.0
7383.239,800.0
7386.192,704.0
7389.1465,681.0
7392.102,698.0
7395.059,641.0
7398.017,728.0
7400.976,859.0
7403.9365,797.0
7406.898,725.0
7409.861,649.0
7412.8247,687.0
7415.79,735.0
7418.7563,826.0
7421.7236,712.0
7424.6924,709.0
7427.662,633.0
7430.6333,632.0
7433.6055,782.0
7436.579,848.0
7439.5537,731.0
7442.5293,713.0
7445.5063,657.0
7448.4844,569.0
7451.464,660.0
7454.4443,626.0
7457.4263,565.0
7460.409,550.0
7463.3936,531.0
7466.379,648.0
7469.365,718.0
7472.353,582.0
7475.342,513.0
7478.332,490.0
7481.323,560.0
7484.316,855.0
7487.3096,900.0
7490.3047,621.0
7493.301,533.0
7496.2983,498.0
7499.297,547.0
7502.2964,576.0
7505.2974,559.0
7508.2993,490.0
7511.3027,480.0
7514.307,475.0
7517.313,525.0
7520.32,553.0
7523.328,488.0
7526.3374,501.0
7529.348,558.0
7532.36,533.0
7535.373,489.0
7538.387,484.0
7541.4023,465.0
7544.419,543.0
7547.4365,658.0
7550.4556,552.0
7553.4756,454.0
7556.497,497.0
7559.5195,474.0
7562.5435,599.0
7565.5684,674.0
7568.5947,505.0
7571.622,535.0
7574.651,495.0
7577.6807,458.0
7580.712,484.0
7583.744,565.0
7586.778,544.0
7589.8125,473.0
7592.8486,439.0
7595.8857,466.0
7598.9243,538.0
7601.964,523.0
7605.005,437.0
7608.047,390.0
7611.0903,410.0
7614.135,519.0
7617.18,610.0
7620.227,546.0
7623.275,469.0
7626.324,462.0
7629.3745,463.0
7632.4263,484.0
7635.479,454.0
7638.533,440.0
7641.5884,498.0
7644.645,452.0
7647.7026,417.0
7650.7617,444.0
7653.8223,473.0
7656.884,470.0
7659.947,466.0
7663.0107,492.0
7666.076,461.0
7669.1426,483.0
7672.2104,430.0
7675.2793,494.0
7678.3496,480.0
7681.421,520.0
7684.4937,460.0
7687.5674,519.0
7690.6426,511.0
7693.7188,502.0
7696.7964,506.0
7699.875,500.0
7702.955,570.0
7706.036,514.0
7709.1187,555.0
7712.202,552.0
7715.287,552.0
7718.373,530.0
7721.4604,507.0
7724.549,563.0
7727.6387,632.0
7730.7295,611.0
7733.822,532.0
7736.9155,547.0
7740.0103,596.0
7743.1064,654.0
7746.2036,644.0
7749.3022,622.0
7752.402,570.0
7755.503,727.0
7758.605,623.0
7761.7085,599.0
7764.813,584.0
7767.919,659.0
7771.026,794.0
7774.1343,739.0
7777.244,637.0
7780.355,604.0
7783.4673,642.0
7786.5806,832.0
7789.6953,922.0
7792.811,890.0
7795.928,715.0
7799.0464,603.0
7802.166,653.0
7805.287,686.0
7808.409,741.0
7811.5327,765.0
7814.657,688.0
7817.783,696.0
7820.91,583.0
7824.0386,664.0
7827.168,768.0
7830.299,907.0
7833.431,716.0
7836.5645,669.0
7839.699,686.0
7842.835,704.0
7845.972,859.0
7849.1104,839.0
7852.25,744.0
7855.391,682.0
7858.533,770.0
7861.677,713.0
7864.8213,678.0
7867.9673,735.0
7871.1143,717.0
7874.2627,783.0
7877.4126,805.0
7880.5635,820.0
7883.716,938.0
7886.869,780.0
7890.024,778.0
7893.18,735.0
7896.3374,794.0
7899.496,1019.0
7902.656,1035.0
7905.817,943.0
7908.979,825.0
7912.1426,884.0
7915.3076,997.0
7918.4736,1215.0
7921.641,1094.0
7924.8096,941.0
7927.9795,913.0
7931.151,911.0
7934.323,916.0
7937.497,1069.0
7940.672,1144.0
7943.848,1112.0
7947.026,1066.0
7950.2046,1089.0
7953.385,1192.0
7956.566,1249.0
7959.7485,1171.0
7962.9326,1236.0
7966.1177,1242.0
7969.304,1405.0
7972.4917,1510.0
7975.6807,1383.0
7978.871,1388.0
7982.0625,1479.0
7985.2554,1680.0
7988.4497,1732.0
7991.645,1707.0
7994.842,1671.0
7998.0396,1596.0
8001.239,1699.0
8004.4395,2049.0
8007.641,2136.0
8010.844,2079.0
8014.0483,2045.0
8017.254,2150.0
8020.461,2136.0
8023.669,2295.0
8026.8784,2197.0
8030.0894,2143.0
8033.3013,2567.0
8036.5146,2774.0
8039.7295,3071.0
8042.9453,2938.0
8046.1626,2614.0
8049.381,2654.0
8052.6006,3236.0
8055.822,3964.0
8059.044,3897.0
8062.2676,3308.0
8065.4927,3450.0
8068.7188,3915.0
8071.9463,4325.0
8075.1753,4624.0
8078.4053,4531.0
8081.6367,4859.0
8084.869,5763.0
8088.103,4905.0
8091.3384,4073.0
8094.5747,3852.0
8097.8125,5070.0
8101.052,7986.0
8104.292,7239.0
8107.5337,5811.0
8110.777,4712.0
8114.021,4822.0
8117.2666,9320.0
8120.5137,11564.0
8123.7617,9054.0
8127.011,7963.0
8130.262,6257.0
8133.514,6219.0
8136.7676,7264.0
8140.0225,8056.0
8143.2783,10410.0
8146.5356,9710.0
8149.7944,7220.0
8153.054,9059.0
8156.3154,7978.0
8159.578,9011.0
8162.842,10884.0
8166.107,10016.0
8169.3735,16100.0
8172.641,15649.0
8175.91,8772.0
8179.1807,4620.0
8182.452,5499.0
8185.725,23413.0
8188.9995,31012.0
8192.275,13818.0
8195.553,5528.0
8198.831,4212.0
8202.11,21708.0
8205.392,56388.0
8208.674,32926.0
8211.957,10579.0
8215.242,4475.0
8218.528,3246.0
8221.815,2615.0
8225.1045,3283.0
8228.395,4178.0
8231.686,3155.0
8234.979,1972.0
8238.272,1502.0
8241.567,1627.0
8244.864,1887.0
8248.162,1844.0
8251.461,1702.0
8254.762,1512.0
8258.063,1382.0
8261.367,1522.0
8264.672,1562.0
8267.978,1472.0
8271.285,1560.0
8274.594,1336.0
8277.903,1277.0
8281.215,1243.0
8284.527,1243.0
8287.841,1539.0
8291.156,1451.0
8294.473,1310.0
8297.79,1186.0
8301.109,1292.0
8304.43,1344.0
8307.751,1528.0
8311.074,1478.0
8314.398,1600.0
8317.725,1529.0
8321.052,1353.0
8324.38,1222.0
8327.71,1346.0
8331.041,1853.0
8334.373,1769.0
8337.707,1276.0
8341.042,1263.0
8344.378,1377.0
8347.716,1939.0
8351.055,2071.0
8354.3955,1567.0
8357.737,1513.0
8361.08,1405.0
8364.425,1146.0
8367.7705,1030.0
8371.117,1109.0
8374.466,1555.0
8377.815,1592.0
8381.167,1191.0
8384.52,861.0
8387.873,983.0
8391.229,1261.0
8394.585,1423.0
8397.942,1086.0
8401.302,942.0
8404.662,932.0
8408.024,1041.0
8411.388,989.0
8414.752,942.0
8418.118,894.0
8421.485,814.0
8424.854,805.0
8428.224,778.0
8431.595,964.0
8434.968,942.0
8438.342,862.0
8441.717,848.0
8445.094,895.0
8448.472,994.0
8451.851,951.0
8455.231,903.0
8458.613,946.0
8461.997,990.0
8465.382,1156.0
8468.768,1147.0
8472.155,1106.0
8475.544,1204.0
8478.935,1140.0
8482.326,1068.0
8485.719,1265.0
8489.113,1439.0
8492.509,1649.0
8495.906,1396.0
8499.305,1293.0
8502.704,1531.0
8506.105,1734.0
8509.508,1909.0
8512.911,1699.0
8516.316,1843.0
8519.723,2153.0
8523.131,1847.0
8526.54,2062.0
8529.95,2028.0
8533.362,2840.0
8536.775,3420.0
8540.19,2400.0
8543.606,1509.0
8547.023,1357.0
8550.442,3570.0
8553.862,5302.0
8557.284,3054.0
8560.707,1735.0
8564.131,1453.0
8567.557,4169.0
8570.983,8249.0
8574.412,4997.0
8577.842,2481.0
8581.272,1671.0
8584.705,1125.0
8588.139,1012.0
8591.574,1220.0
8595.011,1733.0
8598.449,1608.0
8601.889,1069.0
8605.329,822.0
8608.771,751.0
8612.215,755.0
8615.66,756.0
8619.106,793.0
8622.554,783.0
8626.003,683.0
8629.453,676.0
8632.905,707.0
8636.358,809.0
8639.8125,756.0
8643.269,774.0
8646.726,722.0
8650.185,655.0
8653.645,794.0
8657.106,762.0
8660.569,730.0
8664.033,758.0
8667.499,745.0
8670.966,857.0
8674.435,849.0
8677.904,843.0
8681.375,904.0
8684.848,850.0
8688.321,798.0
8691.797,874.0
8695.273,1055.0
8698.752,1038.0
8702.231,997.0
8705.712,960.0
8709.194,1025.0
8712.678,1131.0
8716.163,1294.0
8719.649,1218.0
8723.138,1138.0
8726.627,1115.0
8730.117,1188.0
8733.609,1148.0
8737.103,1259.0
8740.598,1294.0
8744.094,1194.0
8747.592,1250.0
8751.091,1379.0
8754.591,1616.0
8758.093,1492.0
8761.596,1380.0
8765.101,1382.0
8768.606,1549.0
8772.114,1893.0
8775.623,1797.0
8779.133,1641.0
8782.645,1859.0
8786.157,1680.0
8789.672,1809.0
8793.1875,1860.0
8796.705,2463.0
8800.224,2696.0
8803.744,1964.0
8807.266,1456.0
8810.788,1668.0
8814.3125,3399.0
8817.838,3592.0
8821.365,2353.0
8824.894,1831.0
8828.424,1833.0
8831.955,3730.0
8835.488,4215.0
8839.022,2717.0
8842.558,2244.0
8846.095,1828.0
8849.633,1659.0
8853.173,1651.0
8856.714,2407.0
8860.257,2838.0
8863.801,2222.0
8867.347,1682.0
8870.894,1702.0
8874.442,2668.0
8877.992,3666.0
8881.543,2831.0
8885.096,2115.0
8888.649,1802.0
8892.205,1765.0
8895.762,1855.0
8899.32,2227.0
8902.88,2445.0
8906.441,1922.0
8910.004,1657.0
8913.568,1807.0
8917.134,2676.0
8920.7,2546.0
8924.269,1983.0
8927.838,1764.0
8931.409,1966.0
8934.981,3124.0
8938.556,2786.0
8942.131,2189.0
8945.708,2015.0
8949.286,1678.0
8952.866,1507.0
8956.447,1561.0
8960.03,1974.0
8963.614,1937.0
8967.199,1623.0
8970.786,1310.0
8974.374,1591.0
8977.964,1850.0
8981.555,1730.0
8985.147,1461.0
8988.741,1377.0
8992.337,1685.0
8995.934,1792.0
8999.532,1629.0
9003.132,1407.0
9006.733,1531.0
9010.336,1583.0
9013.94,1475.0
9017.546,1422.0
9021.153,1355.0
9024.762,1637.0
9028.372,1714.0
9031.983,1353.0
9035.597,1118.0
9039.211,1264.0
9042.826,1753.0
9046.443,1512.0
9050.062,1209.0
9053.682,969.0
9057.303,1452.0
9060.926,2241.0
9064.55,1790.0
9068.176,1109.0
9071.803,936.0
9075.432,1242.0
9079.062,1540.0
9082.693,1233.0
9086.326,938.0
9089.961,922.0
9093.597,1059.0
9097.234,1161.0
9100.873,1032.0
9104.514,986.0
9108.155,892.0
9111.799,781.0
9115.443,748.0
9119.09,897.0
9122.737,1008.0
9126.387,931.0
9130.037,799.0
9133.689,792.0
9137.343,989.0
9140.998,1066.0
9144.654,996.0
9148.3125,927.0
9151.972,795.0
9155.633,800.0
9159.295,781.0
9162.959,1051.0
9166.624,1078.0
9170.291,787.0
9173.959,716.0
9177.629,841.0
9181.3,1378.0
9184.973,1295.0
9188.646,941.0
9192.322,677.0
9195.999,921.0
9199.678,1342.0
9203.357,1041.0
9207.039,924.0
9210.722,756.0
9214.406,544.0
9218.092,507.0
9221.779,684.0
9225.468,883.0
9229.158,755.0
9232.85,546.0
9236.543,519.0
9240.237,750.0
9243.934,991.0
9247.631,764.0
9251.33,544.0
9255.03,454.0
9258.732,417.0
9262.436,393.0
9266.141,508.0
9269.847,484.0
9273.555,374.0
9277.264,373.0
9280.975,380.0
9284.687,462.0
9288.4,423.0
9292.116,372.0
9295.833,369.0
9299.552,410.0
9303.271,380.0
9306.993,375.0
9310.716,362.0
9314.44,355.0
9318.166,343.0
9321.894,356.0
9325.622,369.0
9329.353,347.0
9333.084,353.0
9336.817,348.0
9340.552,316.0
9344.288,353.0
9348.025,314.0
9351.765,340.0
9355.505,334.0
9359.247,318.0
9362.991,295.0
9366.736,315.0
9370.483,332.0
9374.231,318.0
9377.981,328.0
9381.732,322.0
9385.485,323.0
9389.239,314.0
9392.995,331.0
9396.752,292.0
9400.511,323.0
9404.2705,305.0
9408.032,293.0
9411.796,277.0
9415.561,302.0
9419.327,252.0
9423.095,291.0
9426.864,306.0
9430.635,296.0
9434.407,285.0
9438.181,287.0
9441.956,304.0
9445.732,340.0
9449.511,302.0
9453.291,277.0
9457.072,278.0
9460.855,342.0
9464.64,353.0
9468.426,307.0
9472.213,293.0
9476.002,276.0
9479.792,253.0
9483.584,266.0
9487.377,341.0
9491.172,303.0
9494.969,268.0
9498.767,219.0
9502.566,283.0
9506.367,333.0
9510.17,299.0
9513.974,261.0
9517.779,245.0
9521.586,246.0
9525.395,239.0
9529.205,283.0
9533.017,270.0
9536.83,245.0
9540.645,193.0
9544.461,226.0
9548.278,311.0
9552.098,350.0
9555.919,258.0
9559.741,224.0
9563.565,251.0
9567.391,228.0
9571.218,225.0
9575.046,231.0
9578.876,245.0
9582.708,221.0
9586.541,210.0
9590.376,250.0
9594.212,250.0
9598.05,249.0
9601.889,191.0
9605.7295,202.0
9609.572,246.0
9613.416,225.0
9617.262,206.0
9621.108,196.0
9624.957,193.0
9628.807,190.0
9632.658,208.0
9636.512,231.0
9640.366,191.0
9644.223,195.0
9648.08,189.0
9651.939,199.0
9655.8,200.0
9659.662,201.0
9663.526,211.0
9667.392,204.0
9671.259,162.0
9675.127,206.0
9678.997,216.0
9682.869,230.0
9686.742,195.0
9690.617,197.0
9694.493,194.0
9698.371,181.0
9702.25,199.0
9706.131,187.0
9710.014,189.0
9713.897,168.0
9717.783,178.0
9721.67,186.0
9725.559,178.0
9729.449,161.0
9733.341,187.0
9737.234,172.0
9741.129,180.0
9745.025,180.0
9748.924,193.0
9752.823,164.0
9756.725,191.0
9760.627,179.0
9764.531,186.0
9768.4375,182.0
9772.345,179.0
9776.254,168.0
9780.164,161.0
9784.076,177.0
9787.99,214.0
9791.905,184.0
9795.822,185.0
9799.74,213.0
9803.66,194.0
9807.582,204.0
9811.505,206.0
9815.43,196.0
9819.355,195.0
9823.283,179.0
9827.213,201.0
9831.144,214.0
9835.076,190.0
9839.01,212.0
9842.945,203.0
9846.883,241.0
9850.821,225.0
9854.762,188.0
9858.704,175.0
9862.647,189.0
9866.593,195.0
9870.539,195.0
9874.487,198.0
9878.4375,203.0
9882.389,195.0
9886.342,162.0
9890.296,171.0
9894.252,223.0
9898.21,198.0
9902.169,190.0
9906.13,222.0
9910.093,194.0
9914.057,163.0
9918.022,217.0
9921.989,190.0
9925.958,217.0
9929.929,209.0
9933.9,170.0
9937.874,184.0
9941.85,184.0
9945.826,182.0
9949.805,200.0
9953.784,185.0
9957.766,180.0
9961.749,166.0
9965.733,186.0
9969.72,206.0
9973.708,200.0
9977.697,161.0
9981.688,188.0
9985.681,198.0
9989.675,159.0
9993.671,200.0
9997.668,215.0
10001.667,178.0
10005.668,174.0
10009.67,170.0
10013.674,170.0
10017.68,205.0
10021.687,148.0
10025.695,200.0
10029.706,183.0
10033.718,198.0
10037.731,171.0
10041.746,188.0
10045.763,167.0
10049.781,208.0
10053.801,174.0
10057.822,210.0
10061.846,157.0
10065.87,185.0
10069.896,198.0
10073.925,160.0
10077.954,206.0
10081.985,201.0
10086.019,206.0
10090.053,180.0
10094.089,204.0
10098.127,179.0
10102.166,183.0
10106.207,217.0
10110.25,189.0
10114.294,183.0
10118.34,181.0
10122.387,208.0
10126.436,201.0
10130.486,190.0
10134.538,186.0
10138.592,189.0
10142.647,212.0
10146.704,196.0
10150.763,178.0
10154.823,198.0
10158.885,229.0
10162.948,242.0
10167.014,221.0
10171.08,191.0
10175.148,212.0
10179.219,214.0
10183.29,185.0
10187.363,177.0
10191.438,183.0
10195.515,185.0
10199.593,179.0
10203.673,212.0
10207.754,194.0
10211.837,192.0
10215.922,178.0
10220.008,193.0
10224.096,183.0
10228.186,204.0
10232.276,199.0
10236.369,177.0
10240.464,172.0
10244.56,192.0
10248.657,185.0
10252.757,211.0
10256.858,207.0
10260.961,200.0
10265.065,198.0
10269.172,198.0
10273.279,199.0
10277.389,206.0
10281.5,211.0
10285.612,215.0
10289.727,197.0
10293.843,212.0
10297.96,219.0
10302.079,192.0
10306.2,215.0
10310.322,201.0
10314.446,199.0
10318.572,206.0
10322.699,191.0
10326.828,182.0
10330.959,200.0
10335.092,212.0
10339.226,177.0
10343.361,209.0
10347.499,201.0
10351.638,209.0
10355.778,213.0
10359.921,205.0
10364.064,187.0
10368.21,178.0
10372.357,208.0
10376.507,232.0
10380.657,190.0
10384.81,203.0
10388.964,221.0
10393.119,240.0
10397.276,226.0
10401.436,224.0
10405.596,181.0
10409.758,180.0
10413.922,204.0
10418.088,183.0
10422.255,182.0
10426.424,187.0
10430.595,215.0
10434.767,184.0
10438.94,197.0
10443.116,187.0
10447.294,196.0
10451.473,215.0
10455.653,185.0
10459.836,196.0
10464.02,182.0
10468.205,213.0
10472.393,196.0
10476.581,220.0
10480.771,194.0
10484.964,214.0
10489.158,203.0
10493.354,208.0
10497.551,190.0
10501.75,181.0
10505.951,193.0
10510.153,220.0
10514.357,209.0
10518.563,198.0
10522.7705,221.0
10526.9795,204.0
10531.19,208.0
10535.403,187.0
10539.617,187.0
10543.833,193.0
10548.051,185.0
10552.27,211.0
10556.49,198.0
10560.713,203.0
10564.9375,163.0
10569.163,208.0
10573.391,203.0
10577.62,200.0
10581.852,202.0
10586.084,193.0
10590.318,202.0
10594.555,230.0
10598.793,184.0
10603.032,211.0
10607.273,208.0
10611.517,233.0
10615.761,175.0
10620.007,224.0
10624.255,215.0
10628.505,178.0
10632.756,222.0
10637.009,203.0
10641.264,226.0
10645.5205,230.0
10649.778,207.0
10654.038,214.0
10658.3,208.0
10662.563,209.0
10666.828,214.0
10671.095,252.0
10675.363,235.0
10679.634,214.0
10683.905,201.0
10688.179,194.0
10692.454,206.0
10696.731,218.0
10701.01,212.0
10705.29,236.0
10709.572,224.0
10713.856,221.0
10718.142,251.0
10722.429,213.0
10726.718,230.0
10731.009,208.0
10735.301,238.0
10739.595,245.0
10743.891,251.0
10748.188,233.0
10752.487,209.0
10756.788,231.0
10761.091,206.0
10765.3955,238.0
10769.702,198.0
10774.01,222.0
10778.319,212.0
10782.631,203.0
10786.944,202.0
10791.259,189.0
10795.575,236.0
10799.894,187.0
10804.214,202.0
10808.535,196.0
10812.858,226.0
10817.184,203.0
10821.511,228.0
10825.839,183.0
10830.169,186.0
10834.501,207.0
10838.835,205.0
10843.171,219.0
10847.508,201.0
10851.847,215.0
10856.1875,212.0
10860.53,220.0
10864.874,188.0
10869.22,210.0
10873.567,216.0
10877.917,209.0
10882.269,244.0
10886.621,237.0
10890.976,222.0
10895.332,219.0
10899.69,249.0
10904.051,212.0
10908.412,221.0
10912.775,207.0
10917.141,230.0
10921.508,226.0
10925.876,207.0
10930.246,233.0
10934.618,222.0
10938.992,225.0
10943.368,216.0
10947.745,221.0
10952.124,221.0
10956.505,216.0
10960.888,202.0
10965.272,222.0
10969.658,199.0
10974.046,209.0
10978.436,203.0
10982.827,233.0
10987.221,243.0
10991.615,224.0
10996.012,246.0
11000.41,214.0
11004.811,217.0
11009.213,238.0
11013.616,216.0
11018.021,267.0
11022.429,230.0
11026.838,267.0
11031.249,196.0
11035.661,230.0
11040.075,217.0
11044.491,259.0
11048.909,249.0
11053.329,241.0
11057.75,226.0
11062.173,240.0
11066.598,251.0
11071.024,234.0
11075.453,234.0
11079.884,229.0
11084.315,212.0
11088.749,215.0
11093.185,243.0
11097.622,240.0
11102.062,227.0
11106.502,219.0
11110.944,261.0
11115.389,222.0
11119.835,254.0
11124.283,231.0
11128.733,229.0
11133.185,245.0
11137.638,250.0
11142.093,213.0
11146.55,265.0
11151.009,261.0
11155.469,213.0
11159.931,288.0
11164.395,243.0
11168.86,242.0
11173.328,258.0
11177.798,246.0
11182.269,273.0
11186.741,224.0
11191.216,259.0
11195.692,255.0
11200.171,242.0
11204.651,256.0
11209.133,245.0
11213.616,253.0
11218.102,280.0
11222.589,278.0
11227.078,267.0
11231.569,234.0
11236.062,287.0
11240.556,275.0
11245.052,308.0
11249.55,292.0
11254.05,283.0
11258.552,317.0
11263.056,309.0
11267.561,304.0
11272.067,320.0
11276.576,309.0
11281.087,334.0
11285.6,303.0
11290.114,301.0
11294.63,315.0
11299.147,303.0
11303.667,328.0
11308.188,328.0
11312.712,321.0
11317.237,362.0
11321.765,323.0
11326.293,340.0
11330.823,317.0
11335.355,355.0
11339.89,362.0
11344.426,366.0
11348.964,343.0
11353.504,387.0
11358.045,340.0
11362.588,399.0
11367.133,383.0
11371.68,368.0
11376.229,374.0
11380.779,412.0
11385.332,410.0
11389.886,433.0
11394.441,439.0
11398.999,463.0
11403.559,439.0
11408.12,430.0
11412.684,461.0
11417.249,487.0
11421.816,484.0
11426.385,515.0
11430.955,533.0
11435.527,550.0
11440.102,566.0
11444.678,551.0
11449.256,612.0
11453.836,551.0
11458.417,582.0
11463.0,625.0
11467.585,643.0
11472.172,616.0
11476.761,624.0
11481.352,669.0
11485.944,629.0
11490.539,666.0
11495.136,746.0
11499.733,722.0
11504.333,704.0
11508.935,707.0
11513.538,711.0
11518.144,707.0
11522.751,709.0
11527.36,797.0
11531.972,845.0
11536.584,756.0
11541.198,762.0
11545.814,832.0
11550.433,805.0
11555.053,753.0
11559.675,878.0
11564.299,844.0
11568.925,772.0
11573.553,778.0
11578.183,921.0
11582.813,880.0
11587.446,746.0
11592.081,887.0
11596.718,884.0
11601.356,786.0
11605.997,835.0
11610.64,925.0
11615.284,916.0
11619.931,801.0
11624.579,860.0
11629.229,958.0
11633.88,834.0
11638.533,866.0
11643.188,1085.0
11647.846,905.0
11652.505,674.0
11657.166,949.0
11661.829,1013.0
11666.494,779.0
11671.161,649.0
11675.83,1155.0
11680.5,1092.0
11685.172,684.0
11689.846,665.0
11694.521,721.0
11699.199,576.0
11703.879,511.0
11708.561,537.0
11713.244,509.0
11717.93,444.0
11722.617,452.0
11727.307,455.0
11731.998,361.0
11736.69,381.0
11741.385,360.0
11746.081,356.0
11750.779,374.0
11755.4795,327.0
11760.182,398.0
11764.886,351.0
11769.592,382.0
11774.3,341.0
11779.01,321.0
11783.722,361.0
11788.436,385.0
11793.151,319.0
11797.868,320.0
11802.587,355.0
11807.308,340.0
11812.03,318.0
11816.755,360.0
11821.481,360.0
11826.21,328.0
11830.94,321.0
11835.673,326.0
11840.407,291.0
11845.144,305.0
11849.882,318.0
11854.622,271.0
11859.364,268.0
11864.108,289.0
11868.8545,286.0
11873.602,268.0
11878.351,269.0
11883.102,257.0
11887.8545,270.0
11892.609,244.0
11897.366,258.0
11902.125,229.0
11906.886,264.0
11911.648,251.0
11916.413,227.0
11921.18,243.0
11925.948,236.0
11930.719,232.0
11935.491,236.0
11940.266,226.0
11945.042,233.0
11949.82,248.0
11954.601,239.0
11959.383,239.0
11964.167,254.0
11968.953,225.0
11973.74,196.0
11978.529,240.0
11983.32,246.0
11988.113,224.0
11992.908,208.0
