M/Z,Intensity
800.0,60.0
800.32,107.0
800.64014,35.0
800.9604,71.0
801.28076,135.0
801.60126,43.0
801.9219,71.0
802.2426,102.0
802.56354,41.0
802.8846,66.0
803.20575,107.0
803.52704,57.0
803.84845,53.0
804.17,101.0
804.49164,52.0
804.8134,26.0
805.1353,89.0
805.4574,68.0
805.7796,36.0
806.1019,85.0
806.4244,87.0
806.74695,36.0
807.06964,70.0
807.39246,81.0
807.7154,33.0
808.03845,68.0
808.3617,92.0
808.68506,27.0
809.00854,68.0
809.33215,137.0
809.6559,28.0
809.97974,57.0
810.3037,108.0
810.6278,51.0
810.9521,57.0
811.2765,108.0
811.601,35.0
811.92566,47.0
812.2504,90.0
812.5753,66.0
812.9003,56.0
813.22546,99.0
813.5508,43.0
813.8762,45.0
814.2018,86.0
814.52747,42.0
814.8533,46.0
815.1792,106.0
815.50525,74.0
815.8314,34.0
816.1578,91.0
816.48425,82.0
816.81085,66.0
817.1376,108.0
817.4644,80.0
817.7914,57.0
818.11847,73.0
818.44574,78.0
818.77313,32.0
819.10065,64.0
819.4283,79.0
819.75604,35.0
820.0839,77.0
820.412,81.0
820.7402,31.0
821.0685,60.0
821.3969,91.0
821.72546,40.0
822.05414,67.0
822.38293,90.0
822.7119,42.0
823.041,85.0
823.37024,95.0
823.6996,40.0
824.02905,69.0
824.35864,101.0
824.6884,73.0
825.0183,370.0
825.3483,95.0
825.67847,46.0
826.0087,181.0
826.3391,106.0
826.6696,46.0
827.0003,85.0
827.3311,104.0
827.66205,46.0
827.9931,57.0
828.3243,84.0
828.65564,29.0
828.9871,60.0
829.3187,104.0
829.65045,32.0
829.9823,50.0
830.3143,99.0
830.6464,64.0
830.9787,51.0
831.3111,97.0
831.6436,42.0
831.97626,58.0
832.309,96.0
832.64197,41.0
832.97504,63.0
833.3082,97.0
833.64154,41.0
833.975,57.0
834.3086,84.0
834.64233,44.0
834.9762,89.0
835.3102,90.0
835.6443,54.0
835.9785,60.0
836.3129,125.0
836.64746,63.0
836.9821,70.0
837.3169,111.0
837.6518,43.0
837.9869,59.0
838.3221,105.0
838.6574,61.0
838.99286,136.0
839.3284,110.0
839.6642,46.0
840.00006,82.0
840.33606,105.0
840.6722,37.0
841.0084,122.0
841.34485,90.0
841.6814,43.0
842.01807,89.0
842.35486,123.0
842.6918,47.0
843.0289,79.0
843.3661,119.0
843.7034,52.0
844.0409,52.0
844.37854,96.0
844.7163,57.0
845.0542,182.0
845.3922,125.0
845.73035,74.0
846.06866,154.0
846.4071,93.0
846.74567,59.0
847.08435,107.0
847.42316,101.0
847.76215,59.0
848.10126,86.0
848.4405,86.0
848.77985,54.0
849.1194,88.0
849.45905,89.0
849.7988,44.0
850.13873,75.0
850.47876,89.0
850.819,43.0
851.1593,75.0
851.49976,65.0
851.84033,60.0
852.1811,101.0
852.522,89.0
852.863,47.0
853.2041,103.0
853.5454,75.0
853.88684,52.0
854.2284,111.0
854.57007,69.0
854.9119,100.0
855.2539,93.0
855.596,50.0
855.93823,74.0
856.2806,112.0
856.6231,52.0
856.96576,76.0
857.30853,103.0
857.6514,54.0
857.9945,77.0
858.3377,125.0
858.681,54.0
859.0245,80.0
859.3681,117.0
859.71185,47.0
860.0557,77.0
860.3997,119.0
860.7439,186.0
861.0882,273.0
861.4326,108.0
861.77716,148.0
862.1219,136.0
862.46674,87.0
862.8117,92.0
863.15686,109.0
863.50214,52.0
863.84753,64.0
864.19305,103.0
864.53876,65.0
864.8846,61.0
865.2305,109.0
865.5766,68.0
865.92285,52.0
866.2692,105.0
866.6157,50.0
866.96234,128.0
867.30914,92.0
867.65607,54.0
868.0031,100.0
868.35034,84.0
868.6977,38.0
869.04517,67.0
869.39276,86.0
869.74054,39.0
870.08844,77.0
870.43646,80.0
870.7846,51.0
871.13293,58.0
871.4814,73.0
871.82996,55.0
872.1787,70.0
872.5276,61.0
872.8766,58.0
873.2257,103.0
873.575,40.0
873.92444,46.0
874.274,121.0
874.6237,42.0
874.9736,56.0
875.32355,87.0
875.6737,62.0
876.024,59.0
876.3744,96.0
876.7249,59.0
877.0756,127.0
877.42645,101.0
877.7774,79.0
878.12854,82.0
878.4798,80.0
878.8312,64.0
879.18274,88.0
879.5344,55.0
879.8862,36.0
880.23816,107.0
880.5903,63.0
880.9425,63.0
881.29486,123.0
881.6474,45.0
882.00006,54.0
882.35284,102.0
882.7058,53.0
883.0589,84.0
883.4121,104.0
883.7655,50.0
884.119,86.0
884.47266,79.0
884.8264,41.0
885.18036,71.0
885.5344,64.0
885.8886,40.0
886.243,85.0
886.5975,47.0
886.9521,56.0
887.3069,96.0
887.6618,33.0
888.01685,42.0
888.3721,105.0
888.7274,49.0
889.0829,75.0
889.43854,94.0
889.7943,47.0
890.1502,63.0
890.5063,74.0
890.8625,39.0
891.2188,84.0
891.5753,66.0
891.93195,41.0
892.2887,103.0
892.6456,38.0
893.0027,56.0
893.35986,115.0
893.7172,28.0
894.0747,80.0
894.4323,85.0
894.7901,45.0
895.148,71.0
895.50604,76.0
895.86426,41.0
896.2226,77.0
896.58105,46.0
896.9397,41.0
897.29846,73.0
897.6574,37.0
898.0165,33.0
898.3757,79.0
898.73505,44.0
899.09454,68.0
899.45416,68.0
899.81396,49.0
900.1739,70.0
900.53394,61.0
900.89417,37.0
901.2545,89.0
901.615,45.0
901.97565,41.0
902.3364,79.0
902.6974,52.0
903.0585,56.0
903.4197,81.0
903.78107,42.0
904.1426,106.0
904.5042,118.0
904.866,45.0
905.22797,129.0
905.5901,56.0
905.95233,51.0
906.3147,103.0
906.67725,49.0
907.0399,48.0
907.4027,72.0
907.7657,22.0
908.1288,60.0
908.49207,89.0
908.85547,37.0
909.219,87.0
909.5827,52.0
909.94653,46.0
910.3105,71.0
910.6746,35.0
911.0389,59.0
911.4033,72.0
911.7679,42.0
912.13257,49.0
912.49744,64.0
912.8624,41.0
913.2276,77.0
913.5929,49.0
913.9583,41.0
914.3239,69.0
914.68964,30.0
915.05554,46.0
915.4216,81.0
915.7877,34.0
916.15405,69.0
916.5205,67.0
916.88715,41.0
917.2539,83.0
917.6208,33.0
917.98785,35.0
918.35504,77.0
918.7224,38.0
919.0899,60.0
919.4575,88.0
919.8253,33.0
920.19324,82.0
920.56134,42.0
920.92957,30.0
921.2979,86.0
921.66644,34.0
922.0351,49.0
922.40393,94.0
922.7729,29.0
923.14197,75.0
923.5112,68.0
923.8806,45.0
924.2502,76.0
924.6199,29.0
924.98975,44.0
925.35974,68.0
925.72986,51.0
926.10016,55.0
926.4706,55.0
926.8412,35.0
927.2119,79.0
927.5828,39.0
927.95386,51.0
928.325,71.0
928.69635,31.0
929.0678,52.0
929.43945,70.0
929.8112,35.0
930.18317,74.0
930.55524,43.0
930.9274,39.0
931.2998,82.0
931.6723,43.0
932.045,26.0
932.4178,66.0
932.7908,24.0
933.1639,72.0
933.5372,65.0
933.9106,41.0
934.2841,87.0
934.65784,35.0
935.0317,47.0
935.4057,74.0
935.77985,34.0
936.1542,66.0
936.5286,37.0
936.90326,46.0
937.278,98.0
937.65295,51.0
938.028,44.0
938.4032,72.0
938.77856,27.0
939.15405,68.0
939.5297,61.0
939.9055,41.0
940.2815,58.0
940.6576,49.0
941.0339,51.0
941.4103,73.0
941.78687,41.0
942.1636,62.0
942.54047,52.0
942.9175,37.0
943.2947,72.0
943.672,34.0
944.04944,47.0
944.42706,75.0
944.8048,27.0
945.18274,58.0
945.5608,44.0
945.939,45.0
946.3174,69.0
946.6959,33.0
947.0746,54.0
947.4534,99.0
947.8324,33.0
948.21155,73.0
948.5908,37.0
948.9703,46.0
949.34985,81.0
949.7296,27.0
950.1095,50.0
950.48956,66.0
950.86975,26.0
951.2501,68.0
951.6306,50.0
952.0113,47.0
952.3921,84.0
952.7731,39.0
953.1542,74.0
953.53546,55.0
953.9169,48.0
954.29846,108.0
954.6802,26.0
955.0621,49.0
955.4441,85.0
955.8263,33.0
956.2086,64.0
956.5911,53.0
956.97375,37.0
957.35657,86.0
957.7395,39.0
958.1226,46.0
958.50586,82.0
958.8893,47.0
959.2728,71.0
959.65656,36.0
960.0404,44.0
960.42444,71.0
960.8086,30.0
961.19293,81.0
961.5774,40.0
961.96204,37.0
962.3468,83.0
962.73175,26.0
963.1168,53.0
963.5021,46.0
963.88745,54.0
964.273,82.0
964.6587,37.0
965.04456,43.0
965.4306,69.0
965.8168,35.0
966.2031,68.0
966.5896,47.0
966.97626,38.0
967.36304,66.0
967.75,31.0
968.1371,54.0
968.52435,65.0
968.91174,26.0
969.2993,93.0
969.687,44.0
970.0749,69.0
970.4629,69.0
970.8511,36.0
971.23944,75.0
971.6279,51.0
972.0166,47.0
972.4054,83.0
972.7944,30.0
973.1835,69.0
973.57275,56.0
973.96216,36.0
974.35175,89.0
974.7415,34.0
975.1314,51.0
975.5215,66.0
975.9117,32.0
976.30206,79.0
976.69257,34.0
977.08325,41.0
977.47406,89.0
977.86505,40.0
978.2562,67.0
978.6475,26.0
979.039,52.0
979.4306,61.0
979.8224,32.0
980.2143,73.0
980.6064,59.0
980.99866,48.0
981.39105,66.0
981.7836,38.0
982.17633,84.0
982.5692,59.0
982.9622,43.0
983.3554,71.0
983.7488,35.0
984.1423,50.0
984.53595,53.0
984.92975,43.0
985.3237,83.0
985.71783,44.0
986.1121,63.0
986.5066,59.0
986.9012,33.0
987.29596,82.0
987.69086,34.0
988.08594,46.0
988.4812,81.0
988.8766,45.0
989.27216,76.0
989.66785,30.0
990.0637,65.0
990.4597,58.0
990.8559,29.0
991.25226,81.0
991.64874,32.0
992.0454,60.0
992.4422,87.0
992.8392,33.0
993.2363,81.0
993.6336,45.0
994.03107,52.0
994.42865,66.0
994.8264,35.0
995.22437,60.0
995.62244,42.0
996.0207,50.0
996.4191,63.0
996.8177,34.0
997.21643,68.0
997.6153,48.0
998.01434,40.0
998.4136,73.0
998.8129,30.0
999.21246,73.0
999.6121,43.0
1000.01196,45.0
1000.412,79.0
1000.81213,45.0
1001.21246,81.0
1001.613,45.0
1002.0136,39.0
1002.4144,68.0
1002.81537,28.0
1003.2165,75.0
1003.6178,35.0
1004.0192,60.0
1004.42084,81.0
1004.82263,39.0
1005.22455,73.0
1005.62665,51.0
1006.0289,57.0
1006.4313,62.0
1006.83386,53.0
1007.2366,78.0
1007.63947,48.0
1008.04254,58.0
1008.44574,78.0
1008.8491,43.0
1009.2527,76.0
1009.6564,46.0
1010.06024,55.0
1010.4643,59.0
1010.86847,34.0
1011.2728,62.0
1011.6773,48.0
1012.082,68.0
1012.4868,70.0
1012.8918,47.0
1013.29694,72.0
1013.7023,52.0
1014.1077,64.0
1014.51337,77.0
1014.9192,49.0
1015.32513,75.0
1015.73126,29.0
1016.1376,66.0
1016.544,57.0
1016.9506,39.0
1017.3574,75.0
1017.76434,40.0
1018.17145,77.0
1018.57874,51.0
1018.98615,35.0
1019.39374,85.0
1019.8015,45.0
1020.2094,77.0
1020.6175,62.0
1021.02576,35.0
1021.43414,95.0
1021.8427,38.0
1022.25146,96.0
1022.66034,49.0
1023.0694,43.0
1023.47864,71.0
1023.888,45.0
1024.2976,76.0
1024.7073,34.0
1025.1172,54.0
1025.5272,64.0
1025.9374,40.0
1026.3478,80.0
1026.7583,45.0
1027.169,66.0
1027.5798,47.0
1027.9908,44.0
1028.4021,78.0
1028.8135,35.0
1029.225,69.0
1029.6367,48.0
1030.0486,60.0
1030.4606,81.0
1030.8728,56.0
1031.2852,94.0
1031.6976,45.0
1032.1104,44.0
1032.5232,67.0
1032.9362,43.0
1033.3494,74.0
1033.7627,49.0
1034.1761,67.0
1034.5898,54.0
1035.0037,38.0
1035.4177,67.0
1035.8319,60.0
1036.2462,70.0
1036.6608,51.0
1037.0754,62.0
1037.4902,60.0
1037.9053,54.0
1038.3204,96.0
1038.7357,49.0
1039.1512,73.0
1039.5669,81.0
1039.9827,31.0
1040.3987,77.0
1040.8148,35.0
1041.2312,63.0
1041.6477,42.0
1042.0643,52.0
1042.4812,81.0
1042.8982,52.0
1043.3153,95.0
1043.7327,53.0
1044.1501,62.0
1044.5677,75.0
1044.9856,62.0
1045.4036,58.0
1045.8218,38.0
1046.2401,86.0
1046.6586,42.0
1047.0773,63.0
1047.4961,75.0
1047.915,41.0
1048.3342,88.0
1048.7535,48.0
1049.1731,51.0
1049.5928,69.0
1050.0126,96.0
1050.4326,66.0
1050.8528,75.0
1051.2731,72.0
1051.6936,48.0
1052.1143,70.0
1052.5352,66.0
1052.9562,49.0
1053.3773,73.0
1053.7987,46.0
1054.2202,80.0
1054.6418,40.0
1055.0637,51.0
1055.4857,59.0
1055.908,45.0
1056.3303,98.0
1056.7528,48.0
1057.1755,68.0
1057.5984,78.0
1058.0215,42.0
1058.4447,100.0
1058.868,52.0
1059.2916,84.0
1059.7153,47.0
1060.1392,62.0
1060.5632,120.0
1060.9874,33.0
1061.4119,117.0
1061.8364,28.0
1062.2611,77.0
1062.686,53.0
1063.1111,65.0
1063.5364,78.0
1063.9618,51.0
1064.3873,77.0
1064.8131,33.0
1065.239,67.0
1065.6652,57.0
1066.0914,86.0
1066.5178,70.0
1066.9445,58.0
1067.3712,86.0
1067.7982,48.0
1068.2253,75.0
1068.6526,66.0
1069.0801,45.0
1069.5077,65.0
1069.9355,41.0
1070.3635,65.0
1070.7916,40.0
1071.22,67.0
1071.6484,67.0
1072.0771,62.0
1072.506,71.0
1072.9349,58.0
1073.3641,81.0
1073.7935,42.0
1074.223,92.0
1074.6527,51.0
1075.0825,51.0
1075.5126,84.0
1075.9427,48.0
1076.3732,76.0
1076.8037,35.0
1077.2344,49.0
1077.6653,41.0
1078.0963,77.0
1078.5276,60.0
1078.959,59.0
1079.3906,76.0
1079.8224,45.0
1080.2543,76.0
1080.6864,46.0
1081.1187,57.0
1081.5511,63.0
1081.9838,55.0
1082.4165,75.0
1082.8495,56.0
1083.2826,74.0
1083.716,37.0
1084.1494,54.0
1084.5831,63.0
1085.017,38.0
1085.4509,77.0
1085.8851,39.0
1086.3195,83.0
1086.754,38.0
1087.1887,65.0
1087.6235,65.0
1088.0586,54.0
1088.4938,81.0
1088.9292,39.0
1089.3647,91.0
1089.8005,41.0
1090.2365,93.0
1090.6725,46.0
1091.1088,59.0
1091.5452,84.0
1091.9818,36.0
1092.4186,91.0
1092.8556,45.0
1093.2927,88.0
1093.7301,48.0
1094.1676,64.0
1094.6052,42.0
1095.0431,58.0
1095.4811,67.0
1095.9193,45.0
1096.3577,64.0
1096.7963,35.0
1097.235,56.0
1097.6738,61.0
1098.1129,48.0
1098.5521,70.0
1098.9916,54.0
1099.4312,69.0
1099.871,55.0
1100.3109,78.0
1100.751,57.0
1101.1913,60.0
1101.6317,51.0
1102.0724,46.0
1102.5132,77.0
1102.9542,42.0
1103.3954,76.0
1103.8368,36.0
1104.2783,72.0
1104.72,51.0
1105.1619,56.0
1105.6039,56.0
1106.0461,50.0
1106.4885,60.0
1106.9312,53.0
1107.3739,81.0
1107.8169,43.0
1108.26,77.0
1108.7034,29.0
1109.1469,55.0
1109.5905,46.0
1110.0343,52.0
1110.4783,63.0
1110.9225,48.0
1111.3668,76.0
1111.8114,33.0
1112.2561,61.0
1112.701,61.0
1113.1461,49.0
1113.5914,67.0
1114.0369,43.0
1114.4824,73.0
1114.9282,28.0
1115.3741,63.0
1115.8203,53.0
1116.2666,67.0
1116.7131,56.0
1117.1598,44.0
1117.6067,61.0
1118.0537,42.0
1118.501,85.0
1118.9484,27.0
1119.396,69.0
1119.8438,33.0
1120.2917,56.0
1120.7399,46.0
1121.1881,48.0
1121.6366,67.0
1122.0852,40.0
1122.534,76.0
1122.983,47.0
1123.4323,84.0
1123.8816,43.0
1124.3312,75.0
1124.7809,41.0
1125.2308,47.0
1125.6809,33.0
1126.1312,52.0
1126.5817,47.0
1127.0323,43.0
1127.4832,67.0
1127.9342,46.0
1128.3854,70.0
1128.8367,39.0
1129.2882,69.0
1129.7399,40.0
1130.1918,60.0
1130.6438,50.0
1131.0961,41.0
1131.5485,59.0
1132.0011,43.0
1132.4539,76.0
1132.9069,44.0
1133.36,67.0
1133.8134,37.0
1134.2668,73.0
1134.7206,57.0
1135.1744,68.0
1135.6285,57.0
1136.0828,57.0
1136.5372,66.0
1136.9918,60.0
1137.4467,88.0
1137.9016,37.0
1138.3568,94.0
1138.8121,52.0
1139.2677,66.0
1139.7234,48.0
1140.1793,64.0
1140.6354,56.0
1141.0917,49.0
1141.5481,79.0
1142.0048,46.0
1142.4615,57.0
1142.9186,35.0
1143.3757,69.0
1143.8331,39.0
1144.2906,78.0
1144.7484,49.0
1145.2063,71.0
1145.6644,45.0
1146.1227,60.0
1146.5812,65.0
1147.0398,40.0
1147.4987,77.0
1147.9576,42.0
1148.4169,116.0
1148.8762,41.0
1149.3358,75.0
1149.7955,40.0
1150.2555,80.0
1150.7156,42.0
1151.1759,66.0
1151.6364,66.0
1152.097,49.0
1152.5579,71.0
1153.0189,43.0
1153.4801,80.0
1153.9415,35.0
1154.4031,79.0
1154.8649,41.0
1155.3268,69.0
1155.789,42.0
1156.2512,54.0
1156.7137,48.0
1157.1764,53.0
1157.6393,74.0
1158.1023,38.0
1158.5656,75.0
1159.0289,43.0
1159.4926,77.0
1159.9563,45.0
1160.4203,73.0
1160.8844,49.0
1161.3488,68.0
1161.8134,38.0
1162.2781,61.0
1162.743,37.0
1163.2081,47.0
1163.6735,53.0
1164.1389,59.0
1164.6046,67.0
1165.0704,51.0
1165.5365,73.0
1166.0027,45.0
1166.4691,109.0
1166.9357,46.0
1167.4025,80.0
1167.8694,42.0
1168.3365,73.0
1168.8038,32.0
1169.2714,75.0
1169.739,58.0
1170.2069,58.0
1170.675,64.0
1171.1433,40.0
1171.6118,64.0
1172.0804,50.0
1172.5493,72.0
1173.0183,47.0
1173.4875,81.0
1173.9569,43.0
1174.4265,68.0
1174.8962,37.0
1175.3662,85.0
1175.8363,33.0
1176.3066,98.0
1176.7772,38.0
1177.2479,61.0
1177.7189,48.0
1178.19,53.0
1178.6613,54.0
1179.1327,60.0
1179.6044,60.0
1180.0762,42.0
1180.5482,63.0
1181.0204,33.0
1181.4928,76.0
1181.9655,35.0
1182.4382,70.0
1182.9113,46.0
1183.3844,72.0
1183.8578,43.0
1184.3313,68.0
1184.805,37.0
1185.2789,68.0
1185.753,49.0
1186.2273,67.0
1186.7018,37.0
1187.1765,50.0
1187.6514,76.0
1188.1265,47.0
1188.6017,68.0
1189.0771,52.0
1189.5527,52.0
1190.0286,49.0
1190.5045,56.0
1190.9807,40.0
1191.4572,78.0
1191.9337,36.0
1192.4105,90.0
1192.8875,48.0
1193.3646,87.0
1193.8419,34.0
1194.3195,74.0
1194.7972,47.0
1195.2751,71.0
1195.7533,45.0
1196.2316,49.0
1196.7101,60.0
1197.1887,68.0
1197.6676,40.0
1198.1467,59.0
1198.626,63.0
1199.1055,47.0
1199.5851,66.0
1200.065,45.0
1200.5449,68.0
1201.0251,53.0
1201.5056,74.0
1201.9862,51.0
1202.467,70.0
1202.948,47.0
1203.4292,66.0
1203.9105,31.0
1204.3921,99.0
1204.8739,40.0
1205.3558,80.0
1205.838,32.0
1206.3203,63.0
1206.8029,47.0
1207.2855,80.0
1207.7684,47.0
1208.2516,59.0
1208.7349,48.0
1209.2184,55.0
1209.702,75.0
1210.1859,53.0
1210.67,55.0
1211.1543,50.0
1211.6388,64.0
1212.1234,62.0
1212.6083,52.0
1213.0933,55.0
1213.5785,55.0
1214.064,42.0
1214.5496,58.0
1215.0354,54.0
1215.5214,69.0
1216.0076,37.0
1216.494,60.0
1216.9806,52.0
1217.4674,52.0
1217.9543,40.0
1218.4415,59.0
1218.929,51.0
1219.4165,68.0
1219.9043,44.0
1220.3922,64.0
1220.8804,37.0
1221.3688,82.0
1221.8573,40.0
1222.3461,80.0
1222.835,54.0
1223.3241,71.0
1223.8135,51.0
1224.303,76.0
1224.7927,40.0
1225.2826,60.0
1225.7727,45.0
1226.2631,65.0
1226.7535,34.0
1227.2443,69.0
1227.7351,51.0
1228.2262,54.0
1228.7175,60.0
1229.209,61.0
1229.7007,56.0
1230.1925,49.0
1230.6846,66.0
1231.1769,68.0
1231.6693,61.0
1232.162,48.0
1232.6549,54.0
1233.148,46.0
1233.6412,79.0
1234.1346,57.0
1234.6283,51.0
1235.1222,57.0
1235.6162,65.0
1236.1105,65.0
1236.6049,72.0
1237.0995,41.0
1237.5944,59.0
1238.0894,39.0
1238.5846,62.0
1239.0801,57.0
1239.5757,59.0
1240.0715,38.0
1240.5675,65.0
1241.0637,42.0
1241.5602,68.0
1242.0568,42.0
1242.5536,52.0
1243.0507,55.0
1243.5479,68.0
1244.0453,34.0
1244.5428,74.0
1245.0406,44.0
1245.5387,84.0
1246.0369,43.0
1246.5353,85.0
1247.0339,52.0
1247.5327,93.0
1248.0317,38.0
1248.531,73.0
1249.0304,51.0
1249.53,77.0
1250.0298,37.0
1250.5298,82.0
1251.03,42.0
1251.5304,63.0
1252.031,52.0
1252.5319,65.0
1253.0328,44.0
1253.534,61.0
1254.0355,47.0
1254.5371,64.0
1255.039,40.0
1255.541,57.0
1256.0432,52.0
1256.5457,63.0
1257.0482,44.0
1257.551,48.0
1258.0541,46.0
1258.5573,49.0
1259.0607,31.0
1259.5643,72.0
1260.0681,48.0
1260.5721,69.0
1261.0764,52.0
1261.5808,89.0
1262.0854,53.0
1262.5903,65.0
1263.0953,64.0
1263.6006,84.0
1264.1061,75.0
1264.6117,55.0
1265.1176,52.0
1265.6237,79.0
1266.1299,59.0
1266.6364,67.0
1267.1431,50.0
1267.6499,57.0
1268.157,40.0
1268.6642,60.0
1269.1716,51.0
1269.6793,57.0
1270.1871,62.0
1270.6952,77.0
1271.2035,59.0
1271.7119,58.0
1272.2206,53.0
1272.7295,46.0
1273.2385,62.0
1273.7478,41.0
1274.2573,76.0
1274.767,41.0
1275.2769,62.0
1275.787,38.0
1276.2972,68.0
1276.8077,67.0
1277.3185,73.0
1277.8295,56.0
1278.3406,73.0
1278.8519,58.0
1279.3635,79.0
1279.8752,30.0
1280.3872,64.0
1280.8994,46.0
1281.4117,53.0
1281.9243,45.0
1282.4371,73.0
1282.9501,35.0
1283.4633,68.0
1283.9767,38.0
1284.4902,80.0
1285.004,41.0
1285.5181,65.0
1286.0322,35.0
1286.5466,55.0
1287.0613,41.0
1287.576,66.0
1288.0911,54.0
1288.6063,74.0
1289.1218,55.0
1289.6375,59.0
1290.1533,45.0
1290.6694,67.0
1291.1857,48.0
1291.7021,59.0
1292.2189,54.0
1292.7357,55.0
1293.2528,63.0
1293.7701,52.0
1294.2876,64.0
1294.8053,38.0
1295.3232,62.0
1295.8414,42.0
1296.3597,73.0
1296.8783,44.0
1297.3971,76.0
1297.916,39.0
1298.4352,69.0
1298.9546,39.0
1299.4741,69.0
1299.9939,31.0
1300.5139,56.0
1301.0342,48.0
1301.5546,70.0
1302.0752,38.0
1302.5961,63.0
1303.1171,47.0
1303.6383,69.0
1304.1598,56.0
1304.6814,68.0
1305.2032,74.0
1305.7253,53.0
1306.2477,50.0
1306.7701,48.0
1307.2928,73.0
1307.8158,42.0
1308.3389,64.0
1308.8622,47.0
1309.3857,62.0
1309.9095,32.0
1310.4335,75.0
1310.9576,52.0
1311.482,63.0
1312.0066,38.0
1312.5314,73.0
1313.0564,34.0
1313.5817,73.0
1314.107,40.0
1314.6327,66.0
1315.1586,46.0
1315.6847,62.0
1316.2109,66.0
1316.7374,40.0
1317.2642,60.0
1317.791,60.0
1318.3181,69.0
1318.8455,37.0
1319.373,61.0
1319.9008,55.0
1320.4287,56.0
1320.9569,50.0
1321.4854,69.0
1322.0139,39.0
1322.5427,59.0
1323.0718,66.0
1323.601,65.0
1324.1304,52.0
1324.66,67.0
1325.19,47.0
1325.72,63.0
1326.2502,56.0
1326.7808,45.0
1327.3115,69.0
1327.8424,45.0
1328.3735,70.0
1328.9049,54.0
1329.4365,78.0
1329.9683,49.0
1330.5002,69.0
1331.0325,50.0
1331.565,70.0
1332.0975,58.0
1332.6304,66.0
1333.1635,56.0
1333.6968,70.0
1334.2302,49.0
1334.7639,51.0
1335.2979,58.0
1335.832,34.0
1336.3663,61.0
1336.9009,38.0
1337.4357,51.0
1337.9707,55.0
1338.5059,63.0
1339.0413,40.0
1339.5769,72.0
1340.1128,53.0
1340.6488,45.0
1341.185,64.0
1341.7216,57.0
1342.2583,64.0
1342.7952,59.0
1343.3323,69.0
1343.8696,47.0
1344.4072,71.0
1344.945,37.0
1345.4829,73.0
1346.0211,43.0
1346.5596,65.0
1347.0981,51.0
1347.637,75.0
1348.176,51.0
1348.7153,62.0
1349.2548,62.0
1349.7944,59.0
1350.3344,64.0
1350.8745,51.0
1351.4149,60.0
1351.9554,38.0
1352.4962,49.0
1353.0372,49.0
1353.5785,72.0
1354.1199,55.0
1354.6615,52.0
1355.2034,66.0
1355.7455,54.0
1356.2878,73.0
1356.8303,49.0
1357.373,72.0
1357.916,49.0
1358.4592,68.0
1359.0026,43.0
1359.5461,57.0
1360.09,47.0
1360.634,68.0
1361.1783,62.0
1361.7228,51.0
1362.2675,82.0
1362.8124,45.0
1363.3575,71.0
1363.9028,52.0
1364.4484,72.0
1364.9941,46.0
1365.5402,77.0
1366.0864,39.0
1366.6328,55.0
1367.1794,49.0
1367.7263,59.0
1368.2734,60.0
1368.8208,47.0
1369.3683,60.0
1369.916,55.0
1370.464,80.0
1371.0122,46.0
1371.5607,81.0
1372.1093,42.0
1372.6581,68.0
1373.2072,50.0
1373.7565,59.0
1374.306,68.0
1374.8557,50.0
1375.4056,93.0
1375.9558,44.0
1376.5062,71.0
1377.0569,59.0
1377.6077,76.0
1378.1587,44.0
1378.71,71.0
1379.2615,55.0
1379.8132,66.0
1380.3651,66.0
1380.9172,36.0
1381.4696,64.0
1382.0222,45.0
1382.5751,67.0
1383.128,45.0
1383.6813,49.0
1384.2347,75.0
1384.7885,50.0
1385.3424,60.0
1385.8965,44.0
1386.4508,61.0
1387.0054,40.0
1387.5602,73.0
1388.1152,65.0
1388.6705,55.0
1389.226,59.0
1389.7816,72.0
1390.3375,68.0
1390.8937,58.0
1391.4501,75.0
1392.0067,43.0
1392.5635,97.0
1393.1205,48.0
1393.6777,74.0
1394.2352,60.0
1394.793,50.0
1395.3508,57.0
1395.9089,59.0
1396.4673,71.0
1397.0259,38.0
1397.5847,69.0
1398.1438,57.0
1398.703,81.0
1399.2625,70.0
1399.8221,55.0
1400.3821,70.0
1400.9423,60.0
1401.5027,62.0
1402.0632,61.0
1402.624,66.0
1403.185,45.0
1403.7463,64.0
1404.3079,56.0
1404.8696,56.0
1405.4315,89.0
1405.9937,48.0
1406.556,101.0
1407.1187,41.0
1407.6815,68.0
1408.2446,65.0
1408.808,60.0
1409.3715,65.0
1409.9352,36.0
1410.4991,93.0
1411.0634,59.0
1411.6278,58.0
1412.1925,53.0
1412.7573,67.0
1413.3224,82.0
1413.8877,56.0
1414.4532,90.0
1415.019,43.0
1415.5851,71.0
1416.1514,49.0
1416.7178,78.0
1417.2844,75.0
1417.8513,49.0
1418.4185,63.0
1418.9858,46.0
1419.5535,87.0
1420.1213,45.0
1420.6893,80.0
1421.2576,68.0
1421.826,61.0
1422.3948,102.0
1422.9637,49.0
1423.533,83.0
1424.1024,49.0
1424.672,78.0
1425.2418,66.0
1425.8119,44.0
1426.3822,75.0
1426.9528,54.0
1427.5236,99.0
1428.0946,44.0
1428.6659,74.0
1429.2373,63.0
1429.809,47.0
1430.3809,74.0
1430.953,67.0
1431.5254,78.0
1432.098,58.0
1432.6709,76.0
1433.244,70.0
1433.8173,71.0
1434.3907,64.0
1434.9645,39.0
1435.5385,68.0
1436.1127,74.0
1436.6871,73.0
1437.2618,53.0
1437.8368,85.0
1438.412,70.0
1438.9873,54.0
1439.5629,66.0
1440.1387,64.0
1440.7147,79.0
1441.291,65.0
1441.8676,55.0
1442.4443,92.0
1443.0214,64.0
1443.5985,70.0
1444.1759,58.0
1444.7535,66.0
1445.3314,59.0
1445.9095,52.0
1446.4879,86.0
1447.0665,50.0
1447.6454,76.0
1448.2245,83.0
1448.8038,65.0
1449.3833,96.0
1449.963,49.0
1450.543,91.0
1451.1232,70.0
1451.7036,71.0
1452.2843,77.0
1452.8652,60.0
1453.4464,83.0
1454.0278,44.0
1454.6095,83.0
1455.1913,65.0
1455.7733,72.0
1456.3556,70.0
1456.9381,51.0
1457.5209,83.0
1458.1039,50.0
1458.6871,77.0
1459.2706,65.0
1459.8544,54.0
1460.4384,54.0
1461.0226,32.0
1461.6069,75.0
1462.1915,57.0
1462.7764,72.0
1463.3615,85.0
1463.9468,51.0
1464.5323,84.0
1465.1182,55.0
1465.7042,92.0
1466.2905,71.0
1466.8771,40.0
1467.4639,78.0
1468.0509,48.0
1468.6382,69.0
1469.2256,50.0
1469.8132,61.0
1470.4011,73.0
1470.9893,56.0
1471.5776,67.0
1472.1663,51.0
1472.7551,59.0
1473.3442,71.0
1473.9336,56.0
1474.5232,66.0
1475.113,71.0
1475.7031,73.0
1476.2935,73.0
1476.884,64.0
1477.4747,80.0
1478.0657,64.0
1478.6569,78.0
1479.2483,61.0
1479.84,53.0
1480.4319,79.0
1481.024,46.0
1481.6165,78.0
1482.2091,68.0
1482.802,58.0
1483.3951,69.0
1483.9885,52.0
1484.5822,85.0
1485.176,56.0
1485.7701,70.0
1486.3645,69.0
1486.9591,49.0
1487.5538,66.0
1488.1488,57.0
1488.744,82.0
1489.3395,69.0
1489.9352,36.0
1490.5311,81.0
1491.1273,51.0
1491.7238,70.0
1492.3204,89.0
1492.9174,52.0
1493.5145,66.0
1494.1119,41.0
1494.7096,60.0
1495.3075,63.0
1495.9056,48.0
1496.504,87.0
1497.1027,50.0
1497.7015,65.0
1498.3007,57.0
1498.9,40.0
1499.4996,69.0
1500.0995,54.0
1500.6996,69.0
1501.2998,66.0
1501.9003,45.0
1502.501,83.0
1503.1019,45.0
1503.7031,63.0
1504.3046,75.0
1504.9062,57.0
1505.5082,80.0
1506.1104,59.0
1506.7128,80.0
1507.3154,82.0
1507.9183,63.0
1508.5215,74.0
1509.1249,64.0
1509.7285,50.0
1510.3324,81.0
1510.9365,57.0
1511.5409,77.0
1512.1455,59.0
1512.7504,140.0
1513.3555,101.0
1513.9608,75.0
1514.5664,93.0
1515.1722,62.0
1515.7783,58.0
1516.3846,67.0
1516.9912,47.0
1517.598,53.0
1518.2051,57.0
1518.8124,53.0
1519.4199,65.0
1520.0277,54.0
1520.6357,64.0
1521.244,42.0
1521.8525,51.0
1522.4613,53.0
1523.0703,54.0
1523.6796,64.0
1524.2891,48.0
1524.8988,68.0
1525.5088,94.0
1526.119,70.0
1526.7295,61.0
1527.3402,85.0
1527.9512,60.0
1528.5624,77.0
1529.1738,46.0
1529.7855,65.0
1530.3975,67.0
1531.0096,46.0
1531.6221,88.0
1532.2347,52.0
1532.8477,57.0
1533.4608,80.0
1534.0742,45.0
1534.6879,66.0
1535.3018,68.0
1535.9159,50.0
1536.5303,60.0
1537.1449,46.0
1537.7598,77.0
1538.3749,56.0
1538.9902,36.0
1539.6058,51.0
1540.2217,56.0
1540.8378,55.0
1541.4541,70.0
1542.0707,56.0
1542.6875,72.0
1543.3046,52.0
1543.9219,54.0
1544.5394,82.0
1545.1572,62.0
1545.7753,67.0
1546.3936,66.0
1547.0121,43.0
1547.6309,73.0
1548.2499,49.0
1548.8691,57.0
1549.4886,69.0
1550.1084,43.0
1550.7284,63.0
1551.3486,85.0
1551.9691,56.0
1552.5898,70.0
1553.2109,53.0
1553.8323,79.0
1554.4539,63.0
1555.0757,45.0
1555.6978,58.0
1556.3201,60.0
1556.9426,57.0
1557.5654,71.0
1558.1885,55.0
1558.8118,69.0
1559.4353,86.0
1560.0591,64.0
1560.6831,71.0
1561.3074,77.0
1561.9319,49.0
1562.5566,66.0
1563.1816,47.0
1563.8069,65.0
1564.4324,75.0
1565.0581,51.0
1565.6841,62.0
1566.3103,60.0
1566.9368,56.0
1567.5636,58.0
1568.1907,61.0
1568.818,64.0
1569.4456,66.0
1570.0734,40.0
1570.7014,70.0
1571.3297,66.0
1571.9583,56.0
1572.587,83.0
1573.2161,51.0
1573.8453,54.0
1574.4749,63.0
1575.1046,54.0
1575.7346,54.0
1576.3649,63.0
1576.9954,52.0
1577.6261,68.0
1578.2572,56.0
1578.8885,50.0
1579.5201,64.0
1580.152,54.0
1580.784,57.0
1581.4164,58.0
1582.049,47.0
1582.6818,65.0
1583.3148,60.0
1583.9481,57.0
1584.5817,61.0
1585.2155,63.0
1585.8495,61.0
1586.4839,87.0
1587.1185,45.0
1587.7534,65.0
1588.3885,62.0
1589.0239,59.0
1589.6595,76.0
1590.2954,54.0
1590.9315,41.0
1591.5679,78.0
1592.2045,52.0
1592.8413,64.0
1593.4784,56.0
1594.1158,46.0
1594.7535,65.0
1595.3915,69.0
1596.0297,52.0
1596.6681,70.0
1597.3068,55.0
1597.9457,59.0
1598.5848,86.0
1599.2242,46.0
1599.8639,42.0
1600.5038,72.0
1601.144,64.0
1601.7845,73.0
1602.4253,66.0
1603.0663,49.0
1603.7075,101.0
1604.349,66.0
1604.9907,59.0
1605.6327,71.0
1606.2749,59.0
1606.9174,58.0
1607.5602,58.0
1608.2032,58.0
1608.8466,48.0
1609.4901,58.0
1610.1339,55.0
1610.778,41.0
1611.4222,69.0
1612.0668,43.0
1612.7115,74.0
1613.3567,69.0
1614.0021,50.0
1614.6477,71.0
1615.2936,57.0
1615.9397,54.0
1616.586,72.0
1617.2327,58.0
1617.8795,56.0
1618.5266,65.0
1619.1741,42.0
1619.8218,62.0
1620.4697,74.0
1621.1179,55.0
1621.7664,69.0
1622.415,64.0
1623.064,69.0
1623.7131,58.0
1624.3627,63.0
1625.0125,53.0
1625.6625,53.0
1626.3127,49.0
1626.9633,50.0
1627.614,70.0
1628.265,54.0
1628.9163,58.0
1629.5679,63.0
1630.2197,63.0
1630.8718,76.0
1631.5242,79.0
1632.1768,60.0
1632.8296,66.0
1633.4827,62.0
1634.1361,57.0
1634.7898,64.0
1635.4437,64.0
1636.0979,37.0
1636.7523,60.0
1637.407,55.0
1638.0619,42.0
1638.7172,59.0
1639.3727,62.0
1640.0284,58.0
1640.6844,59.0
1641.3407,61.0
1641.9972,44.0
1642.6539,68.0
1643.311,72.0
1643.9684,49.0
1644.626,110.0
1645.2838,83.0
1645.9419,64.0
1646.6002,89.0
1647.2589,62.0
1647.9178,60.0
1648.577,79.0
1649.2365,56.0
1649.8961,42.0
1650.556,56.0
1651.2163,55.0
1651.8768,64.0
1652.5376,65.0
1653.1986,45.0
1653.8599,49.0
1654.5214,65.0
1655.1832,53.0
1655.8453,57.0
1656.5077,71.0
1657.1703,51.0
1657.8331,51.0
1658.4962,70.0
1659.1597,39.0
1659.8234,61.0
1660.4873,69.0
1661.1515,33.0
1661.8159,64.0
1662.4806,71.0
1663.1456,64.0
1663.8109,48.0
1664.4764,70.0
1665.1422,51.0
1665.8082,63.0
1666.4746,71.0
1667.1412,39.0
1667.8081,75.0
1668.4752,60.0
1669.1426,54.0
1669.8102,72.0
1670.4781,63.0
1671.1464,48.0
1671.8148,60.0
1672.4835,70.0
1673.1525,51.0
1673.8218,56.0
1674.4913,76.0
1675.1611,43.0
1675.8312,63.0
1676.5015,66.0
1677.1721,53.0
1677.843,59.0
1678.5142,56.0
1679.1855,48.0
1679.8572,59.0
1680.5292,52.0
1681.2014,65.0
1681.8739,60.0
1682.5466,68.0
1683.2196,54.0
1683.893,69.0
1684.5665,72.0
1685.2404,60.0
1685.9144,63.0
1686.5887,46.0
1687.2634,51.0
1687.9384,54.0
1688.6135,62.0
1689.289,60.0
1689.9646,47.0
1690.6406,47.0
1691.3169,58.0
1691.9934,46.0
1692.6702,70.0
1693.3473,52.0
1694.0247,42.0
1694.7023,46.0
1695.3801,63.0
1696.0582,46.0
1696.7367,47.0
1697.4154,73.0
1698.0944,61.0
1698.7736,64.0
1699.4531,61.0
1700.1329,51.0
1700.813,77.0
1701.4933,80.0
1702.1738,44.0
1702.8547,59.0
1703.5359,63.0
1704.2173,48.0
1704.8989,61.0
1705.5809,77.0
1706.2632,60.0
1706.9457,58.0
1707.6284,54.0
1708.3115,60.0
1708.9949,50.0
1709.6785,61.0
1710.3623,61.0
1711.0465,41.0
1711.731,68.0
1712.4156,50.0
1713.1006,53.0
1713.7858,61.0
1714.4713,62.0
1715.1571,44.0
1715.8431,66.0
1716.5294,62.0
1717.2161,57.0
1717.903,53.0
1718.5901,54.0
1719.2775,39.0
1719.9652,69.0
1720.6532,58.0
1721.3414,52.0
1722.0299,46.0
1722.7188,79.0
1723.4078,60.0
1724.0972,37.0
1724.7869,65.0
1725.4768,57.0
1726.167,56.0
1726.8574,64.0
1727.5482,65.0
1728.2393,59.0
1728.9305,50.0
1729.6221,62.0
1730.314,61.0
1731.0061,36.0
1731.6985,67.0
1732.3911,49.0
1733.0841,53.0
1733.7773,68.0
1734.4708,61.0
1735.1647,63.0
1735.8588,57.0
1736.5531,67.0
1737.2477,53.0
1737.9426,48.0
1738.6378,64.0
1739.3333,55.0
1740.0289,42.0
1740.725,58.0
1741.4213,59.0
1742.1178,44.0
1742.8147,70.0
1743.5118,59.0
1744.2092,50.0
1744.9069,58.0
1745.6049,59.0
1746.3031,58.0
1747.0016,45.0
1747.7004,57.0
1748.3995,59.0
1749.0989,49.0
1749.7985,59.0
1750.4984,57.0
1751.1986,61.0
1751.899,55.0
1752.5999,68.0
1753.3009,51.0
1754.0022,57.0
1754.7039,60.0
1755.4058,60.0
1756.1079,50.0
1756.8103,60.0
1757.5131,58.0
1758.2161,35.0
1758.9193,67.0
1759.6229,69.0
1760.3268,65.0
1761.0309,47.0
1761.7354,55.0
1762.4401,63.0
1763.145,30.0
1763.8502,51.0
1764.5558,64.0
1765.2616,57.0
1765.9677,58.0
1766.6741,64.0
1767.3807,52.0
1768.0876,48.0
1768.7949,60.0
1769.5024,46.0
1770.2102,38.0
1770.9183,54.0
1771.6267,75.0
1772.3353,53.0
1773.0443,53.0
1773.7535,72.0
1774.463,63.0
1775.1729,33.0
1775.8829,56.0
1776.5933,71.0
1777.304,40.0
1778.0149,38.0
1778.7261,45.0
1779.4376,55.0
1780.1494,57.0
1780.8615,67.0
1781.5739,53.0
1782.2865,57.0
1782.9994,48.0
1783.7126,62.0
1784.4261,65.0
1785.1399,52.0
1785.854,59.0
1786.5684,51.0
1787.283,44.0
1787.9979,66.0
1788.7131,79.0
1789.4286,67.0
1790.1444,51.0
1790.8605,57.0
1791.5768,65.0
1792.2935,60.0
1793.0104,65.0
1793.7275,53.0
1794.4451,55.0
1795.1628,42.0
1795.8809,55.0
1796.5992,54.0
1797.3179,52.0
1798.0367,46.0
1798.756,50.0
1799.4755,55.0
1800.1953,47.0
1800.9154,41.0
1801.6357,51.0
1802.3564,62.0
1803.0774,52.0
1803.7986,58.0
1804.5201,54.0
1805.242,64.0
1805.964,72.0
1806.6864,91.0
1807.409,75.0
1808.1321,57.0
1808.8553,66.0
1809.5789,61.0
1810.3027,43.0
1811.0269,59.0
1811.7512,63.0
1812.476,50.0
1813.2009,46.0
1813.9261,56.0
1814.6517,62.0
1815.3776,66.0
1816.1038,47.0
1816.8302,63.0
1817.5569,69.0
1818.2839,44.0
1819.0112,60.0
1819.7389,61.0
1820.4668,57.0
1821.195,50.0
1821.9235,52.0
1822.6522,67.0
1823.3812,61.0
1824.1106,40.0
1824.8402,66.0
1825.5702,70.0
1826.3004,38.0
1827.0309,38.0
1827.7617,69.0
1828.4928,59.0
1829.2242,52.0
1829.9559,54.0
1830.6879,58.0
1831.4202,55.0
1832.1527,43.0
1832.8856,47.0
1833.6188,47.0
1834.3522,57.0
1835.0859,53.0
1835.82,53.0
1836.5543,85.0
1837.289,57.0
1838.0238,58.0
1838.759,67.0
1839.4945,56.0
1840.2303,54.0
1840.9664,66.0
1841.7028,51.0
1842.4395,64.0
1843.1764,55.0
1843.9137,63.0
1844.6512,59.0
1845.3892,50.0
1846.1273,60.0
1846.8657,46.0
1847.6045,51.0
1848.3435,48.0
1849.0829,44.0
1849.8225,53.0
1850.5624,51.0
1851.3026,45.0
1852.0431,48.0
1852.7839,62.0
1853.525,58.0
1854.2665,57.0
1855.0082,58.0
1855.7501,67.0
1856.4924,76.0
1857.235,58.0
1857.9779,70.0
1858.7211,74.0
1859.4646,63.0
1860.2084,63.0
1860.9525,64.0
1861.6969,44.0
1862.4415,64.0
1863.1865,39.0
1863.9318,63.0
1864.6774,64.0
1865.4232,68.0
1866.1694,44.0
1866.9159,51.0
1867.6627,66.0
1868.4098,80.0
1869.1571,44.0
1869.9048,72.0
1870.6527,72.0
1871.401,67.0
1872.1495,53.0
1872.8984,62.0
1873.6476,65.0
1874.3971,67.0
1875.1469,41.0
1875.8969,69.0
1876.6472,58.0
1877.3978,62.0
1878.1488,39.0
1878.9,70.0
1879.6516,65.0
1880.4034,52.0
1881.1556,40.0
1881.9081,59.0
1882.6609,58.0
1883.414,66.0
1884.1674,62.0
1884.921,195.0
1885.675,231.0
1886.4293,137.0
1887.1838,96.0
1887.9387,94.0
1888.6938,74.0
1889.4493,72.0
1890.2051,56.0
1890.9612,44.0
1891.7175,60.0
1892.4742,57.0
1893.2312,56.0
1893.9885,55.0
1894.7461,58.0
1895.504,61.0
1896.2622,59.0
1897.0208,71.0
1897.7795,82.0
1898.5387,59.0
1899.2981,66.0
1900.0579,55.0
1900.8179,62.0
1901.5782,62.0
1902.3389,46.0
1903.0999,45.0
1903.8611,56.0
1904.6227,53.0
1905.3845,47.0
1906.1467,38.0
1906.9092,68.0
1907.672,69.0
1908.435,76.0
1909.1985,39.0
1909.9622,52.0
1910.7262,54.0
1911.4905,64.0
1912.2551,61.0
1913.02,56.0
1913.7853,169.0
1914.5508,135.0
1915.3167,93.0
1916.0828,124.0
1916.8492,96.0
1917.616,63.0
1918.383,47.0
1919.1504,39.0
1919.9181,58.0
1920.686,70.0
1921.4543,65.0
1922.2229,49.0
1922.9918,42.0
1923.761,40.0
1924.5305,69.0
1925.3003,41.0
1926.0704,45.0
1926.8408,44.0
1927.6116,56.0
1928.3826,61.0
1929.1539,56.0
1929.9255,51.0
1930.6975,62.0
1931.4698,58.0
1932.2424,42.0
1933.0154,50.0
1933.7886,69.0
1934.5621,53.0
1935.3359,43.0
1936.1101,68.0
1936.8845,59.0
1937.6593,71.0
1938.4343,59.0
1939.2097,45.0
1939.9854,59.0
1940.7614,61.0
1941.5376,63.0
1942.3142,49.0
1943.0912,56.0
1943.8684,48.0
1944.646,53.0
1945.4238,45.0
1946.202,43.0
1946.9805,48.0
1947.7593,62.0
1948.5383,46.0
1949.3177,50.0
1950.0975,50.0
1950.8776,55.0
1951.658,62.0
1952.4386,50.0
1953.2196,48.0
1954.0009,69.0
1954.7825,50.0
1955.5643,59.0
1956.3466,49.0
1957.1292,48.0
1957.912,42.0
1958.6952,61.0
1959.4786,49.0
1960.2625,43.0
1961.0465,52.0
1961.8309,62.0
1962.6157,61.0
1963.4008,45.0
1964.1862,38.0
1964.9718,52.0
1965.7578,39.0
1966.5441,46.0
1967.3307,43.0
1968.1177,56.0
1968.9049,60.0
1969.6925,62.0
1970.4803,55.0
1971.2686,56.0
1972.057,49.0
1972.8458,48.0
1973.635,60.0
1974.4244,50.0
1975.2142,44.0
1976.0043,58.0
1976.7947,57.0
1977.5854,86.0
1978.3765,61.0
1979.1678,40.0
1979.9595,59.0
1980.7515,62.0
1981.5438,61.0
1982.3364,55.0
1983.1294,58.0
1983.9226,70.0
1984.7162,62.0
1985.5101,55.0
1986.3043,52.0
1987.0989,54.0
1987.8937,50.0
1988.6888,63.0
1989.4844,51.0
1990.2802,31.0
1991.0763,60.0
1991.8727,56.0
1992.6694,65.0
1993.4666,59.0
1994.2639,64.0
1995.0616,64.0
1995.8596,65.0
1996.658,56.0
1997.4567,55.0
1998.2556,49.0
1999.0549,59.0
1999.8546,59.0
2000.6545,67.0
2001.4548,46.0
2002.2554,50.0
2003.0563,43.0
2003.8575,50.0
2004.659,56.0
2005.4609,51.0
2006.2631,48.0
2007.0656,51.0
2007.8684,65.0
2008.6715,84.0
2009.475,97.0
2010.2788,45.0
2011.0829,63.0
2011.8873,93.0
2012.6921,100.0
2013.4972,61.0
2014.3026,56.0
2015.1083,53.0
2015.9143,72.0
2016.7207,47.0
2017.5273,51.0
2018.3344,57.0
2019.1417,56.0
2019.9493,57.0
2020.7573,62.0
2021.5657,42.0
2022.3743,48.0
2023.1832,38.0
2023.9926,45.0
2024.8021,58.0
2025.612,66.0
2026.4224,60.0
2027.2329,49.0
2028.0438,61.0
2028.855,75.0
2029.6665,70.0
2030.4784,84.0
2031.2905,60.0
2032.103,53.0
2032.9159,53.0
2033.729,64.0
2034.5425,67.0
2035.3563,46.0
2036.1704,48.0
2036.9849,51.0
2037.7997,56.0
2038.6147,60.0
2039.4302,56.0
2040.246,48.0
2041.062,49.0
2041.8784,56.0
2042.6952,79.0
2043.5123,63.0
2044.3297,41.0
2045.1475,39.0
2045.9656,51.0
2046.7839,47.0
2047.6027,68.0
2048.4216,49.0
2049.241,45.0
2050.0605,51.0
2050.8806,65.0
2051.701,78.0
2052.5217,76.0
2053.3428,73.0
2054.164,43.0
2054.9858,62.0
2055.8079,63.0
2056.6301,57.0
2057.453,57.0
2058.276,61.0
2059.099,54.0
2059.9229,46.0
2060.7468,56.0
2061.571,59.0
2062.3958,31.0
2063.2207,55.0
2064.046,48.0
2064.8716,76.0
2065.6975,52.0
2066.5237,71.0
2067.3503,51.0
2068.1772,62.0
2069.0046,42.0
2069.8323,62.0
2070.6602,50.0
2071.4885,57.0
2072.3171,44.0
2073.146,46.0
2073.9753,50.0
2074.805,46.0
2075.6348,67.0
2076.465,52.0
2077.2957,39.0
2078.1265,56.0
2078.9578,57.0
2079.7893,60.0
2080.6213,62.0
2081.4536,65.0
2082.2861,57.0
2083.1191,73.0
2083.9524,95.0
2084.786,91.0
2085.6199,62.0
2086.454,51.0
2087.2886,51.0
2088.1235,56.0
2088.9587,48.0
2089.7944,39.0
2090.6304,48.0
2091.4666,55.0
2092.3032,26.0
2093.1401,39.0
2093.9773,56.0
2094.815,49.0
2095.6528,52.0
2096.4912,68.0
2097.3298,41.0
2098.1687,48.0
2099.008,53.0
2099.8477,47.0
2100.6875,41.0
2101.5278,49.0
2102.3684,56.0
2103.2095,60.0
2104.0508,66.0
2104.8923,56.0
2105.7344,48.0
2106.5767,39.0
2107.4192,52.0
2108.2622,39.0
2109.1055,55.0
2109.9492,42.0
2110.7932,56.0
2111.6375,55.0
2112.4822,52.0
2113.3271,46.0
2114.1724,49.0
2115.018,51.0
2115.864,58.0
2116.7104,55.0
2117.5571,49.0
2118.404,55.0
2119.2515,55.0
2120.099,52.0
2120.9473,48.0
2121.7957,55.0
2122.6443,60.0
2123.4934,56.0
2124.3428,60.0
2125.1926,47.0
2126.0427,63.0
2126.893,61.0
2127.744,52.0
2128.595,58.0
2129.4463,57.0
2130.298,41.0
2131.1501,42.0
2132.0027,46.0
2132.8555,60.0
2133.7085,49.0
2134.562,45.0
2135.4158,52.0
2136.27,46.0
2137.1245,46.0
2137.9792,59.0
2138.8345,53.0
2139.69,63.0
2140.546,54.0
2141.402,56.0
2142.2585,68.0
2143.1155,85.0
2143.9727,84.0
2144.8303,67.0
2145.6882,60.0
2146.5464,47.0
2147.405,47.0
2148.264,43.0
2149.1233,43.0
2149.983,57.0
2150.843,62.0
2151.7034,60.0
2152.564,64.0
2153.425,48.0
2154.2864,48.0
2155.1482,48.0
2156.0103,60.0
2156.8726,59.0
2157.7354,57.0
2158.5984,40.0
2159.462,56.0
2160.3257,55.0
2161.1897,50.0
2162.0542,52.0
2162.919,63.0
2163.7842,64.0
2164.6497,42.0
2165.5156,58.0
2166.3818,65.0
2167.2483,52.0
2168.1152,70.0
2168.9824,58.0
2169.85,62.0
2170.718,64.0
2171.5864,56.0
2172.455,51.0
2173.324,58.0
2174.1934,53.0
2175.063,59.0
2175.933,56.0
2176.8035,71.0
2177.674,72.0
2178.5452,60.0
2179.4165,58.0
2180.2883,49.0
2181.1604,68.0
2182.033,55.0
2182.9058,52.0
2183.7788,43.0
2184.6523,50.0
2185.5261,61.0
2186.4004,42.0
2187.275,56.0
2188.15,42.0
2189.0251,50.0
2189.9006,47.0
2190.7766,64.0
2191.6528,52.0
2192.5295,49.0
2193.4065,67.0
2194.284,57.0
2195.1616,75.0
2196.0398,53.0
2196.9182,79.0
2197.7969,61.0
2198.676,61.0
2199.5554,62.0
2200.4353,56.0
2201.3154,59.0
2202.196,58.0
2203.077,66.0
2203.9583,54.0
2204.8398,54.0
2205.7217,44.0
2206.604,49.0
2207.4866,53.0
2208.3696,32.0
2209.253,49.0
2210.1367,56.0
2211.0208,50.0
2211.9053,77.0
2212.79,77.0
2213.675,55.0
2214.5605,48.0
2215.4463,61.0
2216.3325,65.0
2217.219,61.0
2218.106,64.0
2218.9932,70.0
2219.8809,60.0
2220.7688,61.0
2221.6572,63.0
2222.546,59.0
2223.4348,62.0
2224.3242,42.0
2225.2139,53.0
2226.104,63.0
2226.9944,52.0
2227.8853,52.0
2228.7764,49.0
2229.668,63.0
2230.5598,54.0
2231.4521,50.0
2232.3447,49.0
2233.2375,50.0
2234.1309,54.0
2235.0244,53.0
2235.9185,74.0
2236.8127,62.0
2237.7075,47.0
2238.6025,56.0
2239.498,49.0
2240.3938,48.0
2241.29,60.0
2242.1865,51.0
2243.0835,60.0
2243.9807,61.0
2244.8784,60.0
2245.7764,60.0
2246.6746,52.0
2247.5732,59.0
2248.4722,57.0
2249.3716,52.0
2250.2712,49.0
2251.1714,61.0
2252.0718,60.0
2252.9727,41.0
2253.8738,69.0
2254.7754,48.0
2255.6772,66.0
2256.5796,65.0
2257.4822,57.0
2258.3853,46.0
2259.2886,69.0
2260.1924,61.0
2261.0964,71.0
2262.001,49.0
2262.9058,59.0
2263.811,48.0
2264.7166,62.0
2265.6226,55.0
2266.5288,65.0
2267.4353,54.0
2268.3423,47.0
2269.2495,47.0
2270.1572,56.0
2271.0652,76.0
2271.9736,54.0
2272.8823,66.0
2273.7915,57.0
2274.701,58.0
2275.6108,65.0
2276.521,74.0
2277.4316,66.0
2278.3425,64.0
2279.254,54.0
2280.1655,69.0
2281.0776,51.0
2281.99,57.0
2282.9028,69.0
2283.816,57.0
2284.7295,52.0
2285.6433,70.0
2286.5576,54.0
2287.4722,54.0
2288.3872,51.0
2289.3025,59.0
2290.2183,48.0
2291.1343,58.0
2292.0508,58.0
2292.9675,61.0
2293.8848,67.0
2294.8022,82.0
2295.7202,69.0
2296.6384,61.0
2297.5571,64.0
2298.476,53.0
2299.3955,51.0
2300.3152,57.0
2301.2354,67.0
2302.1558,65.0
2303.0767,59.0
2303.9978,58.0
2304.9194,79.0
2305.8413,68.0
2306.7637,54.0
2307.6863,46.0
2308.6094,75.0
2309.5327,56.0
2310.4565,46.0
2311.3806,58.0
2312.3052,72.0
2313.23,65.0
2314.1553,59.0
2315.081,59.0
2316.007,52.0
2316.9336,70.0
2317.8604,57.0
2318.7876,62.0
2319.715,72.0
2320.643,79.0
2321.5713,48.0
2322.5,60.0
2323.429,54.0
2324.3584,46.0
2325.288,60.0
2326.2183,54.0
2327.1487,54.0
2328.0796,57.0
2329.0107,82.0
2329.9424,72.0
2330.8743,41.0
2331.8066,53.0
2332.7393,58.0
2333.6724,52.0
2334.6057,40.0
2335.5396,57.0
2336.4739,75.0
2337.4084,67.0
2338.3435,64.0
2339.2788,64.0
2340.2146,57.0
2341.1506,52.0
2342.0872,64.0
2343.024,59.0
2343.9612,67.0
2344.8987,63.0
2345.8367,81.0
2346.775,61.0
2347.7136,56.0
2348.6526,51.0
2349.592,62.0
2350.532,60.0
2351.4722,60.0
2352.4128,51.0
2353.3538,55.0
2354.2952,65.0
2355.2368,56.0
2356.179,72.0
2357.1213,60.0
2358.0642,54.0
2359.0073,65.0
2359.951,68.0
2360.895,65.0
2361.8394,85.0
2362.7842,56.0
2363.7292,68.0
2364.6748,60.0
2365.6206,60.0
2366.567,58.0
2367.5134,63.0
2368.4604,67.0
2369.4077,79.0
2370.3555,65.0
2371.3037,53.0
2372.2522,54.0
2373.2012,63.0
2374.1504,51.0
2375.1,55.0
2376.05,63.0
2377.0005,49.0
2377.9512,57.0
2378.9023,59.0
2379.854,57.0
2380.806,60.0
2381.7583,60.0
2382.711,50.0
2383.664,54.0
2384.6174,63.0
2385.5713,62.0
2386.5256,54.0
2387.4802,68.0
2388.4353,72.0
2389.3906,79.0
2390.3464,59.0
2391.3025,67.0
2392.259,49.0
2393.2158,56.0
2394.173,69.0
2395.1309,54.0
2396.0889,52.0
2397.0474,77.0
2398.006,57.0
2398.9653,57.0
2399.9248,61.0
2400.8848,55.0
2401.8452,44.0
2402.806,54.0
2403.767,69.0
2404.7285,63.0
2405.6904,54.0
2406.6526,61.0
2407.6152,58.0
2408.5784,50.0
2409.5417,52.0
2410.5056,59.0
2411.4697,56.0
2412.4343,60.0
2413.3994,59.0
2414.3647,58.0
2415.3306,60.0
2416.2966,65.0
2417.2632,41.0
2418.23,59.0
2419.1973,58.0
2420.165,49.0
2421.133,65.0
2422.1016,68.0
2423.0703,74.0
2424.0396,60.0
2425.0093,61.0
2425.9792,51.0
2426.9497,48.0
2427.9204,46.0
2428.8916,59.0
2429.863,57.0
2430.835,64.0
2431.8074,63.0
2432.78,54.0
2433.7532,58.0
2434.7266,50.0
2435.7004,71.0
2436.6748,46.0
2437.6494,60.0
2438.6245,61.0
2439.5999,45.0
2440.5757,42.0
2441.552,56.0
2442.5286,58.0
2443.5056,43.0
2444.483,56.0
2445.4607,54.0
2446.439,65.0
2447.4175,58.0
2448.3965,68.0
2449.3757,49.0
2450.3555,57.0
2451.3357,54.0
2452.3162,60.0
2453.297,54.0
2454.2783,63.0
2455.26,50.0
2456.2422,57.0
2457.2246,55.0
2458.2075,47.0
2459.191,46.0
2460.1746,69.0
2461.1587,49.0
2462.143,48.0
2463.128,65.0
2464.1133,59.0
2465.0989,70.0
2466.085,67.0
2467.0713,71.0
2468.058,53.0
2469.0454,51.0
2470.033,55.0
2471.021,46.0
2472.0095,53.0
2472.9983,78.0
2473.9875,53.0
2474.977,56.0
2475.967,56.0
2476.9575,53.0
2477.9482,51.0
2478.9395,38.0
2479.931,43.0
2480.9229,55.0
2481.9153,53.0
2482.908,45.0
2483.9011,58.0
2484.8948,78.0
2485.8887,48.0
2486.883,45.0
2487.878,60.0
2488.873,54.0
2489.8687,68.0
2490.8645,50.0
2491.8608,45.0
2492.8577,56.0
2493.8547,56.0
2494.8523,50.0
2495.8503,46.0
2496.8486,64.0
2497.8474,67.0
2498.8464,54.0
2499.846,63.0
2500.846,53.0
2501.8462,49.0
2502.847,56.0
2503.8481,57.0
2504.8496,55.0
2505.8516,59.0
2506.854,58.0
2507.8567,49.0
2508.8599,49.0
2509.8635,52.0
2510.8674,56.0
2511.8718,50.0
2512.8765,65.0
2513.8816,68.0
2514.8872,62.0
2515.893,54.0
2516.8994,57.0
2517.9062,56.0
2518.9133,42.0
2519.921,51.0
2520.929,65.0
2521.9373,62.0
2522.946,52.0
2523.9553,46.0
2524.9648,44.0
2525.9749,62.0
2526.9854,56.0
2527.996,66.0
2529.0073,52.0
2530.019,48.0
2531.031,59.0
2532.0435,68.0
2533.0562,51.0
2534.0693,61.0
2535.083,58.0
2536.097,51.0
2537.1113,61.0
2538.1262,62.0
2539.1414,52.0
2540.157,55.0
2541.173,48.0
2542.1895,59.0
2543.2063,65.0
2544.2236,58.0
2545.2412,66.0
2546.2593,50.0
2547.2778,46.0
2548.2966,65.0
2549.316,45.0
2550.3357,57.0
2551.3557,50.0
2552.3762,51.0
2553.3972,68.0
2554.4185,56.0
2555.4402,65.0
2556.4624,51.0
2557.485,55.0
2558.508,59.0
2559.5315,42.0
2560.5554,52.0
2561.5796,64.0
2562.6042,62.0
2563.6294,50.0
2564.6548,47.0
2565.6807,65.0
2566.707,74.0
2567.7336,63.0
2568.7607,52.0
2569.7883,52.0
2570.8162,57.0
2571.8445,56.0
2572.8733,64.0
2573.9023,42.0
2574.932,51.0
2575.962,58.0
2576.9922,48.0
2578.023,52.0
2579.0542,52.0
2580.086,62.0
2581.118,58.0
2582.1504,56.0
2583.1833,56.0
2584.2166,48.0
2585.2502,52.0
2586.2844,50.0
2587.3188,48.0
2588.3538,51.0
2589.3892,63.0
2590.4248,65.0
2591.461,61.0
2592.4976,69.0
2593.5347,68.0
2594.572,62.0
2595.6099,48.0
2596.6482,50.0
2597.6868,62.0
2598.7258,66.0
2599.7654,56.0
2600.8052,65.0
2601.8455,54.0
2602.8862,59.0
2603.9275,42.0
2604.969,50.0
2606.011,56.0
2607.0535,65.0
2608.0962,52.0
2609.1394,66.0
2610.183,56.0
2611.2273,71.0
2612.2717,70.0
2613.3167,59.0
2614.362,48.0
2615.4077,65.0
2616.4539,64.0
2617.5005,53.0
2618.5476,52.0
2619.595,71.0
2620.6428,59.0
2621.6912,62.0
2622.7397,58.0
2623.7888,67.0
2624.8384,71.0
2625.8884,59.0
2626.9387,62.0
2627.9895,57.0
2629.0408,47.0
2630.0923,71.0
2631.1443,65.0
2632.1968,63.0
2633.2498,71.0
2634.303,64.0
2635.3567,75.0
2636.411,68.0
2637.4653,60.0
2638.5203,47.0
2639.5757,57.0
2640.6316,58.0
2641.6877,53.0
2642.7444,60.0
2643.8015,55.0
2644.8591,53.0
2645.917,71.0
2646.9753,51.0
2648.0342,63.0
2649.0935,64.0
2650.153,64.0
2651.2131,47.0
2652.2737,50.0
2653.3345,64.0
2654.3958,66.0
2655.4575,55.0
2656.5198,71.0
2657.5823,65.0
2658.6453,62.0
2659.7087,60.0
2660.7727,66.0
2661.837,68.0
2662.9016,39.0
2663.9668,73.0
2665.0325,67.0
2666.0984,78.0
2667.1648,64.0
2668.2317,60.0
2669.299,70.0
2670.3667,73.0
2671.4348,52.0
2672.5034,62.0
2673.5725,56.0
2674.6418,62.0
2675.7117,64.0
2676.782,66.0
2677.8528,65.0
2678.9238,64.0
2679.9954,59.0
2681.0674,69.0
2682.14,64.0
2683.2126,70.0
2684.286,64.0
2685.3596,55.0
2686.4338,70.0
2687.5083,70.0
2688.5833,52.0
2689.6587,61.0
2690.7346,61.0
2691.8108,72.0
2692.8875,58.0
2693.9646,55.0
2695.0422,71.0
2696.1204,58.0
2697.1987,64.0
2698.2776,75.0
2699.357,64.0
2700.4368,58.0
2701.5168,68.0
2702.5974,67.0
2703.6785,71.0
2704.76,60.0
2705.8418,61.0
2706.924,62.0
2708.0068,49.0
2709.09,54.0
2710.1738,59.0
2711.2578,67.0
2712.3423,68.0
2713.4272,64.0
2714.5127,67.0
2715.5984,69.0
2716.6846,64.0
2717.7712,50.0
2718.8584,62.0
2719.946,74.0
2721.034,64.0
2722.1223,72.0
2723.2112,67.0
2724.3005,73.0
2725.3901,75.0
2726.4802,65.0
2727.5708,64.0
2728.6619,85.0
2729.7534,60.0
2730.8452,50.0
2731.9375,65.0
2733.0303,52.0
2734.1235,74.0
2735.2173,79.0
2736.3113,87.0
2737.4058,96.0
2738.5007,63.0
2739.5962,57.0
2740.6921,52.0
2741.7883,41.0
2742.885,55.0
2743.9822,45.0
2745.0798,63.0
2746.178,61.0
2747.2764,59.0
2748.3752,58.0
2749.4746,56.0
2750.5745,68.0
2751.6748,81.0
2752.7754,61.0
2753.8765,76.0
2754.978,67.0
2756.08,46.0
2757.1826,66.0
2758.2854,57.0
2759.3887,54.0
2760.4924,50.0
2761.5967,44.0
2762.7014,67.0
2763.8064,69.0
2764.9119,68.0
2766.0178,67.0
2767.1243,49.0
2768.2312,62.0
2769.3384,58.0
2770.446,58.0
2771.5542,65.0
2772.6628,57.0
2773.772,55.0
2774.8816,60.0
2775.9915,52.0
2777.1018,63.0
2778.2126,64.0
2779.324,77.0
2780.4358,54.0
2781.5479,70.0
2782.6604,62.0
2783.7734,64.0
2784.887,54.0
2786.001,51.0
2787.1155,48.0
2788.2302,61.0
2789.3455,67.0
2790.4612,68.0
2791.5774,75.0
2792.694,87.0
2793.8113,104.0
2794.9287,120.0
2796.0466,121.0
2797.165,116.0
2798.284,92.0
2799.4033,96.0
2800.5232,87.0
2801.6433,85.0
2802.764,87.0
2803.885,83.0
2805.0066,83.0
2806.1287,93.0
2807.2512,87.0
2808.374,93.0
2809.4973,100.0
2810.621,85.0
2811.7454,96.0
2812.87,81.0
2813.9954,109.0
2815.1208,92.0
2816.2468,85.0
2817.3733,85.0
2818.5002,107.0
2819.6277,76.0
2820.7556,104.0
2821.884,96.0
2823.0127,89.0
2824.1418,75.0
2825.2715,96.0
2826.4016,92.0
2827.5322,85.0
2828.6633,89.0
2829.7947,90.0
2830.9265,95.0
2832.0588,86.0
2833.1917,91.0
2834.325,98.0
2835.4587,85.0
2836.593,96.0
2837.7275,97.0
2838.8625,79.0
2839.998,88.0
2841.134,80.0
2842.2705,87.0
2843.4075,68.0
2844.545,78.0
2845.6829,84.0
2846.821,109.0
2847.9597,86.0
2849.0989,94.0
2850.2385,93.0
2851.3787,94.0
2852.5193,93.0
2853.6604,97.0
2854.8018,74.0
2855.9436,78.0
2857.086,95.0
2858.2288,88.0
2859.372,106.0
2860.5159,89.0
2861.6602,98.0
2862.805,70.0
2863.95,90.0
2865.0955,96.0
2866.2415,116.0
2867.388,123.0
2868.535,107.0
2869.6824,101.0
2870.8303,92.0
2871.9788,87.0
2873.1274,99.0
2874.2766,105.0
2875.4263,82.0
2876.5764,81.0
2877.727,85.0
2878.8782,106.0
2880.0298,84.0
2881.182,87.0
2882.3345,91.0
2883.4873,99.0
2884.6406,108.0
2885.7944,77.0
2886.9487,80.0
2888.1035,101.0
2889.2588,95.0
2890.4146,95.0
2891.5708,125.0
2892.7275,121.0
2893.8845,98.0
2895.042,91.0
2896.2,88.0
2897.3584,91.0
2898.5173,92.0
2899.6768,95.0
2900.8367,89.0
2901.997,66.0
2903.158,95.0
2904.3193,87.0
2905.481,132.0
2906.643,104.0
2907.8057,138.0
2908.9688,142.0
2910.1323,150.0
2911.2964,122.0
2912.461,105.0
2913.626,84.0
2914.7915,88.0
2915.9575,77.0
2917.124,85.0
2918.2908,86.0
2919.458,86.0
2920.6257,89.0
2921.794,116.0
2922.9626,156.0
2924.1318,166.0
2925.3015,117.0
2926.4717,114.0
2927.6423,96.0
2928.8135,87.0
2929.985,83.0
2931.157,87.0
2932.3293,101.0
2933.5022,98.0
2934.6755,102.0
2935.8494,87.0
2937.0237,93.0
2938.1985,100.0
2939.3738,98.0
2940.5496,85.0
2941.7258,92.0
2942.9026,91.0
2944.0798,87.0
2945.2576,92.0
2946.4358,103.0
2947.6143,109.0
2948.7932,92.0
2949.9727,91.0
2951.1526,99.0
2952.333,108.0
2953.514,79.0
2954.6953,85.0
2955.8772,84.0
2957.0596,76.0
2958.2424,91.0
2959.4258,90.0
2960.6096,83.0
2961.794,81.0
2962.9788,91.0
2964.164,99.0
2965.3496,103.0
2966.5356,86.0
2967.7222,107.0
2968.9092,76.0
2970.0967,76.0
2971.2847,84.0
2972.4731,88.0
2973.662,78.0
2974.8516,91.0
2976.0415,84.0
2977.232,86.0
2978.4229,76.0
2979.6143,79.0
2980.8062,74.0
2981.9985,97.0
2983.1914,79.0
2984.3848,65.0
2985.5786,79.0
2986.773,84.0
2987.9678,88.0
2989.1628,80.0
2990.3584,104.0
2991.5544,77.0
2992.751,92.0
2993.948,88.0
2995.1455,99.0
2996.3435,85.0
2997.542,88.0
2998.741,72.0
2999.9404,84.0
3001.1404,90.0
3002.3408,97.0
3003.5417,66.0
3004.7432,91.0
3005.945,71.0
3007.1475,92.0
3008.3503,80.0
3009.5537,88.0
3010.7576,89.0
3011.962,86.0
3013.1667,62.0
3014.372,101.0
3015.578,103.0
3016.7842,86.0
3017.991,79.0
3019.1982,78.0
3020.406,112.0
3021.6143,83.0
3022.823,87.0
3024.0322,79.0
3025.242,94.0
3026.4521,74.0
3027.6628,93.0
3028.874,78.0
3030.0857,91.0
3031.2976,74.0
3032.51,89.0
3033.723,81.0
3034.9363,71.0
3036.1501,79.0
3037.3645,99.0
3038.5793,92.0
3039.7947,102.0
3041.0105,81.0
3042.2268,77.0
3043.4436,72.0
3044.661,79.0
3045.8787,88.0
3047.097,79.0
3048.3157,89.0
3049.535,76.0
3050.7546,60.0
3051.9749,94.0
3053.1956,90.0
3054.4167,105.0
3055.6384,93.0
3056.8606,86.0
3058.0833,79.0
3059.3064,90.0
3060.53,109.0
3061.7542,59.0
3062.9788,88.0
3064.2039,83.0
3065.4294,97.0
3066.6555,94.0
3067.882,75.0
3069.1091,79.0
3070.3367,74.0
3071.5647,93.0
3072.7932,82.0
3074.0222,85.0
3075.2517,87.0
3076.4817,97.0
3077.7124,81.0
3078.9436,80.0
3080.1753,99.0
3081.4075,96.0
3082.6401,99.0
3083.8733,75.0
3085.107,86.0
3086.341,65.0
3087.5757,88.0
3088.8108,79.0
3090.0464,73.0
3091.2825,87.0
3092.519,92.0
3093.756,80.0
3094.9937,67.0
3096.2317,88.0
3097.4702,99.0
3098.7092,94.0
3099.9487,79.0
3101.1887,90.0
3102.4292,72.0
3103.6702,96.0
3104.9116,82.0
3106.1536,93.0
3107.396,114.0
3108.639,77.0
3109.8823,85.0
3111.1262,83.0
3112.3706,108.0
3113.6155,101.0
3114.8608,106.0
3116.1067,93.0
3117.353,92.0
3118.5999,101.0
3119.8474,80.0
3121.0955,98.0
3122.344,110.0
3123.593,99.0
3124.8425,87.0
3126.0925,80.0
3127.343,85.0
3128.594,95.0
3129.8455,96.0
3131.0974,91.0
3132.3499,85.0
3133.6028,86.0
3134.8562,87.0
3136.11,89.0
3137.3645,93.0
3138.6194,90.0
3139.8748,78.0
3141.1306,84.0
3142.387,86.0
3143.6438,103.0
3144.9014,97.0
3146.1594,96.0
3147.418,86.0
3148.677,97.0
3149.9365,81.0
3151.1965,82.0
3152.457,89.0
3153.718,99.0
3154.9795,77.0
3156.2415,90.0
3157.504,83.0
3158.7668,80.0
3160.0303,92.0
3161.2942,85.0
3162.5586,85.0
3163.8237,83.0
3165.0894,87.0
3166.3555,92.0
3167.622,93.0
3168.8892,69.0
3170.1567,87.0
3171.4248,101.0
3172.6934,78.0
3173.9624,67.0
3175.232,65.0
3176.502,80.0
3177.7725,79.0
3179.0435,85.0
3180.3152,96.0
3181.5874,102.0
3182.86,89.0
3184.1333,89.0
3185.407,81.0
3186.6812,85.0
3187.9558,83.0
3189.231,85.0
3190.5066,74.0
3191.7827,86.0
3193.0593,94.0
3194.3367,78.0
3195.6145,96.0
3196.8928,110.0
3198.1716,85.0
3199.451,98.0
3200.7307,90.0
3202.011,76.0
3203.2917,89.0
3204.573,95.0
3205.8547,95.0
3207.137,76.0
3208.42,82.0
3209.7034,95.0
3210.9873,82.0
3212.2717,95.0
3213.5566,100.0
3214.842,74.0
3216.128,106.0
3217.4143,92.0
3218.7012,105.0
3219.9888,85.0
3221.2769,77.0
3222.5654,84.0
3223.8545,84.0
3225.144,92.0
3226.434,88.0
3227.7246,91.0
3229.0156,80.0
3230.3071,91.0
3231.5994,94.0
3232.892,82.0
3234.1853,93.0
3235.479,105.0
3236.7732,104.0
3238.0679,101.0
3239.363,92.0
3240.6587,82.0
3241.9548,73.0
3243.2517,79.0
3244.549,92.0
3245.847,84.0
3247.1453,96.0
3248.444,90.0
3249.7434,93.0
3251.0432,81.0
3252.3438,80.0
3253.6448,98.0
3254.9463,94.0
3256.2483,77.0
3257.5508,95.0
3258.8538,93.0
3260.1572,87.0
3261.4612,80.0
3262.7659,109.0
3264.071,86.0
3265.3767,88.0
3266.6829,83.0
3267.9895,89.0
3269.2966,85.0
3270.6042,104.0
3271.9126,89.0
3273.2214,95.0
3274.5308,98.0
3275.8406,82.0
3277.151,93.0
3278.4617,87.0
3279.773,94.0
3281.085,72.0
3282.3975,97.0
3283.7104,89.0
3285.024,94.0
3286.338,86.0
3287.6523,93.0
3288.9673,89.0
3290.283,104.0
3291.599,90.0
3292.9158,83.0
3294.233,97.0
3295.5505,96.0
3296.8687,105.0
3298.1875,92.0
3299.5068,90.0
3300.8267,94.0
3302.147,81.0
3303.4678,102.0
3304.789,84.0
3306.111,90.0
3307.4336,102.0
3308.7566,93.0
3310.08,91.0
3311.404,86.0
3312.7285,97.0
3314.0537,88.0
3315.3794,108.0
3316.7056,90.0
3318.0322,112.0
3319.3594,85.0
3320.687,94.0
3322.0154,96.0
3323.3442,78.0
3324.6736,118.0
3326.0034,89.0
3327.3337,77.0
3328.6648,103.0
3329.9963,98.0
3331.3284,99.0
3332.661,91.0
3333.994,93.0
3335.3274,107.0
3336.6616,105.0
3337.9963,82.0
3339.3315,88.0
3340.6672,98.0
3342.0034,84.0
3343.3403,95.0
3344.6777,101.0
3346.0156,90.0
3347.354,88.0
3348.6929,92.0
3350.0322,104.0
3351.3723,98.0
3352.713,88.0
3354.054,86.0
3355.3955,102.0
3356.7375,88.0
3358.0803,98.0
3359.4236,113.0
3360.7673,105.0
3362.1116,82.0
3363.4563,83.0
3364.8018,92.0
3366.1477,92.0
3367.4941,112.0
3368.841,120.0
3370.1887,116.0
3371.5369,116.0
3372.8855,90.0
3374.2346,104.0
3375.5842,92.0
3376.9346,88.0
3378.2854,82.0
3379.6367,101.0
3380.9885,106.0
3382.3408,90.0
3383.6938,93.0
3385.0474,91.0
3386.4014,110.0
3387.7559,102.0
3389.1108,77.0
3390.4666,101.0
3391.8228,97.0
3393.1794,93.0
3394.5366,107.0
3395.8945,89.0
3397.253,86.0
3398.6118,84.0
3399.9712,78.0
3401.3313,121.0
3402.692,99.0
3404.053,112.0
3405.4146,89.0
3406.7766,111.0
3408.1394,103.0
3409.5027,105.0
3410.8665,95.0
3412.2307,113.0
3413.5957,111.0
3414.9612,114.0
3416.3271,88.0
3417.6936,95.0
3419.0608,97.0
3420.4285,105.0
3421.7966,106.0
3423.1653,93.0
3424.5347,102.0
3425.9045,93.0
3427.275,103.0
3428.6458,114.0
3430.017,100.0
3431.3892,113.0
3432.7617,116.0
3434.1348,91.0
3435.5083,104.0
3436.8826,98.0
3438.2573,82.0
3439.6326,116.0
3441.0083,88.0
3442.3848,84.0
3443.7617,99.0
3445.1392,97.0
3446.5173,105.0
3447.896,111.0
3449.2751,98.0
3450.6548,82.0
3452.0352,104.0
3453.416,116.0
3454.7974,110.0
3456.1792,97.0
3457.5618,119.0
3458.9448,86.0
3460.3284,88.0
3461.7124,107.0
3463.0972,98.0
3464.4824,96.0
3465.8682,90.0
3467.2544,107.0
3468.6414,132.0
3470.0288,84.0
3471.4167,100.0
3472.8054,90.0
3474.1946,86.0
3475.5842,113.0
3476.9744,108.0
3478.3652,100.0
3479.7566,117.0
3481.1484,107.0
3482.541,96.0
3483.934,84.0
3485.3276,96.0
3486.7217,117.0
3488.1165,86.0
3489.5117,115.0
3490.9075,104.0
3492.304,80.0
3493.701,114.0
3495.0984,83.0
3496.4963,133.0
3497.895,124.0
3499.2942,114.0
3500.6938,112.0
3502.0942,88.0
3503.495,106.0
3504.8965,110.0
3506.2983,76.0
3507.701,116.0
3509.104,85.0
3510.5076,105.0
3511.9119,111.0
3513.3167,88.0
3514.722,101.0
3516.128,94.0
3517.5344,89.0
3518.9414,91.0
3520.3489,108.0
3521.757,118.0
3523.1658,106.0
3524.575,110.0
3525.9849,96.0
3527.3953,114.0
3528.8062,101.0
3530.2178,112.0
3531.63,159.0
3533.0425,111.0
3534.4558,120.0
3535.8696,109.0
3537.284,102.0
3538.6987,114.0
3540.1143,118.0
3541.5303,107.0
3542.9468,99.0
3544.364,97.0
3545.7817,108.0
3547.2,117.0
3548.619,127.0
3550.0383,117.0
3551.4583,101.0
3552.879,87.0
3554.3,111.0
3555.7217,114.0
3557.144,108.0
3558.567,106.0
3559.9902,108.0
3561.4143,104.0
3562.8389,107.0
3564.264,139.0
3565.6897,127.0
3567.116,111.0
3568.5427,125.0
3569.9702,101.0
3571.3982,105.0
3572.8267,123.0
3574.2559,116.0
3575.6855,114.0
3577.1157,99.0
3578.5466,101.0
3579.978,135.0
3581.41,121.0
3582.8425,122.0
3584.2756,106.0
3585.7092,168.0
3587.1436,117.0
3588.5784,136.0
3590.014,112.0
3591.45,113.0
3592.8865,120.0
3594.3237,108.0
3595.7615,132.0
3597.1997,134.0
3598.6387,161.0
3600.0781,137.0
3601.518,126.0
3602.9587,112.0
3604.4,124.0
3605.8416,137.0
3607.284,142.0
3608.7268,145.0
3610.1704,109.0
3611.6145,122.0
3613.059,119.0
3614.5044,115.0
3615.9502,146.0
3617.3965,172.0
3618.8435,145.0
3620.291,119.0
3621.739,126.0
3623.1877,112.0
3624.637,133.0
3626.087,128.0
3627.5374,144.0
3628.9883,123.0
3630.44,134.0
3631.892,112.0
3633.3447,110.0
3634.798,124.0
3636.252,123.0
3637.7065,122.0
3639.1616,111.0
3640.6172,120.0
3642.0735,109.0
3643.5303,125.0
3644.9878,131.0
3646.4458,127.0
3647.9043,139.0
3649.3635,120.0
3650.8232,125.0
3652.2837,122.0
3653.7446,141.0
3655.206,132.0
3656.6682,122.0
3658.1309,147.0
3659.594,135.0
3661.0579,99.0
3662.5222,136.0
3663.9873,117.0
3665.453,107.0
3666.919,116.0
3668.3857,137.0
3669.853,118.0
3671.321,116.0
3672.7896,129.0
3674.2585,123.0
3675.7283,132.0
3677.1985,126.0
3678.6694,167.0
3680.1409,151.0
3681.613,147.0
3683.0857,102.0
3684.5588,133.0
3686.0327,105.0
3687.507,130.0
3688.9822,119.0
3690.4578,111.0
3691.9338,138.0
3693.4106,126.0
3694.888,168.0
3696.366,138.0
3697.8445,142.0
3699.3237,148.0
3700.8035,134.0
3702.2837,134.0
3703.7646,136.0
3705.246,127.0
3706.7283,133.0
3708.211,147.0
3709.6943,166.0
3711.1782,161.0
3712.6626,178.0
3714.1477,138.0
3715.6333,127.0
3717.1196,138.0
3718.6064,145.0
3720.094,134.0
3721.582,134.0
3723.0706,128.0
3724.5598,132.0
3726.0496,135.0
3727.54,143.0
3729.031,141.0
3730.5227,132.0
3732.015,134.0
3733.5078,138.0
3735.0012,220.0
3736.495,176.0
3737.9897,126.0
3739.4849,139.0
3740.9807,147.0
3742.477,137.0
3743.974,171.0
3745.4717,135.0
3746.97,126.0
3748.4688,130.0
3749.968,246.0
3751.468,371.0
3752.9685,423.0
3754.4697,259.0
3755.9714,213.0
3757.4739,159.0
3758.9768,134.0
3760.4805,143.0
3761.9846,158.0
3763.4895,140.0
3764.9949,163.0
3766.501,133.0
3768.0076,170.0
3769.515,167.0
3771.0227,143.0
3772.531,152.0
3774.04,177.0
3775.5496,173.0
3777.0598,159.0
3778.5706,154.0
3780.082,161.0
3781.594,148.0
3783.1067,155.0
3784.6199,175.0
3786.1338,160.0
3787.6482,132.0
3789.1633,144.0
3790.679,145.0
3792.1953,151.0
3793.7122,136.0
3795.2297,143.0
3796.7478,169.0
3798.2666,140.0
3799.786,171.0
3801.306,170.0
3802.8264,156.0
3804.3477,150.0
3805.8694,159.0
3807.3918,149.0
3808.9148,146.0
3810.4385,132.0
3811.9626,148.0
3813.4875,177.0
3815.013,211.0
3816.539,177.0
3818.0657,172.0
3819.593,158.0
3821.1208,134.0
3822.6494,144.0
3824.1785,164.0
3825.7083,172.0
3827.2385,144.0
3828.7695,168.0
3830.301,186.0
3831.8333,186.0
3833.366,175.0
3834.8994,157.0
3836.4333,152.0
3837.968,168.0
3839.5032,141.0
3841.039,182.0
3842.5754,152.0
3844.1125,138.0
3845.6501,151.0
3847.1885,177.0
3848.7273,196.0
3850.2668,219.0
3851.807,168.0
3853.3477,191.0
3854.889,192.0
3856.431,157.0
3857.9734,169.0
3859.5166,171.0
3861.0603,189.0
3862.6047,167.0
3864.1497,185.0
3865.6953,184.0
3867.2417,171.0
3868.7886,178.0
3870.3362,155.0
3871.8843,146.0
3873.433,162.0
3874.9824,189.0
3876.5325,138.0
3878.083,163.0
3879.6343,181.0
3881.186,187.0
3882.7385,176.0
3884.2915,192.0
3885.8452,214.0
3887.3997,181.0
3888.9546,168.0
3890.5103,149.0
3892.0664,178.0
3893.6233,177.0
3895.1807,166.0
3896.7388,174.0
3898.2974,167.0
3899.8567,207.0
3901.4167,213.0
3902.9773,179.0
3904.5386,187.0
3906.1003,198.0
3907.6628,164.0
3909.2258,153.0
3910.7896,158.0
3912.3538,158.0
3913.9187,155.0
3915.4844,164.0
3917.0505,168.0
3918.6174,164.0
3920.1848,183.0
3921.753,188.0
3923.3215,187.0
3924.8909,163.0
3926.461,155.0
3928.0315,145.0
3929.6028,131.0
3931.1746,149.0
3932.747,144.0
3934.32,154.0
3935.8938,146.0
3937.4683,156.0
3939.0432,139.0
3940.619,153.0
3942.195,159.0
3943.772,148.0
3945.3494,130.0
3946.9275,145.0
3948.5063,146.0
3950.0857,139.0
3951.6658,153.0
3953.2463,151.0
3954.8276,131.0
3956.4097,155.0
3957.9922,127.0
3959.5754,139.0
3961.1592,161.0
3962.7437,161.0
3964.3289,124.0
3965.9146,125.0
3967.501,120.0
3969.088,134.0
3970.6755,118.0
3972.264,126.0
3973.8528,139.0
3975.4424,135.0
3977.0325,136.0
3978.6233,143.0
3980.2148,140.0
3981.807,167.0
3983.3997,146.0
3984.993,134.0
3986.587,137.0
3988.1816,111.0
3989.7769,143.0
3991.3728,147.0
3992.9692,137.0
3994.5664,139.0
3996.1643,125.0
3997.7627,128.0
3999.3618,123.0
4000.9617,136.0
4002.562,134.0
4004.163,157.0
4005.7646,153.0
4007.367,129.0
4008.97,147.0
4010.5735,134.0
4012.1777,158.0
4013.7827,153.0
4015.3882,149.0
4016.9944,161.0
4018.601,146.0
4020.2085,147.0
4021.8167,166.0
4023.4253,143.0
4025.0347,134.0
4026.6448,165.0
4028.2554,181.0
4029.8667,171.0
4031.4788,160.0
4033.0913,162.0
4034.7046,182.0
4036.3184,169.0
4037.9329,213.0
4039.548,215.0
4041.1638,187.0
4042.7803,195.0
4044.3975,178.0
4046.0151,150.0
4047.6335,191.0
4049.2527,186.0
4050.8723,249.0
4052.4927,260.0
4054.1138,225.0
4055.7354,193.0
4057.3577,178.0
4058.9807,333.0
4060.6042,406.0
4062.2285,296.0
4063.8535,211.0
4065.479,200.0
4067.1052,199.0
4068.7322,237.0
4070.3596,222.0
4071.9878,262.0
4073.6167,243.0
4075.246,211.0
4076.8762,199.0
4078.507,218.0
4080.1384,253.0
4081.7705,269.0
4083.4033,272.0
4085.0366,292.0
4086.6707,361.0
4088.3054,288.0
4089.9407,212.0
4091.5767,200.0
4093.2134,428.0
4094.8506,608.0
4096.489,400.0
4098.1274,210.0
4099.7666,180.0
4101.4067,412.0
4103.0474,1093.0
4104.6885,870.0
4106.3306,339.0
4107.973,216.0
4109.616,192.0
4111.2603,151.0
4112.905,200.0
4114.55,199.0
4116.196,221.0
4117.8423,175.0
4119.4893,156.0
4121.137,147.0
4122.7856,149.0
4124.4346,158.0
4126.0845,159.0
4127.735,123.0
4129.3857,116.0
4131.0376,143.0
4132.69,142.0
4134.343,139.0
4135.9966,122.0
4137.651,142.0
4139.306,125.0
4140.962,143.0
4142.618,132.0
4144.2754,137.0
4145.933,133.0
4147.5913,135.0
4149.2505,144.0
4150.91,139.0
4152.5703,152.0
4154.2314,136.0
4155.893,144.0
4157.5557,152.0
4159.2188,135.0
4160.8823,165.0
4162.547,141.0
4164.212,157.0
4165.8774,162.0
4167.544,150.0
4169.211,126.0
4170.8784,134.0
4172.547,151.0
4174.216,142.0
4175.8857,156.0
4177.556,133.0
4179.227,155.0
4180.899,145.0
4182.5713,136.0
4184.244,155.0
4185.918,149.0
4187.5923,142.0
4189.267,144.0
4190.943,155.0
4192.619,147.0
4194.2964,140.0
4195.974,150.0
4197.6523,183.0
4199.3315,170.0
4201.011,140.0
4202.6914,152.0
4204.3726,145.0
4206.054,159.0
4207.737,139.0
4209.42,148.0
4211.1035,120.0
4212.788,139.0
4214.473,150.0
4216.1587,153.0
4217.845,151.0
4219.532,146.0
4221.22,151.0
4222.9087,144.0
4224.5977,162.0
4226.2876,167.0
4227.978,160.0
4229.6694,132.0
4231.3613,138.0
4233.0537,173.0
4234.747,154.0
4236.441,164.0
4238.1353,159.0
4239.8306,170.0
4241.5264,148.0
4243.223,170.0
4244.9204,174.0
4246.618,137.0
4248.317,169.0
4250.016,150.0
4251.7163,144.0
4253.417,152.0
4255.118,148.0
4256.8203,165.0
4258.523,128.0
4260.2266,157.0
4261.9307,179.0
4263.6353,164.0
4265.341,176.0
4267.047,191.0
4268.754,202.0
4270.4614,181.0
4272.1694,150.0
4273.8784,155.0
4275.588,198.0
4277.2983,259.0
4279.0093,219.0
4280.7207,164.0
4282.433,177.0
4284.146,205.0
4285.86,360.0
4287.574,270.0
4289.289,202.0
4291.005,163.0
4292.721,167.0
4294.4385,177.0
4296.1562,181.0
4297.8745,156.0
4299.5938,220.0
4301.3135,180.0
4303.034,176.0
4304.7554,171.0
4306.477,158.0
4308.1997,144.0
4309.923,144.0
4311.647,170.0
4313.3716,144.0
4315.097,130.0
4316.823,154.0
4318.55,164.0
4320.2773,148.0
4322.0054,137.0
4323.7344,142.0
4325.464,145.0
4327.194,145.0
4328.925,148.0
4330.6562,172.0
4332.3887,153.0
4334.1216,148.0
4335.8555,125.0
4337.59,154.0
4339.3247,138.0
4341.0605,150.0
4342.797,152.0
4344.534,133.0
4346.272,130.0
4348.0103,144.0
4349.7495,140.0
4351.4893,171.0
4353.23,159.0
4354.971,138.0
4356.7134,178.0
4358.456,156.0
4360.199,180.0
4361.9434,141.0
4363.688,167.0
4365.4336,156.0
4367.1797,159.0
4368.927,151.0
4370.6743,151.0
4372.4224,133.0
4374.1714,152.0
4375.921,161.0
4377.6714,160.0
4379.4224,155.0
4381.1743,128.0
4382.927,126.0
4384.6797,133.0
4386.4336,167.0
4388.188,164.0
4389.9434,165.0
4391.699,161.0
4393.456,147.0
4395.2134,164.0
4396.9717,153.0
4398.7305,153.0
4400.4897,168.0
4402.25,159.0
4404.0107,161.0
4405.7725,153.0
4407.5347,167.0
4409.298,211.0
4411.0615,175.0
4412.826,179.0
4414.5913,147.0
4416.357,197.0
4418.1235,233.0
4419.8906,196.0
4421.6587,194.0
4423.4272,169.0
4425.197,159.0
4426.967,163.0
4428.738,194.0
4430.5093,162.0
4432.2812,175.0
4434.054,161.0
4435.8276,161.0
4437.602,175.0
4439.377,205.0
4441.153,188.0
4442.929,173.0
4444.7065,156.0
4446.4844,179.0
4448.263,152.0
4450.0425,222.0
4451.8223,185.0
4453.603,168.0
4455.3843,178.0
4457.1665,167.0
4458.949,186.0
4460.733,176.0
4462.517,164.0
4464.3022,188.0
4466.088,179.0
4467.8745,217.0
4469.6616,213.0
4471.4497,197.0
4473.2383,175.0
4475.0273,169.0
4476.8174,162.0
4478.608,158.0
4480.3994,173.0
4482.1914,194.0
4483.9844,195.0
4485.778,162.0
4487.5723,165.0
4489.367,178.0
4491.163,172.0
4492.9595,177.0
4494.757,159.0
4496.5547,207.0
4498.3535,171.0
4500.153,206.0
4501.953,197.0
4503.754,217.0
4505.555,202.0
4507.3574,175.0
4509.16,178.0
4510.964,168.0
4512.768,176.0
4514.573,199.0
4516.379,180.0
4518.1855,167.0
4519.9927,201.0
4521.801,211.0
4523.6094,208.0
4525.419,183.0
4527.229,158.0
4529.04,199.0
4530.8516,236.0
4532.664,223.0
4534.477,192.0
4536.291,155.0
4538.1055,156.0
4539.921,183.0
4541.737,165.0
4543.5537,152.0
4545.371,165.0
4547.1895,168.0
4549.0083,167.0
4550.828,164.0
4552.6484,146.0
4554.4697,162.0
4556.2915,163.0
4558.1143,150.0
4559.9375,135.0
4561.7617,164.0
4563.5864,164.0
4565.4116,153.0
4567.238,167.0
4569.0645,132.0
4570.892,142.0
4572.72,145.0
4574.5493,169.0
4576.379,159.0
4578.2095,152.0
4580.0405,158.0
4581.8726,154.0
4583.705,156.0
4585.5386,143.0
4587.3726,150.0
4589.2075,146.0
4591.043,155.0
4592.8794,203.0
4594.7163,155.0
4596.554,142.0
4598.3926,136.0
4600.232,168.0
4602.0723,158.0
4603.913,174.0
4605.755,154.0
4607.597,133.0
4609.4404,181.0
4611.284,160.0
4613.129,178.0
4614.974,171.0
4616.8203,133.0
4618.667,162.0
4620.5146,161.0
4622.363,167.0
4624.212,166.0
4626.0615,169.0
4627.912,169.0
4629.763,180.0
4631.615,151.0
4633.468,173.0
4635.3213,154.0
4637.1753,171.0
4639.0303,168.0
4640.8857,170.0
4642.742,162.0
4644.599,169.0
4646.457,172.0
4648.3154,151.0
4650.175,154.0
4652.0347,167.0
4653.8955,167.0
4655.757,156.0
4657.619,139.0
4659.4824,159.0
4661.346,170.0
4663.211,154.0
4665.076,152.0
4666.9424,178.0
4668.809,167.0
4670.677,187.0
4672.545,151.0
4674.414,145.0
4676.2837,133.0
4678.1543,179.0
4680.0254,164.0
4681.8975,164.0
4683.77,137.0
4685.6436,157.0
4687.5176,175.0
4689.3926,163.0
4691.2686,186.0
4693.145,178.0
4695.0225,166.0
4696.9004,179.0
4698.7793,153.0
4700.6587,169.0
4702.539,155.0
4704.42,153.0
4706.302,151.0
4708.184,181.0
4710.0674,174.0
4711.951,165.0
4713.836,167.0
4715.7217,154.0
4717.608,144.0
4719.495,147.0
4721.383,172.0
4723.2715,154.0
4725.1606,144.0
4727.051,177.0
4728.9414,158.0
4730.833,162.0
4732.725,158.0
4734.618,161.0
4736.512,180.0
4738.4067,177.0
4740.3022,148.0
4742.198,151.0
4744.095,147.0
4745.9927,168.0
4747.891,172.0
4749.79,132.0
4751.69,148.0
4753.591,168.0
4755.492,152.0
4757.3945,146.0
4759.2974,142.0
4761.201,149.0
4763.1055,166.0
4765.0107,153.0
4766.9165,163.0
4768.823,146.0
4770.731,128.0
4772.639,137.0
4774.5483,130.0
4776.458,145.0
4778.3687,139.0
4780.28,151.0
4782.192,123.0
4784.105,144.0
4786.0186,120.0
4787.933,131.0
4789.848,125.0
4791.764,127.0
4793.6807,142.0
4795.598,135.0
4797.5166,139.0
4799.4355,139.0
4801.3555,120.0
4803.276,124.0
4805.1973,130.0
4807.119,141.0
4809.042,136.0
4810.966,156.0
4812.89,142.0
4814.8154,155.0
4816.741,137.0
4818.668,122.0
4820.595,112.0
4822.5234,118.0
4824.4526,136.0
4826.3823,124.0
4828.313,150.0
4830.244,141.0
4832.1763,143.0
4834.1094,119.0
4836.043,136.0
4837.9775,121.0
4839.9126,162.0
4841.8486,139.0
4843.785,123.0
4845.7227,128.0
4847.661,135.0
4849.6,146.0
4851.54,138.0
4853.4805,135.0
4855.422,150.0
4857.3643,150.0
4859.307,115.0
4861.251,141.0
4863.1953,130.0
4865.1406,144.0
4867.087,153.0
4869.0337,130.0
4870.9814,129.0
4872.9297,133.0
4874.879,136.0
4876.829,150.0
4878.78,148.0
4880.7314,125.0
4882.6836,149.0
4884.6367,135.0
4886.5903,125.0
4888.545,132.0
4890.5005,117.0
4892.4565,159.0
4894.4136,118.0
4896.3716,122.0
4898.33,153.0
4900.2896,121.0
4902.2495,144.0
4904.2104,106.0
4906.1724,141.0
4908.135,146.0
4910.098,144.0
4912.062,122.0
4914.027,141.0
4915.9927,139.0
4917.959,155.0
4919.9263,132.0
4921.894,159.0
4923.863,137.0
4925.8325,147.0
4927.8027,141.0
4929.774,145.0
4931.7456,149.0
4933.7183,139.0
4935.692,119.0
4937.666,133.0
4939.641,137.0
4941.617,128.0
4943.5938,157.0
4945.5713,129.0
4947.5493,122.0
4949.5283,140.0
4951.5083,148.0
4953.489,130.0
4955.47,131.0
4957.4526,136.0
4959.4355,143.0
4961.4194,125.0
4963.404,132.0
4965.389,145.0
4967.3755,149.0
4969.3623,136.0
4971.35,137.0
4973.339,144.0
4975.328,149.0
4977.3184,140.0
4979.309,134.0
4981.301,168.0
4983.2935,150.0
4985.2866,136.0
4987.281,166.0
4989.276,151.0
4991.2715,151.0
4993.268,148.0
4995.265,162.0
4997.263,145.0
4999.262,137.0
5001.2617,153.0
5003.262,154.0
5005.2637,168.0
5007.2656,125.0
5009.2686,166.0
5011.2725,149.0
5013.277,145.0
5015.282,172.0
5017.2886,154.0
5019.2954,142.0
5021.303,158.0
5023.3115,158.0
5025.321,151.0
5027.331,162.0
5029.342,149.0
5031.3535,158.0
5033.366,168.0
5035.3794,141.0
5037.3936,153.0
5039.4087,146.0
5041.4243,152.0
5043.441,145.0
5045.4585,155.0
5047.4766,197.0
5049.4956,153.0
5051.5156,174.0
5053.536,141.0
5055.5576,144.0
5057.58,159.0
5059.603,159.0
5061.627,143.0
5063.6514,146.0
5065.677,166.0
5067.703,155.0
5069.73,163.0
5071.758,149.0
5073.7866,165.0
5075.816,148.0
5077.846,142.0
5079.8774,164.0
5081.909,160.0
5083.942,149.0
5085.9756,129.0
5088.01,152.0
5090.045,161.0
5092.081,164.0
5094.1177,151.0
5096.1553,158.0
5098.194,142.0
5100.233,154.0
5102.273,156.0
5104.314,130.0
5106.3555,152.0
5108.398,150.0
5110.4414,171.0
5112.4854,158.0
5114.5303,141.0
5116.576,149.0
5118.6226,143.0
5120.67,136.0
5122.7183,153.0
5124.7676,125.0
5126.8174,155.0
5128.868,173.0
5130.92,169.0
5132.972,154.0
5135.0254,136.0
5137.0796,140.0
5139.1343,153.0
5141.19,151.0
5143.2466,158.0
5145.3037,177.0
5147.362,191.0
5149.421,156.0
5151.4805,170.0
5153.541,176.0
5155.6025,135.0
5157.6646,170.0
5159.7275,165.0
5161.7915,154.0
5163.8564,151.0
5165.922,149.0
5167.9883,169.0
5170.0557,159.0
5172.1235,135.0
5174.1924,172.0
5176.262,145.0
5178.3325,150.0
5180.404,160.0
5182.476,138.0
5184.549,154.0
5186.6226,150.0
5188.6973,157.0
5190.773,156.0
5192.849,154.0
5194.9263,169.0
5197.0044,145.0
5199.083,143.0
5201.1626,172.0
5203.243,158.0
5205.324,141.0
5207.4062,158.0
5209.4893,167.0
5211.573,141.0
5213.6577,160.0
5215.743,147.0
5217.8296,159.0
5219.9165,184.0
5222.0044,186.0
5224.0933,193.0
5226.183,150.0
5228.2734,160.0
5230.3647,192.0
5232.457,171.0
5234.55,161.0
5236.6436,173.0
5238.7383,186.0
5240.834,173.0
5242.93,176.0
5245.0273,186.0
5247.1255,176.0
5249.224,169.0
5251.3237,142.0
5253.4243,180.0
5255.526,164.0
5257.628,177.0
5259.731,180.0
5261.835,169.0
5263.9395,175.0
5266.045,166.0
5268.1514,165.0
5270.259,162.0
5272.3667,147.0
5274.4756,178.0
5276.5854,183.0
5278.6963,176.0
5280.8076,153.0
5282.92,194.0
5285.033,198.0
5287.147,185.0
5289.2617,160.0
5291.3774,166.0
5293.494,162.0
5295.6113,156.0
5297.7295,173.0
5299.8486,200.0
5301.9688,213.0
5304.0894,192.0
5306.211,170.0
5308.3335,153.0
5310.457,153.0
5312.581,167.0
5314.706,179.0
5316.832,201.0
5318.959,198.0
5321.0864,197.0
5323.215,170.0
5325.344,164.0
5327.4746,178.0
5329.6055,171.0
5331.7373,175.0
5333.87,160.0
5336.004,169.0
5338.138,149.0
5340.2734,167.0
5342.4097,154.0
5344.547,180.0
5346.6846,169.0
5348.823,183.0
5350.963,177.0
5353.1035,185.0
5355.2446,153.0
5357.3867,168.0
5359.53,183.0
5361.674,194.0
5363.8184,178.0
5365.964,170.0
5368.1104,192.0
5370.258,228.0
5372.406,166.0
5374.5547,199.0
5376.7046,185.0
5378.8555,192.0
5381.007,171.0
5383.159,169.0
5385.3125,153.0
5387.467,207.0
5389.6216,176.0
5391.7773,203.0
5393.934,207.0
5396.092,198.0
5398.25,189.0
5400.409,174.0
5402.5693,192.0
5404.7305,178.0
5406.8926,213.0
5409.055,222.0
5411.2188,210.0
5413.3833,173.0
5415.549,207.0
5417.715,198.0
5419.882,189.0
5422.05,175.0
5424.2188,173.0
5426.3887,175.0
5428.559,173.0
5430.7305,201.0
5432.903,188.0
5435.076,166.0
5437.25,167.0
5439.425,193.0
5441.6006,185.0
5443.7773,199.0
5445.955,194.0
5448.1333,164.0
5450.3125,171.0
5452.4927,157.0
5454.674,170.0
5456.8555,178.0
5459.038,181.0
5461.2217,199.0
5463.4062,195.0
5465.592,170.0
5467.778,205.0
5469.965,171.0
5472.153,215.0
5474.342,194.0
5476.5317,178.0
5478.722,175.0
5480.9136,179.0
5483.106,214.0
5485.2993,228.0
5487.4937,226.0
5489.6885,223.0
5491.8843,209.0
5494.081,207.0
5496.279,194.0
5498.4775,183.0
5500.677,205.0
5502.877,179.0
5505.078,190.0
5507.2803,198.0
5509.4834,178.0
5511.687,195.0
5513.8916,165.0
5516.097,195.0
5518.3037,192.0
5520.511,210.0
5522.719,219.0
5524.928,189.0
5527.138,198.0
5529.349,181.0
5531.561,197.0
5533.7734,152.0
5535.987,183.0
5538.201,205.0
5540.4165,214.0
5542.633,176.0
5544.85,167.0
5547.068,175.0
5549.2866,178.0
5551.5063,189.0
5553.727,185.0
5555.9487,175.0
5558.171,211.0
5560.394,182.0
5562.618,191.0
5564.8433,189.0
5567.0693,201.0
5569.2964,198.0
5571.524,210.0
5573.7524,187.0
5575.982,176.0
5578.2124,159.0
5580.444,188.0
5582.676,219.0
5584.9087,204.0
5587.1426,179.0
5589.3774,167.0
5591.6133,179.0
5593.85,225.0
5596.0874,163.0
5598.3257,190.0
5600.565,200.0
5602.805,182.0
5605.0464,201.0
5607.2886,173.0
5609.5312,165.0
5611.775,188.0
5614.0195,184.0
5616.265,175.0
5618.5117,173.0
5620.7593,176.0
5623.008,150.0
5625.257,194.0
5627.507,148.0
5629.758,177.0
5632.01,171.0
5634.2627,171.0
5636.5166,189.0
5638.771,178.0
5641.0264,170.0
5643.2827,178.0
5645.54,148.0
5647.7983,179.0
5650.0576,187.0
5652.318,158.0
5654.5786,157.0
5656.8403,174.0
5659.103,196.0
5661.3667,177.0
5663.6313,185.0
5665.897,188.0
5668.1636,143.0
5670.4307,191.0
5672.6987,163.0
5674.968,175.0
5677.238,161.0
5679.509,177.0
5681.781,168.0
5684.0537,177.0
5686.327,166.0
5688.6016,179.0
5690.877,173.0
5693.1533,153.0
5695.4307,181.0
5697.709,179.0
5699.9883,199.0
5702.268,185.0
5704.549,204.0
5706.8306,180.0
5709.1133,181.0
5711.397,157.0
5713.6816,199.0
5715.9673,186.0
5718.254,175.0
5720.541,193.0
5722.829,202.0
5725.118,151.0
5727.408,175.0
5729.699,189.0
5731.991,184.0
5734.284,185.0
5736.578,189.0
5738.8726,195.0
5741.168,179.0
5743.4644,197.0
5745.7617,170.0
5748.06,210.0
5750.3594,218.0
5752.6597,178.0
5754.961,202.0
5757.2627,186.0
5759.5654,196.0
5761.869,182.0
5764.174,211.0
5766.4795,214.0
5768.786,188.0
5771.0938,190.0
5773.4023,180.0
5775.712,195.0
5778.022,199.0
5780.333,188.0
5782.645,194.0
5784.958,198.0
5787.272,206.0
5789.587,223.0
5791.903,223.0
5794.2197,204.0
5796.5376,210.0
5798.8564,226.0
5801.176,216.0
5803.496,234.0
5805.8174,231.0
5808.1396,228.0
5810.463,223.0
5812.787,233.0
5815.1123,249.0
5817.4385,218.0
5819.7656,243.0
5822.0938,265.0
5824.4224,253.0
5826.752,233.0
5829.0825,245.0
5831.414,266.0
5833.7466,251.0
5836.08,229.0
5838.4146,249.0
5840.75,307.0
5843.0864,269.0
5845.424,246.0
5847.762,258.0
5850.101,220.0
5852.441,234.0
5854.7817,213.0
5857.1235,245.0
5859.4663,245.0
5861.81,232.0
5864.155,217.0
5866.5005,204.0
5868.847,211.0
5871.195,238.0
5873.5435,241.0
5875.893,243.0
5878.2437,252.0
5880.5947,239.0
5882.947,248.0
5885.3,248.0
5887.654,238.0
5890.009,249.0
5892.3647,244.0
5894.7217,241.0
5897.0796,245.0
5899.4385,209.0
5901.7983,246.0
5904.159,262.0
5906.521,270.0
5908.884,284.0
5911.2476,269.0
5913.612,260.0
5915.977,281.0
5918.3433,270.0
5920.7104,253.0
5923.0786,281.0
5925.4478,259.0
5927.818,248.0
5930.189,248.0
5932.561,268.0
5934.934,256.0
5937.308,245.0
5939.683,276.0
5942.059,267.0
5944.436,249.0
5946.814,270.0
5949.193,260.0
5951.5728,241.0
5953.9536,255.0
5956.335,288.0
5958.7173,265.0
5961.1006,331.0
5963.485,272.0
5965.87,279.0
5968.2563,281.0
5970.6436,294.0
5973.0317,311.0
5975.421,295.0
5977.811,289.0
5980.202,274.0
5982.594,261.0
5984.9873,295.0
5987.3813,268.0
5989.7764,292.0
5992.1724,268.0
5994.5693,282.0
5996.9673,287.0
5999.366,260.0
6001.766,318.0
6004.167,324.0
6006.569,284.0
6008.9717,300.0
6011.3755,331.0
6013.7803,313.0
6016.1855,273.0
6018.592,275.0
6020.999,334.0
6023.407,272.0
6025.8164,251.0
6028.2266,244.0
6030.6377,298.0
6033.05,285.0
6035.463,284.0
6037.877,298.0
6040.292,299.0
6042.708,297.0
6045.125,274.0
6047.543,300.0
6049.962,281.0
6052.382,285.0
6054.8027,267.0
6057.2246,266.0
6059.6475,279.0
6062.0713,328.0
6064.496,308.0
6066.922,330.0
6069.3486,280.0
6071.7764,277.0
6074.205,297.0
6076.635,279.0
6079.0654,255.0
6081.497,291.0
6083.9297,311.0
6086.3633,289.0
6088.798,309.0
6091.2334,308.0
6093.67,300.0
6096.1074,306.0
6098.546,336.0
6100.9854,315.0
6103.426,335.0
6105.867,330.0
6108.3096,311.0
6110.753,282.0
6113.1973,340.0
6115.6426,328.0
6118.089,367.0
6120.536,334.0
6122.9844,307.0
6125.4336,320.0
6127.884,304.0
6130.335,360.0
6132.787,411.0
6135.24,423.0
6137.6943,386.0
6140.1494,354.0
6142.6055,327.0
6145.0625,369.0
6147.5205,400.0
6149.9795,432.0
6152.4395,413.0
6154.9004,417.0
6157.3623,405.0
6159.825,444.0
6162.289,390.0
6164.754,340.0
6167.2197,388.0
6169.6865,331.0
6172.1543,405.0
6174.623,554.0
6177.093,602.0
6179.5635,424.0
6182.035,352.0
6184.508,386.0
6186.9814,407.0
6189.456,473.0
6191.9316,601.0
6194.408,606.0
6196.8857,456.0
6199.3643,502.0
6201.844,484.0
6204.325,411.0
6206.807,387.0
6209.29,316.0
6211.774,319.0
6214.259,437.0
6216.7446,550.0
6219.2314,488.0
6221.719,399.0
6224.208,326.0
6226.6978,307.0
6229.1885,404.0
6231.68,516.0
6234.173,682.0
6236.6665,534.0
6239.161,425.0
6241.6567,337.0
6244.1533,340.0
6246.651,401.0
6249.1494,458.0
6251.649,405.0
6254.1494,395.0
6256.651,469.0
6259.1533,391.0
6261.6567,371.0
6264.1616,382.0
6266.6675,315.0
6269.1743,294.0
6271.682,443.0
6274.191,652.0
6276.7007,532.0
6279.2114,362.0
6281.723,298.0
6284.236,275.0
6286.7495,352.0
6289.264,634.0
6291.78,861.0
6294.2964,620.0
6296.814,415.0
6299.3325,342.0
6301.852,334.0
6304.3726,302.0
6306.8945,284.0
6309.4175,292.0
6311.9414,327.0
6314.4663,323.0
6316.992,321.0
6319.519,302.0
6322.047,282.0
6324.5757,296.0
6327.1055,273.0
6329.636,291.0
6332.168,289.0
6334.7007,278.0
6337.2344,295.0
6339.769,314.0
6342.305,285.0
6344.8423,307.0
6347.3804,292.0
6349.9194,268.0
6352.4595,308.0
6355.0005,309.0
6357.5425,288.0
6360.0854,331.0
6362.6294,326.0
6365.1743,315.0
6367.72,329.0
6370.267,330.0
6372.8154,297.0
6375.3647,302.0
6377.915,350.0
6380.4663,307.0
6383.0186,327.0
6385.572,305.0
6388.126,344.0
6390.681,301.0
6393.2373,293.0
6395.7944,295.0
6398.3525,279.0
6400.912,280.0
6403.4727,340.0
6406.034,324.0
6408.5967,320.0
6411.16,341.0
6413.7246,305.0
6416.29,288.0
6418.8564,286.0
6421.424,321.0
6423.992,305.0
6426.562,285.0
6429.133,325.0
6431.7046,330.0
6434.2773,310.0
6436.851,345.0
6439.426,301.0
6442.0015,287.0
6444.578,332.0
6447.156,353.0
6449.735,311.0
6452.315,322.0
6454.896,259.0
6457.478,306.0
6460.061,301.0
6462.645,280.0
6465.23,309.0
6467.816,302.0
6470.403,320.0
6472.991,321.0
6475.5806,304.0
6478.171,317.0
6480.762,319.0
6483.3545,333.0
6485.9478,323.0
6488.542,304.0
6491.137,319.0
6493.734,326.0
6496.3315,350.0
6498.93,301.0
6501.53,317.0
6504.1304,328.0
6506.732,332.0
6509.3345,319.0
6511.938,344.0
6514.543,358.0
6517.149,373.0
6519.756,338.0
6522.364,361.0
6524.9727,370.0
6527.5825,331.0
6530.1934,381.0
6532.8057,319.0
6535.419,328.0
6538.033,376.0
6540.6484,365.0
6543.2646,375.0
6545.882,371.0
6548.5,361.0
6551.1196,394.0
6553.74,413.0
6556.362,389.0
6558.9844,439.0
6561.608,356.0
6564.2324,363.0
6566.858,350.0
6569.485,371.0
6572.113,392.0
6574.7417,373.0
6577.3716,372.0
6580.0024,349.0
6582.6343,401.0
6585.267,358.0
6587.9014,375.0
6590.5366,378.0
6593.173,438.0
6595.81,434.0
6598.448,408.0
6601.0874,351.0
6603.728,384.0
6606.3696,397.0
6609.012,403.0
6611.656,406.0
6614.3003,392.0
6616.946,371.0
6619.593,407.0
6622.2407,403.0
6624.8896,357.0
6627.5396,352.0
6630.1904,374.0
6632.8423,382.0
6635.4956,340.0
6638.15,450.0
6640.805,405.0
6643.4614,386.0
6646.1187,376.0
6648.7773,351.0
6651.437,318.0
6654.0977,378.0
6656.7593,410.0
6659.422,354.0
6662.0854,411.0
6664.7505,422.0
6667.4165,327.0
6670.0835,304.0
6672.7515,307.0
6675.4204,297.0
6678.091,385.0
6680.762,328.0
6683.4346,319.0
6686.108,298.0
6688.782,322.0
6691.4575,334.0
6694.1343,387.0
6696.812,384.0
6699.4907,352.0
6702.1704,320.0
6704.851,307.0
6707.533,323.0
6710.2163,318.0
6712.9004,369.0
6715.5854,379.0
6718.2715,340.0
6720.959,339.0
6723.6475,406.0
6726.337,349.0
6729.0273,336.0
6731.7188,325.0
6734.4116,316.0
6737.1055,339.0
6739.8003,424.0
6742.496,383.0
6745.193,395.0
6747.891,312.0
6750.5903,327.0
6753.2905,305.0
6755.9917,383.0
6758.6943,434.0
6761.398,421.0
6764.1025,414.0
6766.808,388.0
6769.5146,360.0
6772.2227,333.0
6774.9316,362.0
6777.6416,402.0
6780.3525,438.0
6783.0645,463.0
6785.778,434.0
6788.492,397.0
6791.2075,410.0
6793.924,378.0
6796.6416,322.0
6799.3604,387.0
6802.08,357.0
6804.801,407.0
6807.5225,478.0
6810.2456,491.0
6812.9697,391.0
6815.695,313.0
6818.421,314.0
6821.1484,481.0
6823.877,672.0
6826.6064,633.0
6829.337,412.0
6832.069,342.0
6834.802,299.0
6837.5356,336.0
6840.2705,413.0
6843.007,477.0
6845.744,456.0
6848.4824,369.0
6851.2217,312.0
6853.9624,316.0
6856.704,381.0
6859.447,385.0
6862.1904,366.0
6864.9355,308.0
6867.6816,329.0
6870.4287,296.0
6873.177,327.0
6875.9263,283.0
6878.677,327.0
6881.428,335.0
6884.1807,302.0
6886.9346,311.0
6889.6895,288.0
6892.4453,318.0
6895.202,304.0
6897.9604,301.0
6900.7197,316.0
6903.48,324.0
6906.241,340.0
6909.004,322.0
6911.7676,367.0
6914.532,341.0
6917.298,356.0
6920.065,392.0
6922.833,347.0
6925.602,310.0
6928.372,300.0
6931.1436,353.0
6933.916,313.0
6936.6895,343.0
6939.4644,329.0
6942.24,312.0
6945.017,325.0
6947.795,372.0
6950.574,384.0
6953.3545,323.0
6956.1357,345.0
6958.918,366.0
6961.7017,321.0
6964.4863,352.0
6967.272,350.0
6970.059,341.0
6972.847,315.0
6975.636,400.0
6978.4263,381.0
6981.218,412.0
6984.0103,442.0
6986.8037,371.0
6989.5986,376.0
6992.3945,398.0
6995.1914,442.0
6997.9893,385.0
7000.7886,436.0
7003.589,408.0
7006.39,383.0
7009.193,425.0
7011.9966,371.0
7014.8013,424.0
7017.6074,459.0
7020.4146,417.0
7023.2227,435.0
7026.0317,514.0
7028.8423,435.0
7031.654,394.0
7034.4663,366.0
7037.2803,338.0
7040.095,428.0
7042.911,625.0
7045.7285,478.0
7048.547,385.0
7051.366,364.0
7054.1865,373.0
7057.0083,500.0
7059.831,845.0
7062.655,715.0
7065.48,465.0
7068.306,383.0
7071.1333,402.0
7073.962,384.0
7076.7915,311.0
7079.622,396.0
7082.454,384.0
7085.287,393.0
7088.121,376.0
7090.9565,354.0
7093.793,412.0
7096.6304,425.0
7099.469,428.0
7102.309,382.0
7105.15,396.0
7107.992,421.0
7110.8354,468.0
7113.6797,525.0
7116.5254,451.0
7119.372,417.0
7122.2197,473.0
7125.069,507.0
7127.919,484.0
7130.77,471.0
7133.6226,410.0
7136.476,482.0
7139.3306,546.0
7142.1865,584.0
7145.0435,488.0
7147.9014,451.0
7150.7607,451.0
7153.621,489.0
7156.4824,634.0
7159.345,693.0
7162.209,540.0
7165.0737,534.0
7167.94,516.0
7170.807,549.0
7173.6753,594.0
7176.545,494.0
7179.4155,533.0
7182.287,538.0
7185.16,491.0
7188.034,527.0
7190.909,584.0
7193.7856,541.0
7196.663,649.0
7199.542,644.0
7202.422,530.0
7205.3027,413.0
7208.185,367.0
7211.0684,442.0
7213.9526,814.0
7216.8384,808.0
7219.725,576.0
7222.613,395.0
7225.502,370.0
7228.392,478.0
7231.283,1121.0
7234.176,1191.0
7237.0693,703.0
7239.9644,432.0
7242.8604,382.0
7245.7573,373.0
7248.656,365.0
7251.555,375.0
7254.4556,367.0
7257.3574,378.0
7260.2603,334.0
7263.1646,310.0
7266.07,352.0
7268.976,392.0
7271.884,364.0
7274.7925,317.0
7277.7026,369.0
7280.614,351.0
7283.526,344.0
7286.4395,384.0
7289.354,329.0
7292.2695,337.0
7295.1865,383.0
7298.1045,400.0
7301.024,351.0
7303.9443,347.0
7306.8657,314.0
7309.7886,344.0
7312.7124,496.0
7315.6377,432.0
7318.564,358.0
7321.491,308.0
7324.42,312.0
7327.3496,412.0
7330.281,507.0
7333.213,487.0
7336.146,391.0
7339.0806,332.0
7342.016,320.0
7344.953,327.0
7347.891,405.0
7350.83,388.0
7353.7705,331.0
7356.712,345.0
7359.655,341.0
7362.5986,331.0
7365.5435,323.0
7368.4897,292.0
7371.437,305.0
7374.3857,354.0
7377.3354,368.0
7380.2866,349.0
7383.239,377.0
7386.192,383.0
7389.1465,340.0
7392.102,331.0
7395.059,286.0
7398.017,367.0
7400.976,392.0
7403.9365,374.0
7406.898,353.0
7409.861,311.0
7412.8247,264.0
7415.79,358.0
7418.7563,391.0
7421.7236,369.0
7424.6924,342.0
7427.662,315.0
7430.6333,300.0
7433.6055,393.0
7436.579,380.0
7439.5537,348.0
7442.5293,373.0
7445.5063,324.0
7448.4844,271.0
7451.464,357.0
7454.4443,310.0
7457.4263,270.0
7460.409,273.0
7463.3936,263.0
7466.379,314.0
7469.365,374.0
7472.353,316.0
7475.342,258.0
7478.332,259.0
7481.323,275.0
7484.316,428.0
7487.3096,484.0
7490.3047,356.0
7493.301,281.0
7496.2983,225.0
7499.297,276.0
7502.2964,307.0
7505.2974,285.0
7508.2993,241.0
7511.3027,246.0
7514.307,266.0
7517.313,235.0
7520.32,285.0
7523.328,254.0
7526.3374,245.0
7529.348,257.0
7532.36,248.0
7535.373,263.0
7538.387,249.0
7541.4023,233.0
7544.419,267.0
7547.4365,285.0
7550.4556,238.0
7553.4756,248.0
7556.497,231.0
7559.5195,221.0
7562.5435,325.0
7565.5684,283.0
7568.5947,273.0
7571.622,227.0
7574.651,283.0
7577.6807,243.0
7580.712,261.0
7583.744,276.0
7586.778,263.0
7589.8125,249.0
7592.8486,197.0
7595.8857,254.0
7598.9243,262.0
7601.964,254.0
7605.005,232.0
7608.047,218.0
7611.0903,231.0
7614.135,283.0
7617.18,321.0
7620.227,280.0
7623.275,262.0
7626.324,233.0
7629.3745,225.0
7632.4263,255.0
7635.479,248.0
7638.533,231.0
7641.5884,248.0
7644.645,223.0
7647.7026,258.0
7650.7617,232.0
7653.8223,241.0
7656.884,230.0
7659.947,242.0
7663.0107,245.0
7666.076,251.0
7669.1426,243.0
7672.2104,236.0
7675.2793,269.0
7678.3496,250.0
7681.421,261.0
7684.4937,260.0
7687.5674,266.0
7690.6426,268.0
7693.7188,272.0
7696.7964,266.0
7699.875,254.0
7702.955,275.0
7706.036,256.0
7709.1187,323.0
7712.202,273.0
7715.287,271.0
7718.373,245.0
7721.4604,313.0
7724.549,316.0
7727.6387,335.0
7730.7295,341.0
7733.822,298.0
7736.9155,283.0
7740.0103,314.0
7743.1064,341.0
7746.2036,388.0
7749.3022,330.0
7752.402,359.0
7755.503,354.0
7758.605,299.0
7761.7085,302.0
7764.813,288.0
7767.919,339.0
7771.026,414.0
7774.1343,397.0
7777.244,300.0
7780.355,293.0
7783.4673,317.0
7786.5806,464.0
7789.6953,534.0
7792.811,406.0
7795.928,338.0
7799.0464,303.0
7802.166,313.0
7805.287,401.0
7808.409,388.0
7811.5327,370.0
7814.657,371.0
7817.783,372.0
7820.91,352.0
7824.0386,379.0
7827.168,394.0
7830.299,447.0
7833.431,427.0
7836.5645,359.0
7839.699,369.0
7842.835,373.0
7845.972,468.0
7849.1104,438.0
7852.25,409.0
7855.391,399.0
7858.533,377.0
7861.677,359.0
7864.8213,362.0
7867.9673,381.0
7871.1143,396.0
7874.2627,386.0
7877.4126,397.0
7880.5635,403.0
7883.716,491.0
7886.869,506.0
7890.024,406.0
7893.18,372.0
7896.3374,425.0
7899.496,487.0
7902.656,535.0
7905.817,496.0
7908.979,484.0
7912.1426,426.0
7915.3076,511.0
7918.4736,660.0
7921.641,598.0
7924.8096,539.0
7927.9795,475.0
7931.151,484.0
7934.323,469.0
7937.497,606.0
7940.672,575.0
7943.848,569.0
7947.026,515.0
7950.2046,599.0
7953.385,649.0
7956.566,670.0
7959.7485,630.0
7962.9326,637.0
7966.1177,681.0
7969.304,678.0
7972.4917,723.0
7975.6807,694.0
7978.871,725.0
7982.0625,823.0
7985.2554,859.0
7988.4497,936.0
7991.645,849.0
7994.842,886.0
7998.0396,830.0
8001.239,928.0
8004.4395,1057.0
8007.641,1079.0
8010.844,1134.0
8014.0483,1127.0
8017.254,1153.0
8020.461,1130.0
8023.669,1182.0
8026.8784,1171.0
8030.0894,1136.0
8033.3013,1242.0
8036.5146,1418.0
8039.7295,1666.0
8042.9453,1593.0
8046.1626,1239.0
8049.381,1340.0
8052.6006,1666.0
8055.822,2104.0
8059.044,2111.0
8062.2676,1679.0
8065.4927,1767.0
8068.7188,1980.0
8071.9463,2141.0
8075.1753,2404.0
8078.4053,2336.0
8081.6367,2389.0
8084.869,2954.0
8088.103,2612.0
8091.3384,2000.0
8094.5747,1696.0
8097.8125,2429.0
8101.052,4026.0
8104.292,3600.0
8107.5337,2673.0
8110.777,2128.0
8114.021,2239.0
8117.2666,5062.0
8120.5137,6395.0
8123.7617,4392.0
8127.011,3488.0
8130.262,2787.0
8133.514,2730.0
8136.7676,2960.0
8140.0225,3447.0
8143.2783,4429.0
8146.5356,3942.0
8149.7944,3056.0
8153.054,3549.0
8156.3154,3404.0
8159.578,3625.0
8162.842,4482.0
8166.107,4092.0
8169.3735,6316.0
8172.641,5996.0
8175.91,3534.0
8179.1807,1989.0
8182.452,2364.0
8185.725,8636.0
8188.9995,11564.0
8192.275,5533.0
8195.553,2343.0
8198.831,1916.0
8202.11,8347.0
8205.392,20557.0
8208.674,12640.0
8211.957,4495.0
8215.242,1949.0
8218.528,1472.0
8221.815,1283.0
8225.1045,1781.0
8228.395,2119.0
8231.686,1568.0
8234.979,966.0
8238.272,702.0
8241.567,758.0
8244.864,952.0
8248.162,955.0
8251.461,833.0
8254.762,645.0
8258.063,630.0
8261.367,718.0
8264.672,749.0
8267.978,724.0
8271.285,768.0
8274.594,629.0
8277.903,564.0
8281.215,551.0
8284.527,560.0
8287.841,716.0
8291.156,636.0
8294.473,618.0
8297.79,585.0
8301.109,576.0
8304.43,611.0
8307.751,729.0
8311.074,660.0
8314.398,685.0
8317.725,613.0
8321.052,606.0
8324.38,528.0
8327.71,663.0
8331.041,763.0
8334.373,689.0
8337.707,576.0
8341.042,545.0
8344.378,554.0
8347.716,780.0
8351.055,827.0
8354.3955,703.0
8357.737,629.0
8361.08,622.0
8364.425,491.0
8367.7705,463.0
8371.117,512.0
8374.466,618.0
8377.815,698.0
8381.167,509.0
8384.52,366.0
8387.873,434.0
8391.229,611.0
8394.585,729.0
8397.942,591.0
8401.302,441.0
8404.662,407.0
8408.024,513.0
8411.388,462.0
8414.752,453.0
8418.118,411.0
8421.485,409.0
8424.854,369.0
8428.224,388.0
8431.595,447.0
8434.968,438.0
8438.342,406.0
8441.717,383.0
8445.094,385.0
8448.472,446.0
8451.851,471.0
8455.231,415.0
8458.613,419.0
8461.997,439.0
8465.382,511.0
8468.768,527.0
8472.155,494.0
8475.544,522.0
8478.935,504.0
8482.326,495.0
8485.719,571.0
8489.113,633.0
8492.509,674.0
8495.906,598.0
8499.305,575.0
8502.704,630.0
8506.105,769.0
8509.508,914.0
8512.911,773.0
8516.316,831.0
8519.723,909.0
8523.131,779.0
8526.54,869.0
8529.95,888.0
8533.362,1113.0
8536.775,1516.0
8540.19,1124.0
8543.606,657.0
8547.023,566.0
8550.442,1462.0
8553.862,2165.0
8557.284,1299.0
8560.707,740.0
8564.131,672.0
8567.557,1726.0
8570.983,3223.0
8574.412,2157.0
8577.842,1042.0
8581.272,667.0
8584.705,498.0
8588.139,448.0
8591.574,586.0
8595.011,814.0
8598.449,744.0
8601.889,469.0
8605.329,391.0
8608.771,429.0
8612.215,360.0
8615.66,365.0
8619.106,385.0
8622.554,363.0
8626.003,368.0
8629.453,337.0
8632.905,333.0
8636.358,364.0
8639.8125,404.0
8643.269,363.0
8646.726,318.0
8650.185,334.0
8653.645,365.0
8657.106,389.0
8660.569,366.0
8664.033,349.0
8667.499,402.0
8670.966,461.0
8674.435,429.0
8677.904,391.0
8681.375,438.0
8684.848,457.0
8688.321,414.0
8691.797,398.0
8695.273,467.0
8698.752,527.0
8702.231,474.0
8705.712,461.0
8709.194,443.0
8712.678,564.0
8716.163,795.0
8719.649,742.0
8723.138,546.0
8726.627,510.0
8730.117,607.0
8733.609,678.0
8737.103,569.0
8740.598,620.0
8744.094,563.0
8747.592,602.0
8751.091,626.0
8754.591,730.0
8758.093,687.0
8761.596,614.0
8765.101,653.0
8768.606,730.0
8772.114,857.0
8775.623,820.0
8779.133,814.0
8782.645,786.0
8786.157,753.0
8789.672,804.0
8793.1875,767.0
8796.705,1031.0
8800.224,1165.0
8803.744,857.0
8807.266,710.0
8810.788,781.0
8814.3125,1349.0
8817.838,1590.0
8821.365,1052.0
8824.894,835.0
8828.424,897.0
8831.955,1584.0
8835.488,1759.0
8839.022,1251.0
8842.558,1074.0
8846.095,860.0
8849.633,841.0
8853.173,798.0
8856.714,1122.0
8860.257,1405.0
8863.801,1013.0
8867.347,809.0
8870.894,815.0
8874.442,1237.0
8877.992,1748.0
8881.543,1299.0
8885.096,1064.0
8888.649,925.0
8892.205,886.0
8895.762,913.0
8899.32,1115.0
8902.88,1195.0
8906.441,962.0
8910.004,805.0
8913.568,932.0
8917.134,1255.0
8920.7,1256.0
8924.269,1010.0
8927.838,891.0
8931.409,1014.0
8934.981,1435.0
8938.556,1405.0
8942.131,1037.0
8945.708,1008.0
8949.286,858.0
8952.866,719.0
8956.447,818.0
8960.03,1091.0
8963.614,1085.0
8967.199,807.0
8970.786,664.0
8974.374,796.0
8977.964,954.0
8981.555,857.0
8985.147,749.0
8988.741,733.0
8992.337,792.0
8995.934,967.0
8999.532,863.0
9003.132,655.0
9006.733,773.0
9010.336,859.0
9013.94,752.0
9017.546,707.0
9021.153,697.0
9024.762,906.0
9028.372,1001.0
9031.983,718.0
9035.597,539.0
9039.211,653.0
9042.826,951.0
9046.443,832.0
9050.062,642.0
9053.682,532.0
9057.303,728.0
9060.926,1285.0
9064.55,988.0
9068.176,650.0
9071.803,510.0
9075.432,604.0
9079.062,739.0
9082.693,580.0
9086.326,464.0
9089.961,501.0
9093.597,473.0
9097.234,505.0
9100.873,475.0
9104.514,462.0
9108.155,421.0
9111.799,359.0
9115.443,396.0
9119.09,466.0
9122.737,484.0
9126.387,436.0
9130.037,337.0
9133.689,422.0
9137.343,457.0
9140.998,488.0
9144.654,461.0
9148.3125,442.0
9151.972,382.0
9155.633,386.0
9159.295,400.0
9162.959,532.0
9166.624,483.0
9170.291,393.0
9173.959,337.0
9177.629,406.0
9181.3,578.0
9184.973,589.0
9188.646,443.0
9192.322,320.0
9195.999,457.0
9199.678,600.0
9203.357,462.0
9207.039,443.0
9210.722,387.0
9214.406,306.0
9218.092,270.0
9221.779,365.0
9225.468,439.0
9229.158,356.0
9232.85,282.0
9236.543,255.0
9240.237,379.0
9243.934,463.0
9247.631,370.0
9251.33,302.0
9255.03,251.0
9258.732,176.0
9262.436,239.0
9266.141,253.0
9269.847,244.0
9273.555,195.0
9277.264,183.0
9280.975,182.0
9284.687,223.0
9288.4,231.0
9292.116,188.0
9295.833,192.0
9299.552,193.0
9303.271,190.0
9306.993,201.0
9310.716,167.0
9314.44,183.0
9318.166,163.0
9321.894,167.0
9325.622,192.0
9329.353,179.0
9333.084,165.0
9336.817,171.0
9340.552,164.0
9344.288,198.0
9348.025,157.0
9351.765,165.0
9355.505,169.0
9359.247,161.0
9362.991,162.0
9366.736,148.0
9370.483,158.0
9374.231,172.0
9377.981,154.0
9381.732,181.0
9385.485,176.0
9389.239,127.0
9392.995,166.0
9396.752,172.0
9400.511,147.0
9404.2705,147.0
9408.032,144.0
9411.796,131.0
9415.561,145.0
9419.327,149.0
9423.095,138.0
9426.864,149.0
9430.635,142.0
9434.407,171.0
9438.181,146.0
9441.956,164.0
9445.732,186.0
9449.511,160.0
9453.291,141.0
9457.072,146.0
9460.855,169.0
9464.64,174.0
9468.426,142.0
9472.213,156.0
9476.002,118.0
9479.792,134.0
9483.584,129.0
9487.377,137.0
9491.172,162.0
9494.969,146.0
9498.767,130.0
9502.566,130.0
9506.367,181.0
9510.17,146.0
9513.974,138.0
9517.779,114.0
9521.586,107.0
9525.395,134.0
9529.205,130.0
9533.017,135.0
9536.83,128.0
9540.645,111.0
9544.461,124.0
9548.278,162.0
9552.098,170.0
9555.919,141.0
9559.741,108.0
9563.565,120.0
9567.391,119.0
9571.218,133.0
9575.046,114.0
9578.876,114.0
9582.708,98.0
9586.541,87.0
9590.376,93.0
9594.212,113.0
9598.05,102.0
9601.889,109.0
9605.7295,121.0
9609.572,118.0
9613.416,104.0
9617.262,93.0
9621.108,89.0
9624.957,106.0
9628.807,89.0
9632.658,124.0
9636.512,105.0
9640.366,101.0
9644.223,110.0
9648.08,87.0
9651.939,120.0
9655.8,97.0
9659.662,100.0
9663.526,98.0
9667.392,102.0
9671.259,79.0
9675.127,84.0
9678.997,127.0
9682.869,122.0
9686.742,93.0
9690.617,105.0
9694.493,91.0
9698.371,99.0
9702.25,89.0
9706.131,94.0
9710.014,82.0
9713.897,95.0
9717.783,78.0
9721.67,96.0
9725.559,78.0
9729.449,79.0
9733.341,120.0
9737.234,82.0
9741.129,91.0
9745.025,97.0
9748.924,82.0
9752.823,78.0
9756.725,90.0
9760.627,88.0
9764.531,72.0
9768.4375,93.0
9772.345,96.0
9776.254,104.0
9780.164,94.0
9784.076,111.0
9787.99,104.0
9791.905,106.0
9795.822,96.0
9799.74,93.0
9803.66,105.0
9807.582,93.0
9811.505,94.0
9815.43,94.0
9819.355,103.0
9823.283,79.0
9827.213,112.0
9831.144,110.0
9835.076,90.0
9839.01,104.0
9842.945,106.0
9846.883,112.0
9850.821,123.0
9854.762,90.0
9858.704,100.0
9862.647,109.0
9866.593,105.0
9870.539,123.0
9874.487,98.0
9878.4375,104.0
9882.389,79.0
9886.342,123.0
9890.296,114.0
9894.252,99.0
9898.21,109.0
9902.169,90.0
9906.13,91.0
9910.093,93.0
9914.057,95.0
9918.022,88.0
9921.989,106.0
9925.958,99.0
9929.929,103.0
9933.9,95.0
9937.874,82.0
9941.85,101.0
9945.826,92.0
9949.805,103.0
9953.784,103.0
9957.766,93.0
9961.749,100.0
9965.733,86.0
9969.72,103.0
9973.708,99.0
9977.697,92.0
9981.688,95.0
9985.681,96.0
9989.675,82.0
9993.671,97.0
9997.668,102.0
10001.667,88.0
10005.668,96.0
10009.67,100.0
10013.674,95.0
10017.68,96.0
10021.687,96.0
10025.695,100.0
10029.706,109.0
10033.718,104.0
10037.731,101.0
10041.746,95.0
10045.763,100.0
10049.781,119.0
10053.801,107.0
10057.822,112.0
10061.846,113.0
10065.87,94.0
10069.896,90.0
10073.925,89.0
10077.954,105.0
10081.985,98.0
10086.019,98.0
10090.053,112.0
10094.089,117.0
10098.127,99.0
10102.166,108.0
10106.207,110.0
10110.25,120.0
10114.294,132.0
10118.34,142.0
10122.387,119.0
10126.436,143.0
10130.486,106.0
10134.538,81.0
10138.592,118.0
10142.647,139.0
10146.704,126.0
10150.763,111.0
10154.823,104.0
10158.885,208.0
10162.948,249.0
10167.014,155.0
10171.08,127.0
10175.148,127.0
10179.219,120.0
10183.29,102.0
10187.363,112.0
10191.438,117.0
10195.515,106.0
10199.593,123.0
10203.673,135.0
10207.754,82.0
10211.837,122.0
10215.922,105.0
10220.008,126.0
10224.096,125.0
10228.186,110.0
10232.276,107.0
10236.369,117.0
10240.464,112.0
10244.56,98.0
10248.657,119.0
10252.757,116.0
10256.858,109.0
10260.961,120.0
10265.065,106.0
10269.172,117.0
10273.279,122.0
10277.389,113.0
10281.5,108.0
10285.612,122.0
10289.727,103.0
10293.843,131.0
10297.96,108.0
10302.079,113.0
10306.2,143.0
10310.322,94.0
10314.446,127.0
10318.572,131.0
10322.699,124.0
10326.828,117.0
10330.959,112.0
10335.092,130.0
10339.226,101.0
10343.361,132.0
10347.499,111.0
10351.638,104.0
10355.778,120.0
10359.921,108.0
10364.064,90.0
10368.21,116.0
10372.357,129.0
10376.507,115.0
10380.657,96.0
10384.81,105.0
10388.964,126.0
10393.119,122.0
10397.276,105.0
10401.436,112.0
10405.596,116.0
10409.758,120.0
10413.922,116.0
10418.088,114.0
10422.255,107.0
10426.424,109.0
10430.595,119.0
10434.767,106.0
10438.94,114.0
10443.116,108.0
10447.294,126.0
10451.473,117.0
10455.653,107.0
10459.836,115.0
10464.02,111.0
10468.205,121.0
10472.393,110.0
10476.581,109.0
10480.771,137.0
10484.964,126.0
10489.158,119.0
10493.354,125.0
10497.551,113.0
10501.75,111.0
10505.951,122.0
10510.153,104.0
10514.357,113.0
10518.563,126.0
10522.7705,99.0
10526.9795,124.0
10531.19,98.0
10535.403,99.0
10539.617,104.0
10543.833,110.0
10548.051,98.0
10552.27,98.0
10556.49,92.0
10560.713,115.0
10564.9375,125.0
10569.163,112.0
10573.391,130.0
10577.62,122.0
10581.852,116.0
10586.084,110.0
10590.318,120.0
10594.555,123.0
10598.793,104.0
10603.032,102.0
10607.273,114.0
10611.517,101.0
10615.761,91.0
10620.007,104.0
10624.255,92.0
10628.505,105.0
10632.756,104.0
10637.009,104.0
10641.264,115.0
10645.5205,118.0
10649.778,105.0
10654.038,138.0
10658.3,105.0
10662.563,110.0
10666.828,109.0
10671.095,107.0
10675.363,127.0
10679.634,103.0
10683.905,104.0
10688.179,115.0
10692.454,118.0
10696.731,117.0
10701.01,129.0
10705.29,115.0
10709.572,116.0
10713.856,114.0
10718.142,122.0
10722.429,114.0
10726.718,116.0
10731.009,119.0
10735.301,127.0
10739.595,120.0
10743.891,137.0
10748.188,126.0
10752.487,124.0
10756.788,124.0
10761.091,118.0
10765.3955,103.0
10769.702,100.0
10774.01,135.0
10778.319,110.0
10782.631,123.0
10786.944,120.0
10791.259,109.0
10795.575,109.0
10799.894,106.0
10804.214,93.0
10808.535,97.0
10812.858,124.0
10817.184,105.0
10821.511,113.0
10825.839,126.0
10830.169,115.0
10834.501,124.0
10838.835,123.0
10843.171,119.0
10847.508,117.0
10851.847,105.0
10856.1875,117.0
10860.53,99.0
10864.874,137.0
10869.22,139.0
10873.567,109.0
10877.917,144.0
10882.269,115.0
10886.621,122.0
10890.976,136.0
10895.332,117.0
10899.69,120.0
10904.051,120.0
10908.412,110.0
10912.775,131.0
10917.141,126.0
10921.508,124.0
10925.876,128.0
10930.246,125.0
10934.618,124.0
10938.992,135.0
10943.368,130.0
10947.745,131.0
10952.124,140.0
10956.505,112.0
10960.888,135.0
10965.272,138.0
10969.658,131.0
10974.046,142.0
10978.436,148.0
10982.827,121.0
10987.221,162.0
10991.615,127.0
10996.012,141.0
11000.41,137.0
11004.811,124.0
11009.213,124.0
11013.616,123.0
11018.021,132.0
11022.429,137.0
11026.838,156.0
11031.249,134.0
11035.661,121.0
11040.075,129.0
11044.491,154.0
11048.909,165.0
11053.329,137.0
11057.75,129.0
11062.173,145.0
11066.598,145.0
11071.024,143.0
11075.453,120.0
11079.884,114.0
11084.315,145.0
11088.749,138.0
11093.185,116.0
11097.622,125.0
11102.062,117.0
11106.502,138.0
11110.944,99.0
11115.389,134.0
11119.835,151.0
11124.283,133.0
11128.733,145.0
11133.185,154.0
11137.638,146.0
11142.093,157.0
11146.55,132.0
11151.009,132.0
11155.469,124.0
11159.931,135.0
11164.395,138.0
11168.86,118.0
11173.328,149.0
11177.798,145.0
11182.269,144.0
11186.741,135.0
11191.216,156.0
11195.692,141.0
11200.171,139.0
11204.651,144.0
11209.133,123.0
11213.616,155.0
11218.102,145.0
11222.589,144.0
11227.078,123.0
11231.569,168.0
11236.062,169.0
11240.556,144.0
11245.052,139.0
11249.55,161.0
11254.05,142.0
11258.552,138.0
11263.056,154.0
11267.561,150.0
11272.067,122.0
11276.576,149.0
11281.087,154.0
11285.6,143.0
11290.114,165.0
11294.63,171.0
11299.147,176.0
11303.667,147.0
11308.188,170.0
11312.712,172.0
11317.237,183.0
11321.765,169.0
11326.293,171.0
11330.823,207.0
11335.355,197.0
11339.89,206.0
11344.426,212.0
11348.964,200.0
11353.504,202.0
11358.045,194.0
11362.588,215.0
11367.133,227.0
11371.68,215.0
11376.229,227.0
11380.779,239.0
11385.332,218.0
11389.886,237.0
11394.441,239.0
11398.999,256.0
11403.559,260.0
11408.12,270.0
11412.684,283.0
11417.249,302.0
11421.816,255.0
11426.385,290.0
11430.955,286.0
11435.527,289.0
11440.102,295.0
11444.678,325.0
11449.256,316.0
11453.836,288.0
11458.417,359.0
11463.0,369.0
11467.585,340.0
11472.172,390.0
11476.761,388.0
11481.352,347.0
11485.944,384.0
11490.539,368.0
11495.136,397.0
11499.733,421.0
11504.333,413.0
11508.935,416.0
11513.538,459.0
11518.144,451.0
11522.751,392.0
11527.36,493.0
11531.972,455.0
11536.584,415.0
11541.198,425.0
11545.814,510.0
11550.433,444.0
11555.053,453.0
11559.675,521.0
11564.299,501.0
11568.925,452.0
11573.553,466.0
11578.183,515.0
11582.813,498.0
11587.446,449.0
11592.081,521.0
11596.718,540.0
11601.356,486.0
11605.997,491.0
11610.64,594.0
11615.284,522.0
11619.931,496.0
11624.579,530.0
11629.229,571.0
11633.88,484.0
11638.533,500.0
11643.188,630.0
11647.846,481.0
11652.505,397.0
11657.166,553.0
11661.829,620.0
11666.494,414.0
11671.161,363.0
11675.83,740.0
11680.5,756.0
11685.172,487.0
11689.846,384.0
11694.521,389.0
11699.199,347.0
11703.879,320.0
11708.561,284.0
11713.244,243.0
11717.93,221.0
11722.617,228.0
11727.307,201.0
11731.998,213.0
11736.69,225.0
11741.385,197.0
11746.081,171.0
11750.779,178.0
11755.4795,191.0
11760.182,191.0
11764.886,175.0
11769.592,205.0
11774.3,178.0
11779.01,180.0
11783.722,194.0
11788.436,176.0
11793.151,181.0
11797.868,167.0
11802.587,208.0
11807.308,202.0
11812.03,159.0
11816.755,165.0
11821.481,180.0
11826.21,166.0
11830.94,143.0
11835.673,173.0
11840.407,164.0
11845.144,157.0
11849.882,163.0
11854.622,168.0
11859.364,144.0
11864.108,137.0
11868.8545,170.0
11873.602,138.0
11878.351,151.0
11883.102,136.0
11887.8545,133.0
11892.609,128.0
11897.366,131.0
11902.125,124.0
11906.886,142.0
11911.648,104.0
11916.413,123.0
11921.18,139.0
11925.948,112.0
11930.719,102.0
11935.491,132.0
11940.266,129.0
11945.042,115.0
11949.82,125.0
11954.601,138.0
11959.383,116.0
11964.167,120.0
11968.953,116.0
11973.74,122.0
11978.529,120.0
11983.32,125.0
11988.113,109.0
11992.908,124.0
