M/Z,Intensity
800.0,71.0
800.32,127.0
800.64014,38.0
800.9604,91.0
801.28076,346.0
801.60126,73.0
801.9219,57.0
802.2426,197.0
802.56354,76.0
802.8846,108.0
803.20575,142.0
803.52704,58.0
803.84845,56.0
804.17,124.0
804.49164,72.0
804.8134,35.0
805.1353,122.0
805.4574,92.0
805.7796,34.0
806.1019,101.0
806.4244,121.0
806.74695,38.0
807.06964,99.0
807.39246,118.0
807.7154,38.0
808.03845,92.0
808.3617,137.0
808.68506,40.0
809.00854,75.0
809.33215,157.0
809.6559,44.0
809.97974,77.0
810.3037,134.0
810.6278,48.0
810.9521,86.0
811.2765,113.0
811.601,31.0
811.92566,60.0
812.2504,128.0
812.5753,44.0
812.9003,65.0
813.22546,141.0
813.5508,45.0
813.8762,37.0
814.2018,121.0
814.52747,65.0
814.8533,50.0
815.1792,137.0
815.50525,84.0
815.8314,35.0
816.1578,113.0
816.48425,90.0
816.81085,87.0
817.1376,110.0
817.4644,97.0
817.7914,49.0
818.11847,101.0
818.44574,66.0
818.77313,47.0
819.10065,96.0
819.4283,84.0
819.75604,37.0
820.0839,99.0
820.412,101.0
820.7402,36.0
821.0685,71.0
821.3969,111.0
821.72546,40.0
822.05414,64.0
822.38293,106.0
822.7119,48.0
823.041,122.0
823.37024,115.0
823.6996,45.0
824.02905,89.0
824.35864,110.0
824.6884,100.0
825.0183,923.0
825.3483,151.0
825.67847,55.0
826.0087,460.0
826.3391,130.0
826.6696,44.0
827.0003,165.0
827.3311,132.0
827.66205,37.0
827.9931,99.0
828.3243,121.0
828.65564,41.0
828.9871,52.0
829.3187,135.0
829.65045,41.0
829.9823,58.0
830.3143,122.0
830.6464,35.0
830.9787,72.0
831.3111,114.0
831.6436,39.0
831.97626,68.0
832.309,113.0
832.64197,38.0
832.97504,76.0
833.3082,93.0
833.64154,38.0
833.975,56.0
834.3086,95.0
834.64233,38.0
834.9762,81.0
835.3102,108.0
835.6443,39.0
835.9785,60.0
836.3129,126.0
836.64746,53.0
836.9821,81.0
837.3169,128.0
837.6518,50.0
837.9869,68.0
838.3221,91.0
838.6574,47.0
838.99286,161.0
839.3284,112.0
839.6642,37.0
840.00006,125.0
840.33606,141.0
840.6722,53.0
841.0084,245.0
841.34485,110.0
841.6814,45.0
842.01807,131.0
842.35486,136.0
842.6918,39.0
843.0289,117.0
843.3661,108.0
843.7034,42.0
844.0409,73.0
844.37854,118.0
844.7163,48.0
845.0542,163.0
845.3922,251.0
845.73035,64.0
846.06866,135.0
846.4071,178.0
846.74567,58.0
847.08435,114.0
847.42316,112.0
847.76215,56.0
848.10126,108.0
848.4405,84.0
848.77985,40.0
849.1194,89.0
849.45905,75.0
849.7988,30.0
850.13873,76.0
850.47876,77.0
850.819,36.0
851.1593,81.0
851.49976,68.0
851.84033,42.0
852.1811,89.0
852.522,61.0
852.863,47.0
853.2041,86.0
853.5454,69.0
853.88684,58.0
854.2284,100.0
854.57007,57.0
854.9119,172.0
855.2539,124.0
855.596,46.0
855.93823,98.0
856.2806,117.0
856.6231,63.0
856.96576,105.0
857.30853,91.0
857.6514,44.0
857.9945,87.0
858.3377,142.0
858.681,43.0
859.0245,96.0
859.3681,115.0
859.71185,41.0
860.0557,76.0
860.3997,102.0
860.7439,194.0
861.0882,338.0
861.4326,158.0
861.77716,146.0
862.1219,181.0
862.46674,102.0
862.8117,86.0
863.15686,123.0
863.50214,76.0
863.84753,73.0
864.19305,113.0
864.53876,69.0
864.8846,77.0
865.2305,96.0
865.5766,68.0
865.92285,56.0
866.2692,117.0
866.6157,50.0
866.96234,88.0
867.30914,105.0
867.65607,46.0
868.0031,75.0
868.35034,111.0
868.6977,39.0
869.04517,59.0
869.39276,88.0
869.74054,37.0
870.08844,94.0
870.43646,84.0
870.7846,40.0
871.13293,68.0
871.4814,62.0
871.82996,49.0
872.1787,83.0
872.5276,61.0
872.8766,68.0
873.2257,126.0
873.575,47.0
873.92444,50.0
874.274,112.0
874.6237,49.0
874.9736,50.0
875.32355,122.0
875.6737,34.0
876.024,67.0
876.3744,114.0
876.7249,106.0
877.0756,147.0
877.42645,131.0
877.7774,79.0
878.12854,98.0
878.4798,80.0
878.8312,69.0
879.18274,105.0
879.5344,71.0
879.8862,44.0
880.23816,112.0
880.5903,51.0
880.9425,49.0
881.29486,107.0
881.6474,42.0
882.00006,60.0
882.35284,120.0
882.7058,42.0
883.0589,81.0
883.4121,106.0
883.7655,46.0
884.119,71.0
884.47266,86.0
884.8264,37.0
885.18036,94.0
885.5344,66.0
885.8886,56.0
886.243,102.0
886.5975,41.0
886.9521,55.0
887.3069,106.0
887.6618,45.0
888.01685,56.0
888.3721,107.0
888.7274,39.0
889.0829,90.0
889.43854,173.0
889.7943,42.0
890.1502,82.0
890.5063,129.0
890.8625,43.0
891.2188,120.0
891.5753,77.0
891.93195,49.0
892.2887,117.0
892.6456,40.0
893.0027,62.0
893.35986,93.0
893.7172,35.0
894.0747,65.0
894.4323,98.0
894.7901,48.0
895.148,110.0
895.50604,76.0
895.86426,37.0
896.2226,103.0
896.58105,43.0
896.9397,44.0
897.29846,91.0
897.6574,44.0
898.0165,44.0
898.3757,101.0
898.73505,44.0
899.09454,78.0
899.45416,88.0
899.81396,38.0
900.1739,87.0
900.53394,67.0
900.89417,45.0
901.2545,106.0
901.615,39.0
901.97565,66.0
902.3364,91.0
902.6974,37.0
903.0585,62.0
903.4197,122.0
903.78107,69.0
904.1426,99.0
904.5042,88.0
904.866,58.0
905.22797,105.0
905.5901,59.0
905.95233,44.0
906.3147,122.0
906.67725,37.0
907.0399,60.0
907.4027,91.0
907.7657,31.0
908.1288,75.0
908.49207,105.0
908.85547,40.0
909.219,100.0
909.5827,44.0
909.94653,48.0
910.3105,99.0
910.6746,46.0
911.0389,57.0
911.4033,88.0
911.7679,33.0
912.13257,79.0
912.49744,90.0
912.8624,35.0
913.2276,90.0
913.5929,58.0
913.9583,46.0
914.3239,99.0
914.68964,56.0
915.05554,66.0
915.4216,85.0
915.7877,36.0
916.15405,86.0
916.5205,85.0
916.88715,42.0
917.2539,105.0
917.6208,54.0
917.98785,53.0
918.35504,123.0
918.7224,31.0
919.0899,66.0
919.4575,83.0
919.8253,36.0
920.19324,91.0
920.56134,39.0
920.92957,45.0
921.2979,137.0
921.66644,33.0
922.0351,68.0
922.40393,107.0
922.7729,33.0
923.14197,84.0
923.5112,86.0
923.8806,42.0
924.2502,89.0
924.6199,35.0
924.98975,44.0
925.35974,117.0
925.72986,38.0
926.10016,77.0
926.4706,65.0
926.8412,31.0
927.2119,92.0
927.5828,44.0
927.95386,45.0
928.325,85.0
928.69635,33.0
929.0678,79.0
929.43945,94.0
929.8112,46.0
930.18317,95.0
930.55524,69.0
930.9274,36.0
931.2998,88.0
931.6723,30.0
932.045,50.0
932.4178,76.0
932.7908,43.0
933.1639,106.0
933.5372,113.0
933.9106,48.0
934.2841,128.0
934.65784,49.0
935.0317,47.0
935.4057,97.0
935.77985,29.0
936.1542,73.0
936.5286,61.0
936.90326,43.0
937.278,117.0
937.65295,55.0
938.028,53.0
938.4032,79.0
938.77856,36.0
939.15405,89.0
939.5297,65.0
939.9055,44.0
940.2815,101.0
940.6576,35.0
941.0339,71.0
941.4103,90.0
941.78687,31.0
942.1636,85.0
942.54047,54.0
942.9175,46.0
943.2947,96.0
943.672,39.0
944.04944,55.0
944.42706,83.0
944.8048,33.0
945.18274,101.0
945.5608,53.0
945.939,45.0
946.3174,89.0
946.6959,31.0
947.0746,61.0
947.4534,79.0
947.8324,31.0
948.21155,86.0
948.5908,44.0
948.9703,46.0
949.34985,89.0
949.7296,49.0
950.1095,76.0
950.48956,65.0
950.86975,44.0
951.2501,77.0
951.6306,55.0
952.0113,57.0
952.3921,94.0
952.7731,36.0
953.1542,88.0
953.53546,60.0
953.9169,46.0
954.29846,102.0
954.6802,42.0
955.0621,70.0
955.4441,118.0
955.8263,48.0
956.2086,93.0
956.5911,42.0
956.97375,49.0
957.35657,89.0
957.7395,29.0
958.1226,67.0
958.50586,74.0
958.8893,45.0
959.2728,104.0
959.65656,41.0
960.0404,54.0
960.42444,79.0
960.8086,29.0
961.19293,79.0
961.5774,54.0
961.96204,41.0
962.3468,83.0
962.73175,35.0
963.1168,67.0
963.5021,90.0
963.88745,44.0
964.273,102.0
964.6587,37.0
965.04456,73.0
965.4306,98.0
965.8168,39.0
966.2031,71.0
966.5896,49.0
966.97626,43.0
967.36304,93.0
967.75,42.0
968.1371,70.0
968.52435,88.0
968.91174,41.0
969.2993,110.0
969.687,41.0
970.0749,87.0
970.4629,103.0
970.8511,49.0
971.23944,89.0
971.6279,63.0
972.0166,53.0
972.4054,91.0
972.7944,35.0
973.1835,78.0
973.57275,65.0
973.96216,47.0
974.35175,97.0
974.7415,35.0
975.1314,69.0
975.5215,74.0
975.9117,37.0
976.30206,88.0
976.69257,33.0
977.08325,54.0
977.47406,127.0
977.86505,35.0
978.2562,104.0
978.6475,60.0
979.039,51.0
979.4306,108.0
979.8224,50.0
980.2143,93.0
980.6064,54.0
980.99866,67.0
981.39105,97.0
981.7836,42.0
982.17633,91.0
982.5692,74.0
982.9622,62.0
983.3554,102.0
983.7488,36.0
984.1423,73.0
984.53595,60.0
984.92975,63.0
985.3237,90.0
985.71783,41.0
986.1121,77.0
986.5066,76.0
986.9012,49.0
987.29596,97.0
987.69086,45.0
988.08594,71.0
988.4812,97.0
988.8766,51.0
989.27216,77.0
989.66785,42.0
990.0637,73.0
990.4597,84.0
990.8559,34.0
991.25226,88.0
991.64874,50.0
992.0454,67.0
992.4422,83.0
992.8392,46.0
993.2363,89.0
993.6336,75.0
994.03107,72.0
994.42865,76.0
994.8264,50.0
995.22437,109.0
995.62244,62.0
996.0207,49.0
996.4191,80.0
996.8177,37.0
997.21643,99.0
997.6153,51.0
998.01434,55.0
998.4136,77.0
998.8129,39.0
999.21246,77.0
999.6121,33.0
1000.01196,50.0
1000.412,91.0
1000.81213,37.0
1001.21246,87.0
1001.613,49.0
1002.0136,65.0
1002.4144,85.0
1002.81537,32.0
1003.2165,73.0
1003.6178,48.0
1004.0192,43.0
1004.42084,107.0
1004.82263,39.0
1005.22455,89.0
1005.62665,53.0
1006.0289,77.0
1006.4313,95.0
1006.83386,48.0
1007.2366,112.0
1007.63947,55.0
1008.04254,69.0
1008.44574,104.0
1008.8491,49.0
1009.2527,80.0
1009.6564,57.0
1010.06024,59.0
1010.4643,67.0
1010.86847,44.0
1011.2728,85.0
1011.6773,40.0
1012.082,66.0
1012.4868,81.0
1012.8918,45.0
1013.29694,92.0
1013.7023,58.0
1014.1077,85.0
1014.51337,86.0
1014.9192,60.0
1015.32513,98.0
1015.73126,41.0
1016.1376,67.0
1016.544,65.0
1016.9506,49.0
1017.3574,94.0
1017.76434,48.0
1018.17145,83.0
1018.57874,61.0
1018.98615,57.0
1019.39374,91.0
1019.8015,36.0
1020.2094,70.0
1020.6175,68.0
1021.02576,57.0
1021.43414,133.0
1021.8427,42.0
1022.25146,107.0
1022.66034,66.0
1023.0694,55.0
1023.47864,108.0
1023.888,60.0
1024.2976,92.0
1024.7073,41.0
1025.1172,72.0
1025.5272,77.0
1025.9374,50.0
1026.3478,100.0
1026.7583,35.0
1027.169,65.0
1027.5798,75.0
1027.9908,84.0
1028.4021,87.0
1028.8135,56.0
1029.225,88.0
1029.6367,67.0
1030.0486,127.0
1030.4606,86.0
1030.8728,64.0
1031.2852,107.0
1031.6976,53.0
1032.1104,66.0
1032.5232,67.0
1032.9362,38.0
1033.3494,99.0
1033.7627,49.0
1034.1761,84.0
1034.5898,59.0
1035.0037,58.0
1035.4177,71.0
1035.8319,46.0
1036.2462,89.0
1036.6608,65.0
1037.0754,57.0
1037.4902,90.0
1037.9053,44.0
1038.3204,113.0
1038.7357,42.0
1039.1512,61.0
1039.5669,72.0
1039.9827,42.0
1040.3987,93.0
1040.8148,48.0
1041.2312,74.0
1041.6477,41.0
1042.0643,44.0
1042.4812,88.0
1042.8982,35.0
1043.3153,89.0
1043.7327,53.0
1044.1501,78.0
1044.5677,69.0
1044.9856,65.0
1045.4036,80.0
1045.8218,61.0
1046.2401,105.0
1046.6586,67.0
1047.0773,74.0
1047.4961,93.0
1047.915,47.0
1048.3342,115.0
1048.7535,37.0
1049.1731,88.0
1049.5928,77.0
1050.0126,126.0
1050.4326,85.0
1050.8528,92.0
1051.2731,81.0
1051.6936,55.0
1052.1143,82.0
1052.5352,82.0
1052.9562,61.0
1053.3773,101.0
1053.7987,56.0
1054.2202,79.0
1054.6418,70.0
1055.0637,69.0
1055.4857,89.0
1055.908,75.0
1056.3303,110.0
1056.7528,46.0
1057.1755,80.0
1057.5984,90.0
1058.0215,65.0
1058.4447,93.0
1058.868,41.0
1059.2916,101.0
1059.7153,61.0
1060.1392,76.0
1060.5632,91.0
1060.9874,56.0
1061.4119,98.0
1061.8364,48.0
1062.2611,72.0
1062.686,41.0
1063.1111,70.0
1063.5364,59.0
1063.9618,57.0
1064.3873,94.0
1064.8131,48.0
1065.239,107.0
1065.6652,89.0
1066.0914,130.0
1066.5178,83.0
1066.9445,103.0
1067.3712,101.0
1067.7982,55.0
1068.2253,89.0
1068.6526,57.0
1069.0801,61.0
1069.5077,88.0
1069.9355,54.0
1070.3635,90.0
1070.7916,47.0
1071.22,85.0
1071.6484,80.0
1072.0771,101.0
1072.506,86.0
1072.9349,72.0
1073.3641,120.0
1073.7935,75.0
1074.223,116.0
1074.6527,75.0
1075.0825,61.0
1075.5126,75.0
1075.9427,45.0
1076.3732,100.0
1076.8037,36.0
1077.2344,81.0
1077.6653,59.0
1078.0963,75.0
1078.5276,73.0
1078.959,52.0
1079.3906,100.0
1079.8224,37.0
1080.2543,88.0
1080.6864,54.0
1081.1187,60.0
1081.5511,63.0
1081.9838,59.0
1082.4165,77.0
1082.8495,41.0
1083.2826,76.0
1083.716,42.0
1084.1494,58.0
1084.5831,64.0
1085.017,44.0
1085.4509,79.0
1085.8851,52.0
1086.3195,97.0
1086.754,43.0
1087.1887,81.0
1087.6235,64.0
1088.0586,68.0
1088.4938,84.0
1088.9292,58.0
1089.3647,86.0
1089.8005,52.0
1090.2365,147.0
1090.6725,83.0
1091.1088,69.0
1091.5452,134.0
1091.9818,53.0
1092.4186,109.0
1092.8556,50.0
1093.2927,95.0
1093.7301,43.0
1094.1676,80.0
1094.6052,78.0
1095.0431,56.0
1095.4811,84.0
1095.9193,48.0
1096.3577,76.0
1096.7963,42.0
1097.235,81.0
1097.6738,66.0
1098.1129,50.0
1098.5521,91.0
1098.9916,34.0
1099.4312,84.0
1099.871,54.0
1100.3109,96.0
1100.751,46.0
1101.1913,89.0
1101.6317,60.0
1102.0724,47.0
1102.5132,81.0
1102.9542,48.0
1103.3954,91.0
1103.8368,60.0
1104.2783,69.0
1104.72,48.0
1105.1619,63.0
1105.6039,58.0
1106.0461,54.0
1106.4885,106.0
1106.9312,44.0
1107.3739,92.0
1107.8169,49.0
1108.26,81.0
1108.7034,53.0
1109.1469,57.0
1109.5905,70.0
1110.0343,61.0
1110.4783,80.0
1110.9225,43.0
1111.3668,78.0
1111.8114,36.0
1112.2561,76.0
1112.701,65.0
1113.1461,45.0
1113.5914,71.0
1114.0369,54.0
1114.4824,57.0
1114.9282,52.0
1115.3741,84.0
1115.8203,56.0
1116.2666,77.0
1116.7131,45.0
1117.1598,81.0
1117.6067,68.0
1118.0537,53.0
1118.501,72.0
1118.9484,43.0
1119.396,82.0
1119.8438,39.0
1120.2917,70.0
1120.7399,55.0
1121.1881,65.0
1121.6366,74.0
1122.0852,48.0
1122.534,88.0
1122.983,59.0
1123.4323,105.0
1123.8816,47.0
1124.3312,59.0
1124.7809,50.0
1125.2308,58.0
1125.6809,58.0
1126.1312,62.0
1126.5817,63.0
1127.0323,47.0
1127.4832,83.0
1127.9342,50.0
1128.3854,94.0
1128.8367,36.0
1129.2882,99.0
1129.7399,44.0
1130.1918,70.0
1130.6438,58.0
1131.0961,61.0
1131.5485,100.0
1132.0011,42.0
1132.4539,90.0
1132.9069,52.0
1133.36,88.0
1133.8134,49.0
1134.2668,99.0
1134.7206,37.0
1135.1744,63.0
1135.6285,56.0
1136.0828,52.0
1136.5372,70.0
1136.9918,55.0
1137.4467,94.0
1137.9016,48.0
1138.3568,78.0
1138.8121,43.0
1139.2677,73.0
1139.7234,46.0
1140.1793,74.0
1140.6354,51.0
1141.0917,44.0
1141.5481,91.0
1142.0048,46.0
1142.4615,76.0
1142.9186,28.0
1143.3757,72.0
1143.8331,54.0
1144.2906,89.0
1144.7484,44.0
1145.2063,95.0
1145.6644,62.0
1146.1227,56.0
1146.5812,92.0
1147.0398,59.0
1147.4987,68.0
1147.9576,52.0
1148.4169,108.0
1148.8762,58.0
1149.3358,117.0
1149.7955,58.0
1150.2555,98.0
1150.7156,61.0
1151.1759,65.0
1151.6364,76.0
1152.097,71.0
1152.5579,78.0
1153.0189,52.0
1153.4801,82.0
1153.9415,42.0
1154.4031,92.0
1154.8649,31.0
1155.3268,95.0
1155.789,50.0
1156.2512,80.0
1156.7137,50.0
1157.1764,71.0
1157.6393,84.0
1158.1023,62.0
1158.5656,93.0
1159.0289,65.0
1159.4926,94.0
1159.9563,45.0
1160.4203,68.0
1160.8844,37.0
1161.3488,85.0
1161.8134,37.0
1162.2781,70.0
1162.743,38.0
1163.2081,66.0
1163.6735,60.0
1164.1389,63.0
1164.6046,87.0
1165.0704,48.0
1165.5365,92.0
1166.0027,40.0
1166.4691,92.0
1166.9357,43.0
1167.4025,104.0
1167.8694,40.0
1168.3365,91.0
1168.8038,42.0
1169.2714,79.0
1169.739,67.0
1170.2069,70.0
1170.675,64.0
1171.1433,56.0
1171.6118,66.0
1172.0804,51.0
1172.5493,75.0
1173.0183,35.0
1173.4875,106.0
1173.9569,54.0
1174.4265,109.0
1174.8962,37.0
1175.3662,114.0
1175.8363,42.0
1176.3066,80.0
1176.7772,54.0
1177.2479,77.0
1177.7189,48.0
1178.19,55.0
1178.6613,77.0
1179.1327,52.0
1179.6044,48.0
1180.0762,53.0
1180.5482,72.0
1181.0204,43.0
1181.4928,80.0
1181.9655,46.0
1182.4382,82.0
1182.9113,53.0
1183.3844,84.0
1183.8578,40.0
1184.3313,103.0
1184.805,43.0
1185.2789,69.0
1185.753,73.0
1186.2273,81.0
1186.7018,57.0
1187.1765,66.0
1187.6514,71.0
1188.1265,66.0
1188.6017,63.0
1189.0771,56.0
1189.5527,90.0
1190.0286,41.0
1190.5045,88.0
1190.9807,45.0
1191.4572,83.0
1191.9337,50.0
1192.4105,108.0
1192.8875,56.0
1193.3646,83.0
1193.8419,40.0
1194.3195,73.0
1194.7972,37.0
1195.2751,80.0
1195.7533,62.0
1196.2316,66.0
1196.7101,62.0
1197.1887,70.0
1197.6676,72.0
1198.1467,60.0
1198.626,51.0
1199.1055,70.0
1199.5851,86.0
1200.065,50.0
1200.5449,80.0
1201.0251,54.0
1201.5056,68.0
1201.9862,43.0
1202.467,83.0
1202.948,49.0
1203.4292,62.0
1203.9105,43.0
1204.3921,94.0
1204.8739,46.0
1205.3558,79.0
1205.838,45.0
1206.3203,73.0
1206.8029,42.0
1207.2855,75.0
1207.7684,46.0
1208.2516,71.0
1208.7349,63.0
1209.2184,70.0
1209.702,67.0
1210.1859,68.0
1210.67,54.0
1211.1543,57.0
1211.6388,80.0
1212.1234,53.0
1212.6083,82.0
1213.0933,49.0
1213.5785,85.0
1214.064,42.0
1214.5496,68.0
1215.0354,60.0
1215.5214,82.0
1216.0076,44.0
1216.494,78.0
1216.9806,50.0
1217.4674,81.0
1217.9543,46.0
1218.4415,72.0
1218.929,62.0
1219.4165,66.0
1219.9043,47.0
1220.3922,70.0
1220.8804,38.0
1221.3688,100.0
1221.8573,50.0
1222.3461,86.0
1222.835,36.0
1223.3241,85.0
1223.8135,48.0
1224.303,87.0
1224.7927,48.0
1225.2826,75.0
1225.7727,52.0
1226.2631,57.0
1226.7535,53.0
1227.2443,68.0
1227.7351,60.0
1228.2262,67.0
1228.7175,55.0
1229.209,81.0
1229.7007,70.0
1230.1925,67.0
1230.6846,73.0
1231.1769,66.0
1231.6693,82.0
1232.162,50.0
1232.6549,92.0
1233.148,54.0
1233.6412,67.0
1234.1346,62.0
1234.6283,63.0
1235.1222,57.0
1235.6162,62.0
1236.1105,51.0
1236.6049,72.0
1237.0995,50.0
1237.5944,70.0
1238.0894,44.0
1238.5846,62.0
1239.0801,50.0
1239.5757,53.0
1240.0715,52.0
1240.5675,79.0
1241.0637,66.0
1241.5602,75.0
1242.0568,45.0
1242.5536,81.0
1243.0507,53.0
1243.5479,91.0
1244.0453,55.0
1244.5428,72.0
1245.0406,46.0
1245.5387,74.0
1246.0369,53.0
1246.5353,88.0
1247.0339,53.0
1247.5327,109.0
1248.0317,54.0
1248.531,79.0
1249.0304,62.0
1249.53,75.0
1250.0298,53.0
1250.5298,86.0
1251.03,53.0
1251.5304,74.0
1252.031,52.0
1252.5319,75.0
1253.0328,64.0
1253.534,64.0
1254.0355,51.0
1254.5371,76.0
1255.039,59.0
1255.541,65.0
1256.0432,65.0
1256.5457,81.0
1257.0482,69.0
1257.551,64.0
1258.0541,48.0
1258.5573,79.0
1259.0607,56.0
1259.5643,88.0
1260.0681,42.0
1260.5721,91.0
1261.0764,68.0
1261.5808,87.0
1262.0854,59.0
1262.5903,83.0
1263.0953,75.0
1263.6006,78.0
1264.1061,58.0
1264.6117,79.0
1265.1176,57.0
1265.6237,84.0
1266.1299,61.0
1266.6364,61.0
1267.1431,55.0
1267.6499,75.0
1268.157,60.0
1268.6642,60.0
1269.1716,63.0
1269.6793,60.0
1270.1871,53.0
1270.6952,78.0
1271.2035,56.0
1271.7119,63.0
1272.2206,55.0
1272.7295,64.0
1273.2385,58.0
1273.7478,67.0
1274.2573,85.0
1274.767,72.0
1275.2769,67.0
1275.787,58.0
1276.2972,53.0
1276.8077,88.0
1277.3185,99.0
1277.8295,81.0
1278.3406,90.0
1278.8519,73.0
1279.3635,86.0
1279.8752,48.0
1280.3872,81.0
1280.8994,50.0
1281.4117,56.0
1281.9243,54.0
1282.4371,64.0
1282.9501,58.0
1283.4633,74.0
1283.9767,56.0
1284.4902,91.0
1285.004,54.0
1285.5181,81.0
1286.0322,50.0
1286.5466,87.0
1287.0613,50.0
1287.576,89.0
1288.0911,53.0
1288.6063,85.0
1289.1218,61.0
1289.6375,81.0
1290.1533,61.0
1290.6694,80.0
1291.1857,58.0
1291.7021,67.0
1292.2189,79.0
1292.7357,91.0
1293.2528,69.0
1293.7701,64.0
1294.2876,62.0
1294.8053,49.0
1295.3232,78.0
1295.8414,52.0
1296.3597,62.0
1296.8783,42.0
1297.3971,70.0
1297.916,50.0
1298.4352,86.0
1298.9546,42.0
1299.4741,69.0
1299.9939,48.0
1300.5139,67.0
1301.0342,43.0
1301.5546,87.0
1302.0752,64.0
1302.5961,95.0
1303.1171,67.0
1303.6383,78.0
1304.1598,80.0
1304.6814,98.0
1305.2032,71.0
1305.7253,68.0
1306.2477,69.0
1306.7701,66.0
1307.2928,69.0
1307.8158,57.0
1308.3389,78.0
1308.8622,52.0
1309.3857,81.0
1309.9095,37.0
1310.4335,71.0
1310.9576,45.0
1311.482,94.0
1312.0066,43.0
1312.5314,94.0
1313.0564,38.0
1313.5817,69.0
1314.107,50.0
1314.6327,83.0
1315.1586,58.0
1315.6847,78.0
1316.2109,47.0
1316.7374,62.0
1317.2642,78.0
1317.791,56.0
1318.3181,77.0
1318.8455,55.0
1319.373,58.0
1319.9008,39.0
1320.4287,77.0
1320.9569,43.0
1321.4854,72.0
1322.0139,37.0
1322.5427,78.0
1323.0718,59.0
1323.601,79.0
1324.1304,49.0
1324.66,73.0
1325.19,47.0
1325.72,61.0
1326.2502,70.0
1326.7808,58.0
1327.3115,64.0
1327.8424,56.0
1328.3735,79.0
1328.9049,46.0
1329.4365,79.0
1329.9683,33.0
1330.5002,72.0
1331.0325,41.0
1331.565,85.0
1332.0975,61.0
1332.6304,78.0
1333.1635,45.0
1333.6968,72.0
1334.2302,68.0
1334.7639,72.0
1335.2979,66.0
1335.832,47.0
1336.3663,67.0
1336.9009,51.0
1337.4357,79.0
1337.9707,45.0
1338.5059,92.0
1339.0413,46.0
1339.5769,85.0
1340.1128,52.0
1340.6488,60.0
1341.185,56.0
1341.7216,68.0
1342.2583,64.0
1342.7952,54.0
1343.3323,77.0
1343.8696,42.0
1344.4072,83.0
1344.945,42.0
1345.4829,75.0
1346.0211,47.0
1346.5596,82.0
1347.0981,66.0
1347.637,76.0
1348.176,50.0
1348.7153,83.0
1349.2548,87.0
1349.7944,53.0
1350.3344,68.0
1350.8745,42.0
1351.4149,55.0
1351.9554,37.0
1352.4962,68.0
1353.0372,49.0
1353.5785,75.0
1354.1199,44.0
1354.6615,66.0
1355.2034,60.0
1355.7455,59.0
1356.2878,67.0
1356.8303,46.0
1357.373,73.0
1357.916,40.0
1358.4592,78.0
1359.0026,46.0
1359.5461,72.0
1360.09,67.0
1360.634,75.0
1361.1783,64.0
1361.7228,74.0
1362.2675,76.0
1362.8124,62.0
1363.3575,85.0
1363.9028,41.0
1364.4484,92.0
1364.9941,49.0
1365.5402,62.0
1366.0864,57.0
1366.6328,73.0
1367.1794,61.0
1367.7263,70.0
1368.2734,63.0
1368.8208,61.0
1369.3683,73.0
1369.916,49.0
1370.464,69.0
1371.0122,51.0
1371.5607,70.0
1372.1093,44.0
1372.6581,74.0
1373.2072,54.0
1373.7565,71.0
1374.306,67.0
1374.8557,51.0
1375.4056,89.0
1375.9558,50.0
1376.5062,67.0
1377.0569,51.0
1377.6077,80.0
1378.1587,66.0
1378.71,91.0
1379.2615,76.0
1379.8132,67.0
1380.3651,69.0
1380.9172,38.0
1381.4696,82.0
1382.0222,48.0
1382.5751,62.0
1383.128,54.0
1383.6813,56.0
1384.2347,79.0
1384.7885,53.0
1385.3424,67.0
1385.8965,39.0
1386.4508,101.0
1387.0054,60.0
1387.5602,78.0
1388.1152,55.0
1388.6705,75.0
1389.226,79.0
1389.7816,52.0
1390.3375,76.0
1390.8937,55.0
1391.4501,101.0
1392.0067,41.0
1392.5635,68.0
1393.1205,68.0
1393.6777,51.0
1394.2352,64.0
1394.793,50.0
1395.3508,73.0
1395.9089,56.0
1396.4673,66.0
1397.0259,65.0
1397.5847,94.0
1398.1438,65.0
1398.703,71.0
1399.2625,70.0
1399.8221,75.0
1400.3821,86.0
1400.9423,47.0
1401.5027,61.0
1402.0632,56.0
1402.624,79.0
1403.185,68.0
1403.7463,66.0
1404.3079,78.0
1404.8696,46.0
1405.4315,95.0
1405.9937,55.0
1406.556,101.0
1407.1187,67.0
1407.6815,87.0
1408.2446,66.0
1408.808,63.0
1409.3715,73.0
1409.9352,48.0
1410.4991,83.0
1411.0634,38.0
1411.6278,71.0
1412.1925,50.0
1412.7573,70.0
1413.3224,91.0
1413.8877,57.0
1414.4532,101.0
1415.019,48.0
1415.5851,102.0
1416.1514,62.0
1416.7178,104.0
1417.2844,88.0
1417.8513,58.0
1418.4185,85.0
1418.9858,52.0
1419.5535,86.0
1420.1213,55.0
1420.6893,79.0
1421.2576,61.0
1421.826,61.0
1422.3948,104.0
1422.9637,42.0
1423.533,106.0
1424.1024,53.0
1424.672,75.0
1425.2418,81.0
1425.8119,81.0
1426.3822,80.0
1426.9528,37.0
1427.5236,82.0
1428.0946,62.0
1428.6659,88.0
1429.2373,65.0
1429.809,64.0
1430.3809,81.0
1430.953,51.0
1431.5254,72.0
1432.098,58.0
1432.6709,68.0
1433.244,56.0
1433.8173,81.0
1434.3907,80.0
1434.9645,67.0
1435.5385,94.0
1436.1127,64.0
1436.6871,75.0
1437.2618,58.0
1437.8368,84.0
1438.412,78.0
1438.9873,66.0
1439.5629,89.0
1440.1387,46.0
1440.7147,72.0
1441.291,80.0
1441.8676,51.0
1442.4443,81.0
1443.0214,56.0
1443.5985,81.0
1444.1759,51.0
1444.7535,97.0
1445.3314,71.0
1445.9095,63.0
1446.4879,82.0
1447.0665,49.0
1447.6454,75.0
1448.2245,66.0
1448.8038,64.0
1449.3833,83.0
1449.963,49.0
1450.543,94.0
1451.1232,62.0
1451.7036,79.0
1452.2843,73.0
1452.8652,63.0
1453.4464,83.0
1454.0278,69.0
1454.6095,74.0
1455.1913,53.0
1455.7733,74.0
1456.3556,78.0
1456.9381,39.0
1457.5209,87.0
1458.1039,55.0
1458.6871,87.0
1459.2706,56.0
1459.8544,63.0
1460.4384,80.0
1461.0226,48.0
1461.6069,147.0
1462.1915,86.0
1462.7764,120.0
1463.3615,110.0
1463.9468,58.0
1464.5323,101.0
1465.1182,54.0
1465.7042,84.0
1466.2905,72.0
1466.8771,61.0
1467.4639,76.0
1468.0509,55.0
1468.6382,87.0
1469.2256,77.0
1469.8132,60.0
1470.4011,80.0
1470.9893,47.0
1471.5776,101.0
1472.1663,68.0
1472.7551,90.0
1473.3442,76.0
1473.9336,60.0
1474.5232,86.0
1475.113,49.0
1475.7031,78.0
1476.2935,77.0
1476.884,93.0
1477.4747,85.0
1478.0657,63.0
1478.6569,86.0
1479.2483,65.0
1479.84,57.0
1480.4319,87.0
1481.024,49.0
1481.6165,57.0
1482.2091,62.0
1482.802,69.0
1483.3951,72.0
1483.9885,45.0
1484.5822,64.0
1485.176,51.0
1485.7701,73.0
1486.3645,79.0
1486.9591,69.0
1487.5538,75.0
1488.1488,81.0
1488.744,68.0
1489.3395,70.0
1489.9352,38.0
1490.5311,74.0
1491.1273,54.0
1491.7238,74.0
1492.3204,72.0
1492.9174,64.0
1493.5145,78.0
1494.1119,67.0
1494.7096,75.0
1495.3075,89.0
1495.9056,89.0
1496.504,117.0
1497.1027,69.0
1497.7015,88.0
1498.3007,71.0
1498.9,74.0
1499.4996,68.0
1500.0995,58.0
1500.6996,68.0
1501.2998,60.0
1501.9003,43.0
1502.501,71.0
1503.1019,56.0
1503.7031,68.0
1504.3046,69.0
1504.9062,68.0
1505.5082,104.0
1506.1104,51.0
1506.7128,67.0
1507.3154,84.0
1507.9183,54.0
1508.5215,63.0
1509.1249,44.0
1509.7285,75.0
1510.3324,76.0
1510.9365,56.0
1511.5409,81.0
1512.1455,79.0
1512.7504,276.0
1513.3555,199.0
1513.9608,121.0
1514.5664,161.0
1515.1722,58.0
1515.7783,92.0
1516.3846,91.0
1516.9912,50.0
1517.598,80.0
1518.2051,73.0
1518.8124,79.0
1519.4199,68.0
1520.0277,57.0
1520.6357,74.0
1521.244,64.0
1521.8525,61.0
1522.4613,66.0
1523.0703,61.0
1523.6796,77.0
1524.2891,84.0
1524.8988,56.0
1525.5088,76.0
1526.119,54.0
1526.7295,82.0
1527.3402,82.0
1527.9512,71.0
1528.5624,89.0
1529.1738,68.0
1529.7855,64.0
1530.3975,69.0
1531.0096,48.0
1531.6221,79.0
1532.2347,67.0
1532.8477,56.0
1533.4608,65.0
1534.0742,50.0
1534.6879,89.0
1535.3018,85.0
1535.9159,63.0
1536.5303,65.0
1537.1449,47.0
1537.7598,81.0
1538.3749,64.0
1538.9902,54.0
1539.6058,69.0
1540.2217,53.0
1540.8378,65.0
1541.4541,69.0
1542.0707,45.0
1542.6875,68.0
1543.3046,76.0
1543.9219,61.0
1544.5394,93.0
1545.1572,59.0
1545.7753,80.0
1546.3936,70.0
1547.0121,47.0
1547.6309,58.0
1548.2499,58.0
1548.8691,70.0
1549.4886,80.0
1550.1084,44.0
1550.7284,68.0
1551.3486,92.0
1551.9691,45.0
1552.5898,96.0
1553.2109,61.0
1553.8323,66.0
1554.4539,83.0
1555.0757,53.0
1555.6978,60.0
1556.3201,52.0
1556.9426,65.0
1557.5654,75.0
1558.1885,45.0
1558.8118,77.0
1559.4353,84.0
1560.0591,66.0
1560.6831,79.0
1561.3074,74.0
1561.9319,56.0
1562.5566,80.0
1563.1816,61.0
1563.8069,68.0
1564.4324,71.0
1565.0581,45.0
1565.6841,63.0
1566.3103,46.0
1566.9368,40.0
1567.5636,80.0
1568.1907,58.0
1568.818,68.0
1569.4456,79.0
1570.0734,69.0
1570.7014,86.0
1571.3297,81.0
1571.9583,60.0
1572.587,72.0
1573.2161,50.0
1573.8453,52.0
1574.4749,83.0
1575.1046,42.0
1575.7346,84.0
1576.3649,78.0
1576.9954,71.0
1577.6261,68.0
1578.2572,58.0
1578.8885,59.0
1579.5201,75.0
1580.152,57.0
1580.784,81.0
1581.4164,77.0
1582.049,46.0
1582.6818,60.0
1583.3148,73.0
1583.9481,75.0
1584.5817,89.0
1585.2155,60.0
1585.8495,70.0
1586.4839,93.0
1587.1185,55.0
1587.7534,76.0
1588.3885,78.0
1589.0239,64.0
1589.6595,88.0
1590.2954,55.0
1590.9315,61.0
1591.5679,79.0
1592.2045,61.0
1592.8413,64.0
1593.4784,50.0
1594.1158,64.0
1594.7535,64.0
1595.3915,87.0
1596.0297,68.0
1596.6681,89.0
1597.3068,62.0
1597.9457,46.0
1598.5848,94.0
1599.2242,50.0
1599.8639,65.0
1600.5038,57.0
1601.144,59.0
1601.7845,71.0
1602.4253,90.0
1603.0663,53.0
1603.7075,99.0
1604.349,65.0
1604.9907,62.0
1605.6327,86.0
1606.2749,53.0
1606.9174,53.0
1607.5602,74.0
1608.2032,64.0
1608.8466,61.0
1609.4901,77.0
1610.1339,56.0
1610.778,67.0
1611.4222,68.0
1612.0668,46.0
1612.7115,68.0
1613.3567,69.0
1614.0021,69.0
1614.6477,86.0
1615.2936,69.0
1615.9397,68.0
1616.586,84.0
1617.2327,61.0
1617.8795,71.0
1618.5266,73.0
1619.1741,62.0
1619.8218,83.0
1620.4697,102.0
1621.1179,54.0
1621.7664,83.0
1622.415,74.0
1623.064,60.0
1623.7131,92.0
1624.3627,83.0
1625.0125,53.0
1625.6625,67.0
1626.3127,67.0
1626.9633,46.0
1627.614,74.0
1628.265,70.0
1628.9163,62.0
1629.5679,97.0
1630.2197,67.0
1630.8718,93.0
1631.5242,104.0
1632.1768,55.0
1632.8296,86.0
1633.4827,80.0
1634.1361,67.0
1634.7898,71.0
1635.4437,54.0
1636.0979,58.0
1636.7523,60.0
1637.407,66.0
1638.0619,49.0
1638.7172,76.0
1639.3727,73.0
1640.0284,72.0
1640.6844,89.0
1641.3407,73.0
1641.9972,79.0
1642.6539,81.0
1643.311,77.0
1643.9684,71.0
1644.626,155.0
1645.2838,148.0
1645.9419,88.0
1646.6002,137.0
1647.2589,81.0
1647.9178,85.0
1648.577,94.0
1649.2365,60.0
1649.8961,74.0
1650.556,66.0
1651.2163,59.0
1651.8768,66.0
1652.5376,78.0
1653.1986,54.0
1653.8599,62.0
1654.5214,71.0
1655.1832,59.0
1655.8453,75.0
1656.5077,77.0
1657.1703,66.0
1657.8331,79.0
1658.4962,78.0
1659.1597,69.0
1659.8234,67.0
1660.4873,67.0
1661.1515,62.0
1661.8159,76.0
1662.4806,72.0
1663.1456,52.0
1663.8109,66.0
1664.4764,82.0
1665.1422,51.0
1665.8082,95.0
1666.4746,72.0
1667.1412,55.0
1667.8081,76.0
1668.4752,93.0
1669.1426,52.0
1669.8102,68.0
1670.4781,70.0
1671.1464,44.0
1671.8148,64.0
1672.4835,79.0
1673.1525,58.0
1673.8218,79.0
1674.4913,77.0
1675.1611,59.0
1675.8312,68.0
1676.5015,98.0
1677.1721,54.0
1677.843,60.0
1678.5142,66.0
1679.1855,49.0
1679.8572,59.0
1680.5292,70.0
1681.2014,68.0
1681.8739,59.0
1682.5466,80.0
1683.2196,67.0
1683.893,77.0
1684.5665,76.0
1685.2404,58.0
1685.9144,60.0
1686.5887,67.0
1687.2634,55.0
1687.9384,65.0
1688.6135,74.0
1689.289,72.0
1689.9646,52.0
1690.6406,67.0
1691.3169,75.0
1691.9934,62.0
1692.6702,58.0
1693.3473,58.0
1694.0247,55.0
1694.7023,64.0
1695.3801,52.0
1696.0582,45.0
1696.7367,56.0
1697.4154,77.0
1698.0944,51.0
1698.7736,65.0
1699.4531,63.0
1700.1329,58.0
1700.813,88.0
1701.4933,71.0
1702.1738,43.0
1702.8547,80.0
1703.5359,75.0
1704.2173,73.0
1704.8989,63.0
1705.5809,87.0
1706.2632,61.0
1706.9457,53.0
1707.6284,80.0
1708.3115,60.0
1708.9949,61.0
1709.6785,66.0
1710.3623,62.0
1711.0465,62.0
1711.731,78.0
1712.4156,75.0
1713.1006,36.0
1713.7858,60.0
1714.4713,67.0
1715.1571,56.0
1715.8431,71.0
1716.5294,71.0
1717.2161,36.0
1717.903,56.0
1718.5901,75.0
1719.2775,52.0
1719.9652,54.0
1720.6532,59.0
1721.3414,72.0
1722.0299,77.0
1722.7188,70.0
1723.4078,57.0
1724.0972,51.0
1724.7869,75.0
1725.4768,61.0
1726.167,52.0
1726.8574,62.0
1727.5482,87.0
1728.2393,49.0
1728.9305,51.0
1729.6221,75.0
1730.314,61.0
1731.0061,51.0
1731.6985,58.0
1732.3911,76.0
1733.0841,41.0
1733.7773,64.0
1734.4708,64.0
1735.1647,50.0
1735.8588,61.0
1736.5531,85.0
1737.2477,39.0
1737.9426,62.0
1738.6378,75.0
1739.3333,65.0
1740.0289,60.0
1740.725,75.0
1741.4213,70.0
1742.1178,44.0
1742.8147,66.0
1743.5118,63.0
1744.2092,60.0
1744.9069,49.0
1745.6049,72.0
1746.3031,59.0
1747.0016,69.0
1747.7004,71.0
1748.3995,64.0
1749.0989,51.0
1749.7985,65.0
1750.4984,80.0
1751.1986,44.0
1751.899,64.0
1752.5999,67.0
1753.3009,55.0
1754.0022,51.0
1754.7039,59.0
1755.4058,76.0
1756.1079,54.0
1756.8103,73.0
1757.5131,63.0
1758.2161,48.0
1758.9193,69.0
1759.6229,61.0
1760.3268,54.0
1761.0309,44.0
1761.7354,67.0
1762.4401,63.0
1763.145,65.0
1763.8502,87.0
1764.5558,80.0
1765.2616,66.0
1765.9677,69.0
1766.6741,76.0
1767.3807,55.0
1768.0876,56.0
1768.7949,54.0
1769.5024,64.0
1770.2102,57.0
1770.9183,65.0
1771.6267,77.0
1772.3353,76.0
1773.0443,67.0
1773.7535,88.0
1774.463,75.0
1775.1729,41.0
1775.8829,56.0
1776.5933,66.0
1777.304,48.0
1778.0149,63.0
1778.7261,61.0
1779.4376,64.0
1780.1494,55.0
1780.8615,78.0
1781.5739,58.0
1782.2865,62.0
1782.9994,60.0
1783.7126,59.0
1784.4261,56.0
1785.1399,45.0
1785.854,65.0
1786.5684,52.0
1787.283,60.0
1787.9979,68.0
1788.7131,81.0
1789.4286,78.0
1790.1444,62.0
1790.8605,71.0
1791.5768,62.0
1792.2935,72.0
1793.0104,53.0
1793.7275,71.0
1794.4451,65.0
1795.1628,54.0
1795.8809,47.0
1796.5992,64.0
1797.3179,66.0
1798.0367,62.0
1798.756,51.0
1799.4755,62.0
1800.1953,60.0
1800.9154,64.0
1801.6357,58.0
1802.3564,67.0
1803.0774,62.0
1803.7986,72.0
1804.5201,75.0
1805.242,69.0
1805.964,195.0
1806.6864,220.0
1807.409,113.0
1808.1321,72.0
1808.8553,99.0
1809.5789,90.0
1810.3027,53.0
1811.0269,56.0
1811.7512,69.0
1812.476,65.0
1813.2009,38.0
1813.9261,65.0
1814.6517,62.0
1815.3776,69.0
1816.1038,71.0
1816.8302,66.0
1817.5569,56.0
1818.2839,55.0
1819.0112,52.0
1819.7389,58.0
1820.4668,57.0
1821.195,46.0
1821.9235,56.0
1822.6522,66.0
1823.3812,63.0
1824.1106,48.0
1824.8402,66.0
1825.5702,62.0
1826.3004,54.0
1827.0309,54.0
1827.7617,79.0
1828.4928,76.0
1829.2242,66.0
1829.9559,52.0
1830.6879,68.0
1831.4202,67.0
1832.1527,48.0
1832.8856,82.0
1833.6188,69.0
1834.3522,68.0
1835.0859,47.0
1835.82,59.0
1836.5543,58.0
1837.289,45.0
1838.0238,77.0
1838.759,73.0
1839.4945,67.0
1840.2303,46.0
1840.9664,79.0
1841.7028,71.0
1842.4395,70.0
1843.1764,54.0
1843.9137,65.0
1844.6512,71.0
1845.3892,66.0
1846.1273,52.0
1846.8657,58.0
1847.6045,59.0
1848.3435,55.0
1849.0829,51.0
1849.8225,55.0
1850.5624,67.0
1851.3026,48.0
1852.0431,46.0
1852.7839,59.0
1853.525,58.0
1854.2665,57.0
1855.0082,59.0
1855.7501,67.0
1856.4924,47.0
1857.235,44.0
1857.9779,79.0
1858.7211,83.0
1859.4646,73.0
1860.2084,48.0
1860.9525,87.0
1861.6969,59.0
1862.4415,53.0
1863.1865,45.0
1863.9318,66.0
1864.6774,76.0
1865.4232,45.0
1866.1694,56.0
1866.9159,55.0
1867.6627,80.0
1868.4098,73.0
1869.1571,54.0
1869.9048,71.0
1870.6527,92.0
1871.401,58.0
1872.1495,54.0
1872.8984,74.0
1873.6476,69.0
1874.3971,70.0
1875.1469,47.0
1875.8969,64.0
1876.6472,86.0
1877.3978,60.0
1878.1488,52.0
1878.9,67.0
1879.6516,59.0
1880.4034,61.0
1881.1556,48.0
1881.9081,56.0
1882.6609,60.0
1883.414,64.0
1884.1674,71.0
1884.921,218.0
1885.675,227.0
1886.4293,144.0
1887.1838,111.0
1887.9387,116.0
1888.6938,91.0
1889.4493,67.0
1890.2051,65.0
1890.9612,61.0
1891.7175,64.0
1892.4742,63.0
1893.2312,55.0
1893.9885,59.0
1894.7461,46.0
1895.504,84.0
1896.2622,52.0
1897.0208,85.0
1897.7795,92.0
1898.5387,75.0
1899.2981,48.0
1900.0579,59.0
1900.8179,59.0
1901.5782,62.0
1902.3389,49.0
1903.0999,56.0
1903.8611,73.0
1904.6227,59.0
1905.3845,54.0
1906.1467,53.0
1906.9092,68.0
1907.672,48.0
1908.435,61.0
1909.1985,41.0
1909.9622,50.0
1910.7262,51.0
1911.4905,78.0
1912.2551,63.0
1913.02,70.0
1913.7853,262.0
1914.5508,234.0
1915.3167,144.0
1916.0828,186.0
1916.8492,120.0
1917.616,90.0
1918.383,60.0
1919.1504,61.0
1919.9181,54.0
1920.686,61.0
1921.4543,75.0
1922.2229,67.0
1922.9918,59.0
1923.761,65.0
1924.5305,62.0
1925.3003,55.0
1926.0704,40.0
1926.8408,57.0
1927.6116,56.0
1928.3826,62.0
1929.1539,55.0
1929.9255,63.0
1930.6975,52.0
1931.4698,58.0
1932.2424,56.0
1933.0154,54.0
1933.7886,59.0
1934.5621,70.0
1935.3359,65.0
1936.1101,64.0
1936.8845,82.0
1937.6593,60.0
1938.4343,59.0
1939.2097,61.0
1939.9854,52.0
1940.7614,64.0
1941.5376,59.0
1942.3142,47.0
1943.0912,63.0
1943.8684,58.0
1944.646,67.0
1945.4238,52.0
1946.202,42.0
1946.9805,55.0
1947.7593,69.0
1948.5383,63.0
1949.3177,50.0
1950.0975,70.0
1950.8776,65.0
1951.658,65.0
1952.4386,57.0
1953.2196,57.0
1954.0009,60.0
1954.7825,60.0
1955.5643,67.0
1956.3466,37.0
1957.1292,41.0
1957.912,50.0
1958.6952,57.0
1959.4786,55.0
1960.2625,47.0
1961.0465,45.0
1961.8309,60.0
1962.6157,62.0
1963.4008,54.0
1964.1862,53.0
1964.9718,50.0
1965.7578,74.0
1966.5441,57.0
1967.3307,57.0
1968.1177,63.0
1968.9049,69.0
1969.6925,65.0
1970.4803,65.0
1971.2686,47.0
1972.057,56.0
1972.8458,58.0
1973.635,50.0
1974.4244,44.0
1975.2142,50.0
1976.0043,52.0
1976.7947,64.0
1977.5854,53.0
1978.3765,58.0
1979.1678,53.0
1979.9595,46.0
1980.7515,60.0
1981.5438,62.0
1982.3364,54.0
1983.1294,62.0
1983.9226,72.0
1984.7162,75.0
1985.5101,69.0
1986.3043,48.0
1987.0989,52.0
1987.8937,57.0
1988.6888,43.0
1989.4844,64.0
1990.2802,51.0
1991.0763,54.0
1991.8727,67.0
1992.6694,58.0
1993.4666,81.0
1994.2639,69.0
1995.0616,66.0
1995.8596,74.0
1996.658,83.0
1997.4567,51.0
1998.2556,57.0
1999.0549,58.0
1999.8546,73.0
2000.6545,80.0
2001.4548,50.0
2002.2554,69.0
2003.0563,60.0
2003.8575,63.0
2004.659,57.0
2005.4609,46.0
2006.2631,49.0
2007.0656,55.0
2007.8684,50.0
2008.6715,84.0
2009.475,75.0
2010.2788,79.0
2011.0829,78.0
2011.8873,132.0
2012.6921,104.0
2013.4972,80.0
2014.3026,55.0
2015.1083,68.0
2015.9143,62.0
2016.7207,51.0
2017.5273,59.0
2018.3344,59.0
2019.1417,59.0
2019.9493,51.0
2020.7573,54.0
2021.5657,53.0
2022.3743,67.0
2023.1832,45.0
2023.9926,51.0
2024.8021,57.0
2025.612,83.0
2026.4224,80.0
2027.2329,59.0
2028.0438,80.0
2028.855,82.0
2029.6665,92.0
2030.4784,60.0
2031.2905,56.0
2032.103,59.0
2032.9159,56.0
2033.729,59.0
2034.5425,65.0
2035.3563,59.0
2036.1704,49.0
2036.9849,62.0
2037.7997,52.0
2038.6147,71.0
2039.4302,49.0
2040.246,40.0
2041.062,59.0
2041.8784,60.0
2042.6952,58.0
2043.5123,68.0
2044.3297,49.0
2045.1475,72.0
2045.9656,63.0
2046.7839,52.0
2047.6027,63.0
2048.4216,69.0
2049.241,47.0
2050.0605,57.0
2050.8806,52.0
2051.701,92.0
2052.5217,101.0
2053.3428,65.0
2054.164,45.0
2054.9858,65.0
2055.8079,58.0
2056.6301,68.0
2057.453,54.0
2058.276,31.0
2059.099,47.0
2059.9229,53.0
2060.7468,60.0
2061.571,52.0
2062.3958,51.0
2063.2207,61.0
2064.046,62.0
2064.8716,58.0
2065.6975,64.0
2066.5237,62.0
2067.3503,53.0
2068.1772,61.0
2069.0046,57.0
2069.8323,57.0
2070.6602,57.0
2071.4885,51.0
2072.3171,64.0
2073.146,51.0
2073.9753,58.0
2074.805,43.0
2075.6348,55.0
2076.465,64.0
2077.2957,46.0
2078.1265,49.0
2078.9578,63.0
2079.7893,60.0
2080.6213,58.0
2081.4536,51.0
2082.2861,59.0
2083.1191,82.0
2083.9524,100.0
2084.786,92.0
2085.6199,69.0
2086.454,49.0
2087.2886,54.0
2088.1235,44.0
2088.9587,60.0
2089.7944,49.0
2090.6304,59.0
2091.4666,48.0
2092.3032,52.0
2093.1401,50.0
2093.9773,47.0
2094.815,48.0
2095.6528,60.0
2096.4912,54.0
2097.3298,49.0
2098.1687,45.0
2099.008,59.0
2099.8477,50.0
2100.6875,61.0
2101.5278,63.0
2102.3684,48.0
2103.2095,48.0
2104.0508,45.0
2104.8923,48.0
2105.7344,52.0
2106.5767,61.0
2107.4192,45.0
2108.2622,53.0
2109.1055,64.0
2109.9492,46.0
2110.7932,70.0
2111.6375,63.0
2112.4822,58.0
2113.3271,39.0
2114.1724,61.0
2115.018,51.0
2115.864,48.0
2116.7104,44.0
2117.5571,51.0
2118.404,66.0
2119.2515,48.0
2120.099,56.0
2120.9473,61.0
2121.7957,49.0
2122.6443,59.0
2123.4934,61.0
2124.3428,42.0
2125.1926,56.0
2126.0427,60.0
2126.893,50.0
2127.744,55.0
2128.595,66.0
2129.4463,48.0
2130.298,46.0
2131.1501,33.0
2132.0027,55.0
2132.8555,51.0
2133.7085,66.0
2134.562,69.0
2135.4158,52.0
2136.27,42.0
2137.1245,62.0
2137.9792,62.0
2138.8345,54.0
2139.69,79.0
2140.546,61.0
2141.402,61.0
2142.2585,86.0
2143.1155,114.0
2143.9727,85.0
2144.8303,62.0
2145.6882,68.0
2146.5464,63.0
2147.405,49.0
2148.264,46.0
2149.1233,49.0
2149.983,62.0
2150.843,48.0
2151.7034,57.0
2152.564,66.0
2153.425,53.0
2154.2864,68.0
2155.1482,54.0
2156.0103,57.0
2156.8726,72.0
2157.7354,70.0
2158.5984,51.0
2159.462,56.0
2160.3257,39.0
2161.1897,39.0
2162.0542,60.0
2162.919,50.0
2163.7842,66.0
2164.6497,59.0
2165.5156,48.0
2166.3818,55.0
2167.2483,54.0
2168.1152,75.0
2168.9824,70.0
2169.85,77.0
2170.718,64.0
2171.5864,52.0
2172.455,49.0
2173.324,57.0
2174.1934,61.0
2175.063,55.0
2175.933,55.0
2176.8035,68.0
2177.674,61.0
2178.5452,68.0
2179.4165,57.0
2180.2883,74.0
2181.1604,57.0
2182.033,66.0
2182.9058,45.0
2183.7788,56.0
2184.6523,72.0
2185.5261,62.0
2186.4004,55.0
2187.275,47.0
2188.15,43.0
2189.0251,61.0
2189.9006,58.0
2190.7766,70.0
2191.6528,61.0
2192.5295,70.0
2193.4065,54.0
2194.284,76.0
2195.1616,86.0
2196.0398,101.0
2196.9182,92.0
2197.7969,69.0
2198.676,73.0
2199.5554,57.0
2200.4353,64.0
2201.3154,71.0
2202.196,53.0
2203.077,59.0
2203.9583,49.0
2204.8398,59.0
2205.7217,55.0
2206.604,52.0
2207.4866,65.0
2208.3696,57.0
2209.253,63.0
2210.1367,64.0
2211.0208,73.0
2211.9053,59.0
2212.79,72.0
2213.675,67.0
2214.5605,67.0
2215.4463,62.0
2216.3325,52.0
2217.219,55.0
2218.106,59.0
2218.9932,59.0
2219.8809,45.0
2220.7688,54.0
2221.6572,63.0
2222.546,57.0
2223.4348,57.0
2224.3242,49.0
2225.2139,50.0
2226.104,65.0
2226.9944,57.0
2227.8853,63.0
2228.7764,58.0
2229.668,52.0
2230.5598,60.0
2231.4521,67.0
2232.3447,52.0
2233.2375,69.0
2234.1309,69.0
2235.0244,55.0
2235.9185,63.0
2236.8127,67.0
2237.7075,49.0
2238.6025,50.0
2239.498,54.0
2240.3938,60.0
2241.29,58.0
2242.1865,58.0
2243.0835,61.0
2243.9807,53.0
2244.8784,74.0
2245.7764,65.0
2246.6746,74.0
2247.5732,71.0
2248.4722,53.0
2249.3716,52.0
2250.2712,62.0
2251.1714,78.0
2252.0718,64.0
2252.9727,75.0
2253.8738,65.0
2254.7754,64.0
2255.6772,64.0
2256.5796,58.0
2257.4822,62.0
2258.3853,64.0
2259.2886,50.0
2260.1924,64.0
2261.0964,79.0
2262.001,68.0
2262.9058,62.0
2263.811,65.0
2264.7166,70.0
2265.6226,62.0
2266.5288,57.0
2267.4353,53.0
2268.3423,56.0
2269.2495,75.0
2270.1572,67.0
2271.0652,64.0
2271.9736,71.0
2272.8823,69.0
2273.7915,69.0
2274.701,73.0
2275.6108,82.0
2276.521,93.0
2277.4316,81.0
2278.3425,72.0
2279.254,64.0
2280.1655,54.0
2281.0776,57.0
2281.99,62.0
2282.9028,69.0
2283.816,64.0
2284.7295,78.0
2285.6433,72.0
2286.5576,63.0
2287.4722,64.0
2288.3872,56.0
2289.3025,60.0
2290.2183,70.0
2291.1343,61.0
2292.0508,65.0
2292.9675,94.0
2293.8848,86.0
2294.8022,70.0
2295.7202,64.0
2296.6384,77.0
2297.5571,55.0
2298.476,69.0
2299.3955,58.0
2300.3152,65.0
2301.2354,63.0
2302.1558,61.0
2303.0767,76.0
2303.9978,77.0
2304.9194,69.0
2305.8413,70.0
2306.7637,75.0
2307.6863,73.0
2308.6094,64.0
2309.5327,68.0
2310.4565,61.0
2311.3806,70.0
2312.3052,57.0
2313.23,74.0
2314.1553,70.0
2315.081,81.0
2316.007,64.0
2316.9336,77.0
2317.8604,61.0
2318.7876,108.0
2319.715,89.0
2320.643,93.0
2321.5713,72.0
2322.5,70.0
2323.429,78.0
2324.3584,73.0
2325.288,84.0
2326.2183,89.0
2327.1487,68.0
2328.0796,66.0
2329.0107,78.0
2329.9424,90.0
2330.8743,67.0
2331.8066,57.0
2332.7393,76.0
2333.6724,68.0
2334.6057,56.0
2335.5396,59.0
2336.4739,73.0
2337.4084,54.0
2338.3435,63.0
2339.2788,54.0
2340.2146,60.0
2341.1506,71.0
2342.0872,70.0
2343.024,58.0
2343.9612,54.0
2344.8987,98.0
2345.8367,87.0
2346.775,84.0
2347.7136,100.0
2348.6526,73.0
2349.592,77.0
2350.532,58.0
2351.4722,64.0
2352.4128,53.0
2353.3538,64.0
2354.2952,60.0
2355.2368,62.0
2356.179,58.0
2357.1213,72.0
2358.0642,64.0
2359.0073,81.0
2359.951,51.0
2360.895,64.0
2361.8394,59.0
2362.7842,66.0
2363.7292,83.0
2364.6748,65.0
2365.6206,66.0
2366.567,68.0
2367.5134,80.0
2368.4604,55.0
2369.4077,63.0
2370.3555,67.0
2371.3037,78.0
2372.2522,71.0
2373.2012,59.0
2374.1504,72.0
2375.1,59.0
2376.05,61.0
2377.0005,60.0
2377.9512,76.0
2378.9023,62.0
2379.854,68.0
2380.806,63.0
2381.7583,81.0
2382.711,45.0
2383.664,64.0
2384.6174,60.0
2385.5713,65.0
2386.5256,54.0
2387.4802,89.0
2388.4353,103.0
2389.3906,90.0
2390.3464,77.0
2391.3025,69.0
2392.259,57.0
2393.2158,55.0
2394.173,76.0
2395.1309,65.0
2396.0889,72.0
2397.0474,69.0
2398.006,66.0
2398.9653,58.0
2399.9248,43.0
2400.8848,65.0
2401.8452,56.0
2402.806,64.0
2403.767,77.0
2404.7285,78.0
2405.6904,67.0
2406.6526,58.0
2407.6152,62.0
2408.5784,69.0
2409.5417,46.0
2410.5056,73.0
2411.4697,55.0
2412.4343,70.0
2413.3994,69.0
2414.3647,66.0
2415.3306,63.0
2416.2966,72.0
2417.2632,63.0
2418.23,65.0
2419.1973,59.0
2420.165,53.0
2421.133,66.0
2422.1016,78.0
2423.0703,53.0
2424.0396,78.0
2425.0093,75.0
2425.9792,48.0
2426.9497,51.0
2427.9204,56.0
2428.8916,70.0
2429.863,66.0
2430.835,84.0
2431.8074,70.0
2432.78,72.0
2433.7532,62.0
2434.7266,52.0
2435.7004,71.0
2436.6748,75.0
2437.6494,64.0
2438.6245,47.0
2439.5999,66.0
2440.5757,60.0
2441.552,39.0
2442.5286,62.0
2443.5056,60.0
2444.483,62.0
2445.4607,69.0
2446.439,57.0
2447.4175,62.0
2448.3965,65.0
2449.3757,63.0
2450.3555,62.0
2451.3357,69.0
2452.3162,64.0
2453.297,58.0
2454.2783,58.0
2455.26,62.0
2456.2422,63.0
2457.2246,57.0
2458.2075,59.0
2459.191,69.0
2460.1746,57.0
2461.1587,64.0
2462.143,60.0
2463.128,61.0
2464.1133,65.0
2465.0989,71.0
2466.085,75.0
2467.0713,68.0
2468.058,75.0
2469.0454,47.0
2470.033,77.0
2471.021,54.0
2472.0095,60.0
2472.9983,61.0
2473.9875,58.0
2474.977,53.0
2475.967,49.0
2476.9575,57.0
2477.9482,62.0
2478.9395,59.0
2479.931,71.0
2480.9229,58.0
2481.9153,61.0
2482.908,60.0
2483.9011,65.0
2484.8948,62.0
2485.8887,50.0
2486.883,57.0
2487.878,61.0
2488.873,70.0
2489.8687,70.0
2490.8645,57.0
2491.8608,48.0
2492.8577,50.0
2493.8547,50.0
2494.8523,67.0
2495.8503,71.0
2496.8486,70.0
2497.8474,79.0
2498.8464,53.0
2499.846,59.0
2500.846,67.0
2501.8462,54.0
2502.847,60.0
2503.8481,55.0
2504.8496,57.0
2505.8516,60.0
2506.854,46.0
2507.8567,55.0
2508.8599,48.0
2509.8635,63.0
2510.8674,64.0
2511.8718,63.0
2512.8765,62.0
2513.8816,62.0
2514.8872,53.0
2515.893,51.0
2516.8994,54.0
2517.9062,64.0
2518.9133,53.0
2519.921,60.0
2520.929,63.0
2521.9373,60.0
2522.946,68.0
2523.9553,55.0
2524.9648,66.0
2525.9749,56.0
2526.9854,60.0
2527.996,66.0
2529.0073,64.0
2530.019,69.0
2531.031,59.0
2532.0435,58.0
2533.0562,70.0
2534.0693,54.0
2535.083,65.0
2536.097,54.0
2537.1113,70.0
2538.1262,59.0
2539.1414,63.0
2540.157,60.0
2541.173,58.0
2542.1895,61.0
2543.2063,58.0
2544.2236,64.0
2545.2412,58.0
2546.2593,76.0
2547.2778,54.0
2548.2966,49.0
2549.316,72.0
2550.3357,70.0
2551.3557,52.0
2552.3762,73.0
2553.3972,78.0
2554.4185,64.0
2555.4402,65.0
2556.4624,49.0
2557.485,73.0
2558.508,48.0
2559.5315,50.0
2560.5554,49.0
2561.5796,56.0
2562.6042,72.0
2563.6294,59.0
2564.6548,58.0
2565.6807,67.0
2566.707,75.0
2567.7336,65.0
2568.7607,56.0
2569.7883,60.0
2570.8162,62.0
2571.8445,75.0
2572.8733,60.0
2573.9023,66.0
2574.932,63.0
2575.962,62.0
2576.9922,70.0
2578.023,67.0
2579.0542,60.0
2580.086,58.0
2581.118,61.0
2582.1504,46.0
2583.1833,54.0
2584.2166,53.0
2585.2502,60.0
2586.2844,49.0
2587.3188,72.0
2588.3538,59.0
2589.3892,59.0
2590.4248,62.0
2591.461,86.0
2592.4976,65.0
2593.5347,69.0
2594.572,83.0
2595.6099,70.0
2596.6482,72.0
2597.6868,51.0
2598.7258,76.0
2599.7654,67.0
2600.8052,56.0
2601.8455,51.0
2602.8862,67.0
2603.9275,66.0
2604.969,52.0
2606.011,50.0
2607.0535,59.0
2608.0962,83.0
2609.1394,74.0
2610.183,66.0
2611.2273,72.0
2612.2717,64.0
2613.3167,61.0
2614.362,80.0
2615.4077,67.0
2616.4539,81.0
2617.5005,60.0
2618.5476,75.0
2619.595,71.0
2620.6428,70.0
2621.6912,65.0
2622.7397,50.0
2623.7888,54.0
2624.8384,55.0
2625.8884,65.0
2626.9387,68.0
2627.9895,66.0
2629.0408,68.0
2630.0923,59.0
2631.1443,64.0
2632.1968,58.0
2633.2498,80.0
2634.303,70.0
2635.3567,79.0
2636.411,68.0
2637.4653,83.0
2638.5203,65.0
2639.5757,59.0
2640.6316,62.0
2641.6877,65.0
2642.7444,72.0
2643.8015,66.0
2644.8591,65.0
2645.917,58.0
2646.9753,58.0
2648.0342,53.0
2649.0935,63.0
2650.153,68.0
2651.2131,52.0
2652.2737,54.0
2653.3345,49.0
2654.3958,73.0
2655.4575,62.0
2656.5198,67.0
2657.5823,62.0
2658.6453,61.0
2659.7087,77.0
2660.7727,68.0
2661.837,66.0
2662.9016,65.0
2663.9668,68.0
2665.0325,61.0
2666.0984,69.0
2667.1648,72.0
2668.2317,67.0
2669.299,71.0
2670.3667,71.0
2671.4348,73.0
2672.5034,81.0
2673.5725,60.0
2674.6418,54.0
2675.7117,55.0
2676.782,64.0
2677.8528,64.0
2678.9238,60.0
2679.9954,65.0
2681.0674,95.0
2682.14,59.0
2683.2126,63.0
2684.286,49.0
2685.3596,63.0
2686.4338,77.0
2687.5083,58.0
2688.5833,60.0
2689.6587,66.0
2690.7346,69.0
2691.8108,75.0
2692.8875,53.0
2693.9646,68.0
2695.0422,70.0
2696.1204,53.0
2697.1987,63.0
2698.2776,89.0
2699.357,68.0
2700.4368,72.0
2701.5168,69.0
2702.5974,79.0
2703.6785,82.0
2704.76,64.0
2705.8418,58.0
2706.924,60.0
2708.0068,65.0
2709.09,64.0
2710.1738,59.0
2711.2578,61.0
2712.3423,57.0
2713.4272,73.0
2714.5127,80.0
2715.5984,64.0
2716.6846,71.0
2717.7712,77.0
2718.8584,68.0
2719.946,60.0
2721.034,76.0
2722.1223,53.0
2723.2112,78.0
2724.3005,67.0
2725.3901,72.0
2726.4802,71.0
2727.5708,63.0
2728.6619,59.0
2729.7534,73.0
2730.8452,82.0
2731.9375,84.0
2733.0303,76.0
2734.1235,68.0
2735.2173,146.0
2736.3113,174.0
2737.4058,109.0
2738.5007,73.0
2739.5962,67.0
2740.6921,66.0
2741.7883,65.0
2742.885,54.0
2743.9822,70.0
2745.0798,57.0
2746.178,79.0
2747.2764,69.0
2748.3752,62.0
2749.4746,63.0
2750.5745,62.0
2751.6748,51.0
2752.7754,74.0
2753.8765,78.0
2754.978,69.0
2756.08,57.0
2757.1826,57.0
2758.2854,55.0
2759.3887,63.0
2760.4924,59.0
2761.5967,81.0
2762.7014,69.0
2763.8064,74.0
2764.9119,59.0
2766.0178,66.0
2767.1243,61.0
2768.2312,61.0
2769.3384,64.0
2770.446,79.0
2771.5542,63.0
2772.6628,62.0
2773.772,60.0
2774.8816,61.0
2775.9915,67.0
2777.1018,79.0
2778.2126,65.0
2779.324,70.0
2780.4358,80.0
2781.5479,52.0
2782.6604,81.0
2783.7734,57.0
2784.887,86.0
2786.001,65.0
2787.1155,58.0
2788.2302,54.0
2789.3455,50.0
2790.4612,62.0
2791.5774,51.0
2792.694,77.0
2793.8113,116.0
2794.9287,114.0
2796.0466,112.0
2797.165,125.0
2798.284,118.0
2799.4033,106.0
2800.5232,100.0
2801.6433,118.0
2802.764,104.0
2803.885,85.0
2805.0066,85.0
2806.1287,84.0
2807.2512,83.0
2808.374,89.0
2809.4973,106.0
2810.621,100.0
2811.7454,94.0
2812.87,103.0
2813.9954,89.0
2815.1208,107.0
2816.2468,111.0
2817.3733,101.0
2818.5002,101.0
2819.6277,80.0
2820.7556,116.0
2821.884,94.0
2823.0127,102.0
2824.1418,78.0
2825.2715,90.0
2826.4016,109.0
2827.5322,117.0
2828.6633,107.0
2829.7947,93.0
2830.9265,99.0
2832.0588,90.0
2833.1917,97.0
2834.325,79.0
2835.4587,81.0
2836.593,99.0
2837.7275,82.0
2838.8625,92.0
2839.998,90.0
2841.134,85.0
2842.2705,86.0
2843.4075,104.0
2844.545,95.0
2845.6829,98.0
2846.821,107.0
2847.9597,98.0
2849.0989,90.0
2850.2385,104.0
2851.3787,94.0
2852.5193,99.0
2853.6604,83.0
2854.8018,99.0
2855.9436,86.0
2857.086,118.0
2858.2288,145.0
2859.372,104.0
2860.5159,107.0
2861.6602,91.0
2862.805,104.0
2863.95,95.0
2865.0955,102.0
2866.2415,97.0
2867.388,109.0
2868.535,87.0
2869.6824,86.0
2870.8303,102.0
2871.9788,86.0
2873.1274,95.0
2874.2766,98.0
2875.4263,93.0
2876.5764,83.0
2877.727,107.0
2878.8782,79.0
2880.0298,86.0
2881.182,101.0
2882.3345,116.0
2883.4873,100.0
2884.6406,85.0
2885.7944,96.0
2886.9487,84.0
2888.1035,107.0
2889.2588,122.0
2890.4146,130.0
2891.5708,107.0
2892.7275,118.0
2893.8845,96.0
2895.042,86.0
2896.2,100.0
2897.3584,119.0
2898.5173,91.0
2899.6768,100.0
2900.8367,95.0
2901.997,76.0
2903.158,80.0
2904.3193,113.0
2905.481,115.0
2906.643,125.0
2907.8057,142.0
2908.9688,118.0
2910.1323,99.0
2911.2964,110.0
2912.461,110.0
2913.626,118.0
2914.7915,81.0
2915.9575,86.0
2917.124,91.0
2918.2908,91.0
2919.458,87.0
2920.6257,117.0
2921.794,173.0
2922.9626,176.0
2924.1318,159.0
2925.3015,143.0
2926.4717,139.0
2927.6423,112.0
2928.8135,106.0
2929.985,84.0
2931.157,103.0
2932.3293,108.0
2933.5022,90.0
2934.6755,109.0
2935.8494,94.0
2937.0237,77.0
2938.1985,85.0
2939.3738,116.0
2940.5496,94.0
2941.7258,98.0
2942.9026,109.0
2944.0798,120.0
2945.2576,123.0
2946.4358,111.0
2947.6143,92.0
2948.7932,108.0
2949.9727,121.0
2951.1526,117.0
2952.333,143.0
2953.514,108.0
2954.6953,110.0
2955.8772,97.0
2957.0596,85.0
2958.2424,87.0
2959.4258,120.0
2960.6096,115.0
2961.794,101.0
2962.9788,85.0
2964.164,84.0
2965.3496,95.0
2966.5356,100.0
2967.7222,91.0
2968.9092,83.0
2970.0967,103.0
2971.2847,111.0
2972.4731,114.0
2973.662,117.0
2974.8516,90.0
2976.0415,87.0
2977.232,104.0
2978.4229,136.0
2979.6143,98.0
2980.8062,103.0
2981.9985,78.0
2983.1914,94.0
2984.3848,114.0
2985.5786,102.0
2986.773,120.0
2987.9678,80.0
2989.1628,99.0
2990.3584,93.0
2991.5544,96.0
2992.751,80.0
2993.948,91.0
2995.1455,93.0
2996.3435,102.0
2997.542,101.0
2998.741,115.0
2999.9404,76.0
3001.1404,94.0
3002.3408,106.0
3003.5417,121.0
3004.7432,108.0
3005.945,95.0
3007.1475,126.0
3008.3503,106.0
3009.5537,111.0
3010.7576,105.0
3011.962,79.0
3013.1667,92.0
3014.372,96.0
3015.578,112.0
3016.7842,92.0
3017.991,81.0
3019.1982,92.0
3020.406,110.0
3021.6143,130.0
3022.823,124.0
3024.0322,93.0
3025.242,96.0
3026.4521,97.0
3027.6628,91.0
3028.874,105.0
3030.0857,99.0
3031.2976,113.0
3032.51,90.0
3033.723,111.0
3034.9363,106.0
3036.1501,102.0
3037.3645,110.0
3038.5793,111.0
3039.7947,102.0
3041.0105,79.0
3042.2268,101.0
3043.4436,104.0
3044.661,99.0
3045.8787,92.0
3047.097,81.0
3048.3157,93.0
3049.535,101.0
3050.7546,93.0
3051.9749,96.0
3053.1956,104.0
3054.4167,111.0
3055.6384,115.0
3056.8606,104.0
3058.0833,88.0
3059.3064,88.0
3060.53,102.0
3061.7542,94.0
3062.9788,93.0
3064.2039,123.0
3065.4294,117.0
3066.6555,108.0
3067.882,101.0
3069.1091,102.0
3070.3367,99.0
3071.5647,111.0
3072.7932,108.0
3074.0222,115.0
3075.2517,96.0
3076.4817,103.0
3077.7124,100.0
3078.9436,98.0
3080.1753,108.0
3081.4075,102.0
3082.6401,103.0
3083.8733,110.0
3085.107,109.0
3086.341,90.0
3087.5757,116.0
3088.8108,100.0
3090.0464,100.0
3091.2825,99.0
3092.519,88.0
3093.756,90.0
3094.9937,114.0
3096.2317,85.0
3097.4702,121.0
3098.7092,117.0
3099.9487,96.0
3101.1887,81.0
3102.4292,104.0
3103.6702,89.0
3104.9116,107.0
3106.1536,94.0
3107.396,105.0
3108.639,103.0
3109.8823,97.0
3111.1262,101.0
3112.3706,103.0
3113.6155,120.0
3114.8608,103.0
3116.1067,91.0
3117.353,90.0
3118.5999,120.0
3119.8474,117.0
3121.0955,88.0
3122.344,87.0
3123.593,119.0
3124.8425,102.0
3126.0925,98.0
3127.343,113.0
3128.594,114.0
3129.8455,98.0
3131.0974,93.0
3132.3499,102.0
3133.6028,113.0
3134.8562,105.0
3136.11,86.0
3137.3645,113.0
3138.6194,102.0
3139.8748,93.0
3141.1306,94.0
3142.387,111.0
3143.6438,104.0
3144.9014,97.0
3146.1594,134.0
3147.418,99.0
3148.677,84.0
3149.9365,96.0
3151.1965,97.0
3152.457,115.0
3153.718,95.0
3154.9795,107.0
3156.2415,108.0
3157.504,113.0
3158.7668,91.0
3160.0303,96.0
3161.2942,91.0
3162.5586,103.0
3163.8237,116.0
3165.0894,96.0
3166.3555,110.0
3167.622,104.0
3168.8892,86.0
3170.1567,106.0
3171.4248,109.0
3172.6934,122.0
3173.9624,90.0
3175.232,94.0
3176.502,89.0
3177.7725,98.0
3179.0435,92.0
3180.3152,107.0
3181.5874,127.0
3182.86,103.0
3184.1333,79.0
3185.407,114.0
3186.6812,111.0
3187.9558,103.0
3189.231,115.0
3190.5066,116.0
3191.7827,85.0
3193.0593,116.0
3194.3367,122.0
3195.6145,103.0
3196.8928,96.0
3198.1716,79.0
3199.451,107.0
3200.7307,119.0
3202.011,93.0
3203.2917,102.0
3204.573,132.0
3205.8547,101.0
3207.137,88.0
3208.42,112.0
3209.7034,130.0
3210.9873,106.0
3212.2717,91.0
3213.5566,127.0
3214.842,107.0
3216.128,100.0
3217.4143,118.0
3218.7012,102.0
3219.9888,79.0
3221.2769,90.0
3222.5654,97.0
3223.8545,111.0
3225.144,115.0
3226.434,130.0
3227.7246,99.0
3229.0156,116.0
3230.3071,108.0
3231.5994,113.0
3232.892,98.0
3234.1853,91.0
3235.479,116.0
3236.7732,120.0
3238.0679,95.0
3239.363,96.0
3240.6587,111.0
3241.9548,104.0
3243.2517,97.0
3244.549,105.0
3245.847,113.0
3247.1453,98.0
3248.444,107.0
3249.7434,104.0
3251.0432,79.0
3252.3438,104.0
3253.6448,120.0
3254.9463,105.0
3256.2483,91.0
3257.5508,108.0
3258.8538,95.0
3260.1572,85.0
3261.4612,93.0
3262.7659,107.0
3264.071,116.0
3265.3767,100.0
3266.6829,116.0
3267.9895,95.0
3269.2966,114.0
3270.6042,110.0
3271.9126,98.0
3273.2214,120.0
3274.5308,102.0
3275.8406,111.0
3277.151,115.0
3278.4617,106.0
3279.773,128.0
3281.085,102.0
3282.3975,90.0
3283.7104,102.0
3285.024,111.0
3286.338,100.0
3287.6523,104.0
3288.9673,108.0
3290.283,99.0
3291.599,124.0
3292.9158,103.0
3294.233,112.0
3295.5505,121.0
3296.8687,113.0
3298.1875,89.0
3299.5068,89.0
3300.8267,125.0
3302.147,104.0
3303.4678,122.0
3304.789,118.0
3306.111,95.0
3307.4336,117.0
3308.7566,105.0
3310.08,119.0
3311.404,106.0
3312.7285,114.0
3314.0537,103.0
3315.3794,92.0
3316.7056,115.0
3318.0322,103.0
3319.3594,90.0
3320.687,108.0
3322.0154,113.0
3323.3442,104.0
3324.6736,124.0
3326.0034,103.0
3327.3337,109.0
3328.6648,102.0
3329.9963,100.0
3331.3284,110.0
3332.661,116.0
3333.994,111.0
3335.3274,104.0
3336.6616,128.0
3337.9963,105.0
3339.3315,109.0
3340.6672,138.0
3342.0034,122.0
3343.3403,105.0
3344.6777,129.0
3346.0156,102.0
3347.354,100.0
3348.6929,99.0
3350.0322,112.0
3351.3723,123.0
3352.713,120.0
3354.054,108.0
3355.3955,110.0
3356.7375,112.0
3358.0803,104.0
3359.4236,108.0
3360.7673,108.0
3362.1116,116.0
3363.4563,106.0
3364.8018,101.0
3366.1477,100.0
3367.4941,119.0
3368.841,137.0
3370.1887,127.0
3371.5369,128.0
3372.8855,125.0
3374.2346,95.0
3375.5842,128.0
3376.9346,124.0
3378.2854,100.0
3379.6367,102.0
3380.9885,109.0
3382.3408,110.0
3383.6938,128.0
3385.0474,120.0
3386.4014,126.0
3387.7559,119.0
3389.1108,111.0
3390.4666,108.0
3391.8228,114.0
3393.1794,88.0
3394.5366,111.0
3395.8945,121.0
3397.253,99.0
3398.6118,121.0
3399.9712,110.0
3401.3313,132.0
3402.692,144.0
3404.053,109.0
3405.4146,137.0
3406.7766,124.0
3408.1394,110.0
3409.5027,110.0
3410.8665,112.0
3412.2307,120.0
3413.5957,133.0
3414.9612,102.0
3416.3271,130.0
3417.6936,117.0
3419.0608,99.0
3420.4285,135.0
3421.7966,144.0
3423.1653,107.0
3424.5347,114.0
3425.9045,104.0
3427.275,117.0
3428.6458,129.0
3430.017,125.0
3431.3892,110.0
3432.7617,134.0
3434.1348,115.0
3435.5083,130.0
3436.8826,124.0
3438.2573,120.0
3439.6326,138.0
3441.0083,104.0
3442.3848,107.0
3443.7617,116.0
3445.1392,123.0
3446.5173,117.0
3447.896,97.0
3449.2751,100.0
3450.6548,109.0
3452.0352,108.0
3453.416,101.0
3454.7974,112.0
3456.1792,122.0
3457.5618,97.0
3458.9448,103.0
3460.3284,125.0
3461.7124,120.0
3463.0972,107.0
3464.4824,136.0
3465.8682,121.0
3467.2544,120.0
3468.6414,126.0
3470.0288,101.0
3471.4167,112.0
3472.8054,119.0
3474.1946,125.0
3475.5842,140.0
3476.9744,126.0
3478.3652,122.0
3479.7566,111.0
3481.1484,117.0
3482.541,102.0
3483.934,113.0
3485.3276,119.0
3486.7217,129.0
3488.1165,124.0
3489.5117,122.0
3490.9075,121.0
3492.304,98.0
3493.701,120.0
3495.0984,112.0
3496.4963,140.0
3497.895,142.0
3499.2942,128.0
3500.6938,153.0
3502.0942,94.0
3503.495,121.0
3504.8965,129.0
3506.2983,109.0
3507.701,108.0
3509.104,147.0
3510.5076,142.0
3511.9119,145.0
3513.3167,124.0
3514.722,137.0
3516.128,132.0
3517.5344,128.0
3518.9414,131.0
3520.3489,125.0
3521.757,142.0
3523.1658,139.0
3524.575,155.0
3525.9849,108.0
3527.3953,121.0
3528.8062,146.0
3530.2178,159.0
3531.63,187.0
3533.0425,127.0
3534.4558,106.0
3535.8696,118.0
3537.284,120.0
3538.6987,122.0
3540.1143,102.0
3541.5303,120.0
3542.9468,117.0
3544.364,104.0
3545.7817,151.0
3547.2,98.0
3548.619,133.0
3550.0383,115.0
3551.4583,128.0
3552.879,136.0
3554.3,117.0
3555.7217,121.0
3557.144,136.0
3558.567,129.0
3559.9902,145.0
3561.4143,140.0
3562.8389,155.0
3564.264,131.0
3565.6897,144.0
3567.116,151.0
3568.5427,125.0
3569.9702,136.0
3571.3982,132.0
3572.8267,154.0
3574.2559,128.0
3575.6855,125.0
3577.1157,131.0
3578.5466,132.0
3579.978,173.0
3581.41,151.0
3582.8425,155.0
3584.2756,147.0
3585.7092,138.0
3587.1436,172.0
3588.5784,153.0
3590.014,144.0
3591.45,139.0
3592.8865,148.0
3594.3237,145.0
3595.7615,162.0
3597.1997,152.0
3598.6387,183.0
3600.0781,186.0
3601.518,207.0
3602.9587,160.0
3604.4,123.0
3605.8416,141.0
3607.284,180.0
3608.7268,212.0
3610.1704,177.0
3611.6145,150.0
3613.059,139.0
3614.5044,163.0
3615.9502,233.0
3617.3965,295.0
3618.8435,210.0
3620.291,148.0
3621.739,166.0
3623.1877,135.0
3624.637,126.0
3626.087,144.0
3627.5374,155.0
3628.9883,179.0
3630.44,158.0
3631.892,154.0
3633.3447,132.0
3634.798,180.0
3636.252,134.0
3637.7065,150.0
3639.1616,141.0
3640.6172,161.0
3642.0735,120.0
3643.5303,176.0
3644.9878,177.0
3646.4458,142.0
3647.9043,137.0
3649.3635,136.0
3650.8232,134.0
3652.2837,145.0
3653.7446,140.0
3655.206,128.0
3656.6682,157.0
3658.1309,153.0
3659.594,156.0
3661.0579,185.0
3662.5222,156.0
3663.9873,155.0
3665.453,157.0
3666.919,178.0
3668.3857,127.0
3669.853,141.0
3671.321,133.0
3672.7896,139.0
3674.2585,145.0
3675.7283,182.0
3677.1985,176.0
3678.6694,191.0
3680.1409,175.0
3681.613,182.0
3683.0857,163.0
3684.5588,148.0
3686.0327,163.0
3687.507,146.0
3688.9822,165.0
3690.4578,151.0
3691.9338,159.0
3693.4106,137.0
3694.888,137.0
3696.366,162.0
3697.8445,145.0
3699.3237,154.0
3700.8035,141.0
3702.2837,141.0
3703.7646,129.0
3705.246,132.0
3706.7283,158.0
3708.211,164.0
3709.6943,227.0
3711.1782,205.0
3712.6626,182.0
3714.1477,160.0
3715.6333,148.0
3717.1196,174.0
3718.6064,134.0
3720.094,148.0
3721.582,161.0
3723.0706,166.0
3724.5598,164.0
3726.0496,148.0
3727.54,158.0
3729.031,161.0
3730.5227,155.0
3732.015,180.0
3733.5078,217.0
3735.0012,265.0
3736.495,236.0
3737.9897,181.0
3739.4849,160.0
3740.9807,157.0
3742.477,176.0
3743.974,204.0
3745.4717,166.0
3746.97,171.0
3748.4688,168.0
3749.968,303.0
3751.468,537.0
3752.9685,623.0
3754.4697,375.0
3755.9714,280.0
3757.4739,188.0
3758.9768,181.0
3760.4805,162.0
3761.9846,168.0
3763.4895,153.0
3764.9949,154.0
3766.501,158.0
3768.0076,176.0
3769.515,170.0
3771.0227,161.0
3772.531,152.0
3774.04,200.0
3775.5496,180.0
3777.0598,191.0
3778.5706,164.0
3780.082,183.0
3781.594,193.0
3783.1067,245.0
3784.6199,246.0
3786.1338,244.0
3787.6482,181.0
3789.1633,149.0
3790.679,179.0
3792.1953,154.0
3793.7122,165.0
3795.2297,179.0
3796.7478,185.0
3798.2666,202.0
3799.786,192.0
3801.306,175.0
3802.8264,169.0
3804.3477,144.0
3805.8694,180.0
3807.3918,181.0
3808.9148,176.0
3810.4385,160.0
3811.9626,184.0
3813.4875,179.0
3815.013,222.0
3816.539,226.0
3818.0657,166.0
3819.593,155.0
3821.1208,159.0
3822.6494,160.0
3824.1785,159.0
3825.7083,160.0
3827.2385,154.0
3828.7695,160.0
3830.301,210.0
3831.8333,193.0
3833.366,185.0
3834.8994,181.0
3836.4333,153.0
3837.968,173.0
3839.5032,166.0
3841.039,195.0
3842.5754,154.0
3844.1125,186.0
3845.6501,187.0
3847.1885,206.0
3848.7273,245.0
3850.2668,232.0
3851.807,211.0
3853.3477,175.0
3854.889,182.0
3856.431,172.0
3857.9734,187.0
3859.5166,164.0
3861.0603,169.0
3862.6047,189.0
3864.1497,184.0
3865.6953,185.0
3867.2417,212.0
3868.7886,178.0
3870.3362,205.0
3871.8843,191.0
3873.433,180.0
3874.9824,179.0
3876.5325,153.0
3878.083,170.0
3879.6343,172.0
3881.186,191.0
3882.7385,184.0
3884.2915,216.0
3885.8452,200.0
3887.3997,180.0
3888.9546,164.0
3890.5103,150.0
3892.0664,172.0
3893.6233,158.0
3895.1807,181.0
3896.7388,156.0
3898.2974,171.0
3899.8567,219.0
3901.4167,208.0
3902.9773,211.0
3904.5386,184.0
3906.1003,173.0
3907.6628,170.0
3909.2258,157.0
3910.7896,153.0
3912.3538,161.0
3913.9187,200.0
3915.4844,172.0
3917.0505,169.0
3918.6174,182.0
3920.1848,152.0
3921.753,166.0
3923.3215,143.0
3924.8909,189.0
3926.461,165.0
3928.0315,144.0
3929.6028,165.0
3931.1746,147.0
3932.747,162.0
3934.32,184.0
3935.8938,176.0
3937.4683,156.0
3939.0432,154.0
3940.619,155.0
3942.195,166.0
3943.772,179.0
3945.3494,151.0
3946.9275,156.0
3948.5063,179.0
3950.0857,184.0
3951.6658,213.0
3953.2463,154.0
3954.8276,163.0
3956.4097,147.0
3957.9922,166.0
3959.5754,189.0
3961.1592,165.0
3962.7437,172.0
3964.3289,160.0
3965.9146,173.0
3967.501,157.0
3969.088,155.0
3970.6755,156.0
3972.264,138.0
3973.8528,172.0
3975.4424,133.0
3977.0325,179.0
3978.6233,195.0
3980.2148,163.0
3981.807,180.0
3983.3997,160.0
3984.993,151.0
3986.587,163.0
3988.1816,141.0
3989.7769,170.0
3991.3728,181.0
3992.9692,171.0
3994.5664,192.0
3996.1643,171.0
3997.7627,183.0
3999.3618,161.0
4000.9617,164.0
4002.562,220.0
4004.163,202.0
4005.7646,170.0
4007.367,172.0
4008.97,181.0
4010.5735,204.0
4012.1777,186.0
4013.7827,210.0
4015.3882,192.0
4016.9944,213.0
4018.601,190.0
4020.2085,221.0
4021.8167,223.0
4023.4253,202.0
4025.0347,200.0
4026.6448,192.0
4028.2554,238.0
4029.8667,224.0
4031.4788,241.0
4033.0913,197.0
4034.7046,217.0
4036.3184,262.0
4037.9329,306.0
4039.548,318.0
4041.1638,271.0
4042.7803,303.0
4044.3975,283.0
4046.0151,230.0
4047.6335,229.0
4049.2527,282.0
4050.8723,404.0
4052.4927,408.0
4054.1138,329.0
4055.7354,284.0
4057.3577,281.0
4058.9807,472.0
4060.6042,609.0
4062.2285,432.0
4063.8535,387.0
4065.479,311.0
4067.1052,330.0
4068.7322,371.0
4070.3596,366.0
4071.9878,455.0
4073.6167,419.0
4075.246,370.0
4076.8762,365.0
4078.507,373.0
4080.1384,434.0
4081.7705,536.0
4083.4033,488.0
4085.0366,607.0
4086.6707,653.0
4088.3054,515.0
4089.9407,304.0
4091.5767,317.0
4093.2134,936.0
4094.8506,1433.0
4096.489,847.0
4098.1274,428.0
4099.7666,307.0
4101.4067,1000.0
4103.0474,2962.0
4104.6885,2223.0
4106.3306,878.0
4107.973,414.0
4109.616,335.0
4111.2603,300.0
4112.905,332.0
4114.55,366.0
4116.196,322.0
4117.8423,250.0
4119.4893,165.0
4121.137,219.0
4122.7856,238.0
4124.4346,209.0
4126.0845,203.0
4127.735,187.0
4129.3857,180.0
4131.0376,182.0
4132.69,183.0
4134.343,191.0
4135.9966,192.0
4137.651,187.0
4139.306,178.0
4140.962,179.0
4142.618,180.0
4144.2754,198.0
4145.933,200.0
4147.5913,183.0
4149.2505,170.0
4150.91,192.0
4152.5703,182.0
4154.2314,215.0
4155.893,213.0
4157.5557,172.0
4159.2188,194.0
4160.8823,218.0
4162.547,186.0
4164.212,204.0
4165.8774,216.0
4167.544,220.0
4169.211,227.0
4170.8784,219.0
4172.547,200.0
4174.216,253.0
4175.8857,263.0
4177.556,219.0
4179.227,233.0
4180.899,215.0
4182.5713,221.0
4184.244,239.0
4185.918,200.0
4187.5923,227.0
4189.267,246.0
4190.943,214.0
4192.619,188.0
4194.2964,193.0
4195.974,231.0
4197.6523,281.0
4199.3315,221.0
4201.011,211.0
4202.6914,191.0
4204.3726,186.0
4206.054,194.0
4207.737,205.0
4209.42,190.0
4211.1035,188.0
4212.788,214.0
4214.473,182.0
4216.1587,215.0
4217.845,192.0
4219.532,203.0
4221.22,186.0
4222.9087,179.0
4224.5977,201.0
4226.2876,201.0
4227.978,220.0
4229.6694,205.0
4231.3613,173.0
4233.0537,242.0
4234.747,213.0
4236.441,194.0
4238.1353,179.0
4239.8306,205.0
4241.5264,213.0
4243.223,203.0
4244.9204,201.0
4246.618,210.0
4248.317,209.0
4250.016,252.0
4251.7163,188.0
4253.417,220.0
4255.118,227.0
4256.8203,222.0
4258.523,211.0
4260.2266,214.0
4261.9307,209.0
4263.6353,251.0
4265.341,231.0
4267.047,278.0
4268.754,329.0
4270.4614,243.0
4272.1694,268.0
4273.8784,184.0
4275.588,298.0
4277.2983,443.0
4279.0093,305.0
4280.7207,241.0
4282.433,212.0
4284.146,369.0
4285.86,778.0
4287.574,504.0
4289.289,333.0
4291.005,245.0
4292.721,218.0
4294.4385,194.0
4296.1562,219.0
4297.8745,275.0
4299.5938,295.0
4301.3135,201.0
4303.034,207.0
4304.7554,213.0
4306.477,194.0
4308.1997,185.0
4309.923,160.0
4311.647,203.0
4313.3716,207.0
4315.097,204.0
4316.823,172.0
4318.55,180.0
4320.2773,177.0
4322.0054,191.0
4323.7344,189.0
4325.464,167.0
4327.194,187.0
4328.925,223.0
4330.6562,187.0
4332.3887,168.0
4334.1216,211.0
4335.8555,194.0
4337.59,203.0
4339.3247,209.0
4341.0605,175.0
4342.797,192.0
4344.534,209.0
4346.272,167.0
4348.0103,188.0
4349.7495,197.0
4351.4893,192.0
4353.23,156.0
4354.971,179.0
4356.7134,234.0
4358.456,234.0
4360.199,224.0
4361.9434,227.0
4363.688,218.0
4365.4336,194.0
4367.1797,190.0
4368.927,197.0
4370.6743,212.0
4372.4224,191.0
4374.1714,204.0
4375.921,209.0
4377.6714,210.0
4379.4224,183.0
4381.1743,214.0
4382.927,193.0
4384.6797,208.0
4386.4336,208.0
4388.188,229.0
4389.9434,224.0
4391.699,212.0
4393.456,222.0
4395.2134,219.0
4396.9717,220.0
4398.7305,253.0
4400.4897,241.0
4402.25,234.0
4404.0107,258.0
4405.7725,201.0
4407.5347,317.0
4409.298,324.0
4411.0615,255.0
4412.826,226.0
4414.5913,222.0
4416.357,336.0
4418.1235,363.0
4419.8906,313.0
4421.6587,253.0
4423.4272,251.0
4425.197,260.0
4426.967,249.0
4428.738,287.0
4430.5093,296.0
4432.2812,250.0
4434.054,236.0
4435.8276,249.0
4437.602,313.0
4439.377,355.0
4441.153,336.0
4442.929,267.0
4444.7065,226.0
4446.4844,268.0
4448.263,249.0
4450.0425,262.0
4451.8223,295.0
4453.603,264.0
4455.3843,267.0
4457.1665,222.0
4458.949,321.0
4460.733,331.0
4462.517,274.0
4464.3022,226.0
4466.088,303.0
4467.8745,415.0
4469.6616,389.0
4471.4497,298.0
4473.2383,305.0
4475.0273,254.0
4476.8174,270.0
4478.608,248.0
4480.3994,297.0
4482.1914,307.0
4483.9844,308.0
4485.778,257.0
4487.5723,283.0
4489.367,296.0
4491.163,275.0
4492.9595,245.0
4494.757,229.0
4496.5547,289.0
4498.3535,338.0
4500.153,318.0
4501.953,276.0
4503.754,312.0
4505.555,276.0
4507.3574,268.0
4509.16,298.0
4510.964,247.0
4512.768,277.0
4514.573,313.0
4516.379,290.0
4518.1855,255.0
4519.9927,252.0
4521.801,351.0
4523.6094,328.0
4525.419,252.0
4527.229,213.0
4529.04,276.0
4530.8516,434.0
4532.664,391.0
4534.477,298.0
4536.291,211.0
4538.1055,254.0
4539.921,335.0
4541.737,237.0
4543.5537,216.0
4545.371,207.0
4547.1895,238.0
4549.0083,228.0
4550.828,210.0
4552.6484,207.0
4554.4697,214.0
4556.2915,199.0
4558.1143,211.0
4559.9375,166.0
4561.7617,222.0
4563.5864,213.0
4565.4116,203.0
4567.238,203.0
4569.0645,194.0
4570.892,230.0
4572.72,222.0
4574.5493,224.0
4576.379,206.0
4578.2095,202.0
4580.0405,235.0
4581.8726,221.0
4583.705,228.0
4585.5386,234.0
4587.3726,202.0
4589.2075,186.0
4591.043,247.0
4592.8794,253.0
4594.7163,269.0
4596.554,218.0
4598.3926,193.0
4600.232,257.0
4602.0723,247.0
4603.913,227.0
4605.755,186.0
4607.597,171.0
4609.4404,232.0
4611.284,225.0
4613.129,215.0
4614.974,223.0
4616.8203,234.0
4618.667,223.0
4620.5146,231.0
4622.363,252.0
4624.212,219.0
4626.0615,224.0
4627.912,221.0
4629.763,207.0
4631.615,243.0
4633.468,204.0
4635.3213,204.0
4637.1753,217.0
4639.0303,188.0
4640.8857,205.0
4642.742,214.0
4644.599,210.0
4646.457,215.0
4648.3154,227.0
4650.175,223.0
4652.0347,199.0
4653.8955,210.0
4655.757,214.0
4657.619,209.0
4659.4824,197.0
4661.346,227.0
4663.211,250.0
4665.076,218.0
4666.9424,240.0
4668.809,237.0
4670.677,238.0
4672.545,228.0
4674.414,186.0
4676.2837,193.0
4678.1543,257.0
4680.0254,226.0
4681.8975,242.0
4683.77,200.0
4685.6436,232.0
4687.5176,225.0
4689.3926,217.0
4691.2686,247.0
4693.145,193.0
4695.0225,278.0
4696.9004,230.0
4698.7793,194.0
4700.6587,188.0
4702.539,234.0
4704.42,222.0
4706.302,226.0
4708.184,188.0
4710.0674,220.0
4711.951,262.0
4713.836,223.0
4715.7217,217.0
4717.608,196.0
4719.495,178.0
4721.383,182.0
4723.2715,211.0
4725.1606,216.0
4727.051,232.0
4728.9414,219.0
4730.833,236.0
4732.725,196.0
4734.618,190.0
4736.512,176.0
4738.4067,150.0
4740.3022,182.0
4742.198,194.0
4744.095,210.0
4745.9927,210.0
4747.891,198.0
4749.79,196.0
4751.69,186.0
4753.591,205.0
4755.492,216.0
4757.3945,172.0
4759.2974,202.0
4761.201,188.0
4763.1055,184.0
4765.0107,186.0
4766.9165,185.0
4768.823,196.0
4770.731,190.0
4772.639,208.0
4774.5483,195.0
4776.458,163.0
4778.3687,171.0
4780.28,160.0
4782.192,156.0
4784.105,144.0
4786.0186,183.0
4787.933,184.0
4789.848,188.0
4791.764,194.0
4793.6807,157.0
4795.598,179.0
4797.5166,196.0
4799.4355,198.0
4801.3555,172.0
4803.276,152.0
4805.1973,147.0
4807.119,177.0
4809.042,180.0
4810.966,188.0
4812.89,189.0
4814.8154,183.0
4816.741,172.0
4818.668,172.0
4820.595,184.0
4822.5234,149.0
4824.4526,183.0
4826.3823,175.0
4828.313,174.0
4830.244,180.0
4832.1763,172.0
4834.1094,169.0
4836.043,184.0
4837.9775,163.0
4839.9126,162.0
4841.8486,165.0
4843.785,157.0
4845.7227,173.0
4847.661,165.0
4849.6,165.0
4851.54,163.0
4853.4805,175.0
4855.422,151.0
4857.3643,159.0
4859.307,172.0
4861.251,171.0
4863.1953,157.0
4865.1406,196.0
4867.087,174.0
4869.0337,157.0
4870.9814,199.0
4872.9297,184.0
4874.879,153.0
4876.829,162.0
4878.78,161.0
4880.7314,148.0
4882.6836,169.0
4884.6367,190.0
4886.5903,129.0
4888.545,151.0
4890.5005,152.0
4892.4565,149.0
4894.4136,177.0
4896.3716,142.0
4898.33,170.0
4900.2896,164.0
4902.2495,181.0
4904.2104,173.0
4906.1724,167.0
4908.135,164.0
4910.098,153.0
4912.062,187.0
4914.027,131.0
4915.9927,169.0
4917.959,172.0
4919.9263,199.0
4921.894,171.0
4923.863,174.0
4925.8325,165.0
4927.8027,178.0
4929.774,163.0
4931.7456,144.0
4933.7183,166.0
4935.692,201.0
4937.666,186.0
4939.641,141.0
4941.617,181.0
4943.5938,144.0
4945.5713,181.0
4947.5493,179.0
4949.5283,205.0
4951.5083,193.0
4953.489,186.0
4955.47,195.0
4957.4526,166.0
4959.4355,189.0
4961.4194,160.0
4963.404,180.0
4965.389,172.0
4967.3755,167.0
4969.3623,166.0
4971.35,173.0
4973.339,158.0
4975.328,199.0
4977.3184,190.0
4979.309,180.0
4981.301,182.0
4983.2935,176.0
4985.2866,184.0
4987.281,206.0
4989.276,201.0
4991.2715,184.0
4993.268,181.0
4995.265,202.0
4997.263,190.0
4999.262,174.0
5001.2617,177.0
5003.262,164.0
5005.2637,221.0
5007.2656,206.0
5009.2686,190.0
5011.2725,176.0
5013.277,200.0
5015.282,180.0
5017.2886,173.0
5019.2954,175.0
5021.303,192.0
5023.3115,199.0
5025.321,191.0
5027.331,184.0
5029.342,200.0
5031.3535,208.0
5033.366,189.0
5035.3794,183.0
5037.3936,179.0
5039.4087,162.0
5041.4243,200.0
5043.441,161.0
5045.4585,193.0
5047.4766,198.0
5049.4956,197.0
5051.5156,214.0
5053.536,197.0
5055.5576,166.0
5057.58,179.0
5059.603,179.0
5061.627,165.0
5063.6514,184.0
5065.677,173.0
5067.703,163.0
5069.73,178.0
5071.758,180.0
5073.7866,189.0
5075.816,206.0
5077.846,183.0
5079.8774,171.0
5081.909,185.0
5083.942,177.0
5085.9756,184.0
5088.01,197.0
5090.045,209.0
5092.081,187.0
5094.1177,167.0
5096.1553,170.0
5098.194,186.0
5100.233,173.0
5102.273,168.0
5104.314,190.0
5106.3555,232.0
5108.398,206.0
5110.4414,189.0
5112.4854,218.0
5114.5303,183.0
5116.576,183.0
5118.6226,183.0
5120.67,163.0
5122.7183,184.0
5124.7676,189.0
5126.8174,205.0
5128.868,212.0
5130.92,216.0
5132.972,204.0
5135.0254,210.0
5137.0796,206.0
5139.1343,199.0
5141.19,173.0
5143.2466,189.0
5145.3037,230.0
5147.362,242.0
5149.421,219.0
5151.4805,215.0
5153.541,204.0
5155.6025,180.0
5157.6646,209.0
5159.7275,200.0
5161.7915,166.0
5163.8564,189.0
5165.922,197.0
5167.9883,213.0
5170.0557,179.0
5172.1235,191.0
5174.1924,180.0
5176.262,173.0
5178.3325,199.0
5180.404,210.0
5182.476,183.0
5184.549,202.0
5186.6226,197.0
5188.6973,201.0
5190.773,164.0
5192.849,173.0
5194.9263,185.0
5197.0044,168.0
5199.083,184.0
5201.1626,213.0
5203.243,246.0
5205.324,201.0
5207.4062,197.0
5209.4893,199.0
5211.573,193.0
5213.6577,187.0
5215.743,184.0
5217.8296,192.0
5219.9165,233.0
5222.0044,257.0
5224.0933,205.0
5226.183,202.0
5228.2734,201.0
5230.3647,192.0
5232.457,197.0
5234.55,214.0
5236.6436,205.0
5238.7383,208.0
5240.834,211.0
5242.93,205.0
5245.0273,227.0
5247.1255,227.0
5249.224,216.0
5251.3237,216.0
5253.4243,224.0
5255.526,219.0
5257.628,197.0
5259.731,221.0
5261.835,208.0
5263.9395,197.0
5266.045,216.0
5268.1514,217.0
5270.259,217.0
5272.3667,208.0
5274.4756,218.0
5276.5854,226.0
5278.6963,231.0
5280.8076,220.0
5282.92,240.0
5285.033,224.0
5287.147,212.0
5289.2617,186.0
5291.3774,228.0
5293.494,187.0
5295.6113,216.0
5297.7295,209.0
5299.8486,271.0
5301.9688,257.0
5304.0894,230.0
5306.211,215.0
5308.3335,201.0
5310.457,196.0
5312.581,210.0
5314.706,198.0
5316.832,235.0
5318.959,313.0
5321.0864,261.0
5323.215,232.0
5325.344,211.0
5327.4746,224.0
5329.6055,190.0
5331.7373,215.0
5333.87,204.0
5336.004,224.0
5338.138,200.0
5340.2734,220.0
5342.4097,200.0
5344.547,192.0
5346.6846,239.0
5348.823,211.0
5350.963,197.0
5353.1035,219.0
5355.2446,187.0
5357.3867,210.0
5359.53,243.0
5361.674,256.0
5363.8184,241.0
5365.964,210.0
5368.1104,213.0
5370.258,216.0
5372.406,252.0
5374.5547,260.0
5376.7046,273.0
5378.8555,218.0
5381.007,242.0
5383.159,225.0
5385.3125,204.0
5387.467,218.0
5389.6216,259.0
5391.7773,278.0
5393.934,251.0
5396.092,204.0
5398.25,227.0
5400.409,230.0
5402.5693,223.0
5404.7305,211.0
5406.8926,255.0
5409.055,285.0
5411.2188,253.0
5413.3833,256.0
5415.549,251.0
5417.715,251.0
5419.882,204.0
5422.05,264.0
5424.2188,230.0
5426.3887,237.0
5428.559,255.0
5430.7305,225.0
5432.903,256.0
5435.076,215.0
5437.25,233.0
5439.425,236.0
5441.6006,262.0
5443.7773,239.0
5445.955,244.0
5448.1333,231.0
5450.3125,262.0
5452.4927,270.0
5454.674,226.0
5456.8555,230.0
5459.038,263.0
5461.2217,232.0
5463.4062,212.0
5465.592,214.0
5467.778,219.0
5469.965,251.0
5472.153,253.0
5474.342,252.0
5476.5317,235.0
5478.722,243.0
5480.9136,253.0
5483.106,238.0
5485.2993,271.0
5487.4937,251.0
5489.6885,258.0
5491.8843,250.0
5494.081,262.0
5496.279,245.0
5498.4775,235.0
5500.677,246.0
5502.877,284.0
5505.078,279.0
5507.2803,273.0
5509.4834,298.0
5511.687,282.0
5513.8916,241.0
5516.097,266.0
5518.3037,277.0
5520.511,267.0
5522.719,289.0
5524.928,249.0
5527.138,247.0
5529.349,236.0
5531.561,253.0
5533.7734,230.0
5535.987,263.0
5538.201,248.0
5540.4165,256.0
5542.633,255.0
5544.85,268.0
5547.068,259.0
5549.2866,268.0
5551.5063,257.0
5553.727,244.0
5555.9487,267.0
5558.171,238.0
5560.394,265.0
5562.618,272.0
5564.8433,284.0
5567.0693,283.0
5569.2964,261.0
5571.524,259.0
5573.7524,234.0
5575.982,234.0
5578.2124,232.0
5580.444,261.0
5582.676,271.0
5584.9087,271.0
5587.1426,241.0
5589.3774,217.0
5591.6133,244.0
5593.85,236.0
5596.0874,245.0
5598.3257,249.0
5600.565,271.0
5602.805,296.0
5605.0464,258.0
5607.2886,229.0
5609.5312,230.0
5611.775,241.0
5614.0195,238.0
5616.265,238.0
5618.5117,197.0
5620.7593,234.0
5623.008,247.0
5625.257,220.0
5627.507,191.0
5629.758,238.0
5632.01,249.0
5634.2627,210.0
5636.5166,236.0
5638.771,236.0
5641.0264,210.0
5643.2827,239.0
5645.54,247.0
5647.7983,252.0
5650.0576,271.0
5652.318,200.0
5654.5786,217.0
5656.8403,227.0
5659.103,230.0
5661.3667,234.0
5663.6313,235.0
5665.897,230.0
5668.1636,221.0
5670.4307,238.0
5672.6987,245.0
5674.968,258.0
5677.238,266.0
5679.509,241.0
5681.781,243.0
5684.0537,255.0
5686.327,229.0
5688.6016,239.0
5690.877,229.0
5693.1533,234.0
5695.4307,239.0
5697.709,214.0
5699.9883,240.0
5702.268,239.0
5704.549,265.0
5706.8306,244.0
5709.1133,229.0
5711.397,220.0
5713.6816,245.0
5715.9673,219.0
5718.254,260.0
5720.541,283.0
5722.829,271.0
5725.118,248.0
5727.408,233.0
5729.699,267.0
5731.991,257.0
5734.284,259.0
5736.578,277.0
5738.8726,271.0
5741.168,274.0
5743.4644,255.0
5745.7617,264.0
5748.06,242.0
5750.3594,278.0
5752.6597,248.0
5754.961,273.0
5757.2627,274.0
5759.5654,283.0
5761.869,263.0
5764.174,274.0
5766.4795,248.0
5768.786,270.0
5771.0938,295.0
5773.4023,288.0
5775.712,304.0
5778.022,296.0
5780.333,278.0
5782.645,255.0
5784.958,272.0
5787.272,297.0
5789.587,310.0
5791.903,298.0
5794.2197,302.0
5796.5376,302.0
5798.8564,300.0
5801.176,286.0
5803.496,306.0
5805.8174,331.0
5808.1396,317.0
5810.463,289.0
5812.787,326.0
5815.1123,334.0
5817.4385,303.0
5819.7656,333.0
5822.0938,358.0
5824.4224,330.0
5826.752,321.0
5829.0825,331.0
5831.414,384.0
5833.7466,344.0
5836.08,322.0
5838.4146,380.0
5840.75,411.0
5843.0864,364.0
5845.424,319.0
5847.762,349.0
5850.101,366.0
5852.441,331.0
5854.7817,312.0
5857.1235,332.0
5859.4663,304.0
5861.81,316.0
5864.155,337.0
5866.5005,312.0
5868.847,310.0
5871.195,344.0
5873.5435,334.0
5875.893,305.0
5878.2437,282.0
5880.5947,327.0
5882.947,325.0
5885.3,358.0
5887.654,336.0
5890.009,358.0
5892.3647,312.0
5894.7217,324.0
5897.0796,335.0
5899.4385,325.0
5901.7983,349.0
5904.159,360.0
5906.521,360.0
5908.884,363.0
5911.2476,363.0
5913.612,364.0
5915.977,372.0
5918.3433,364.0
5920.7104,359.0
5923.0786,335.0
5925.4478,334.0
5927.818,371.0
5930.189,336.0
5932.561,407.0
5934.934,348.0
5937.308,375.0
5939.683,359.0
5942.059,399.0
5944.436,349.0
5946.814,369.0
5949.193,351.0
5951.5728,377.0
5953.9536,366.0
5956.335,364.0
5958.7173,387.0
5961.1006,389.0
5963.485,374.0
5965.87,331.0
5968.2563,364.0
5970.6436,402.0
5973.0317,391.0
5975.421,406.0
5977.811,445.0
5980.202,409.0
5982.594,373.0
5984.9873,406.0
5987.3813,403.0
5989.7764,371.0
5992.1724,419.0
5994.5693,468.0
5996.9673,397.0
5999.366,392.0
6001.766,433.0
6004.167,453.0
6006.569,426.0
6008.9717,437.0
6011.3755,490.0
6013.7803,372.0
6016.1855,383.0
6018.592,441.0
6020.999,376.0
6023.407,373.0
6025.8164,349.0
6028.2266,399.0
6030.6377,394.0
6033.05,394.0
6035.463,398.0
6037.877,392.0
6040.292,411.0
6042.708,364.0
6045.125,411.0
6047.543,433.0
6049.962,376.0
6052.382,350.0
6054.8027,357.0
6057.2246,318.0
6059.6475,359.0
6062.0713,416.0
6064.496,472.0
6066.922,452.0
6069.3486,405.0
6071.7764,406.0
6074.205,383.0
6076.635,350.0
6079.0654,352.0
6081.497,365.0
6083.9297,406.0
6086.3633,379.0
6088.798,412.0
6091.2334,421.0
6093.67,375.0
6096.1074,371.0
6098.546,411.0
6100.9854,414.0
6103.426,425.0
6105.867,428.0
6108.3096,436.0
6110.753,406.0
6113.1973,420.0
6115.6426,458.0
6118.089,475.0
6120.536,418.0
6122.9844,438.0
6125.4336,397.0
6127.884,436.0
6130.335,494.0
6132.787,550.0
6135.24,572.0
6137.6943,493.0
6140.1494,420.0
6142.6055,472.0
6145.0625,512.0
6147.5205,574.0
6149.9795,619.0
6152.4395,554.0
6154.9004,533.0
6157.3623,546.0
6159.825,597.0
6162.289,519.0
6164.754,500.0
6167.2197,477.0
6169.6865,470.0
6172.1543,597.0
6174.623,848.0
6177.093,788.0
6179.5635,587.0
6182.035,535.0
6184.508,547.0
6186.9814,532.0
6189.456,601.0
6191.9316,876.0
6194.408,902.0
6196.8857,755.0
6199.3643,696.0
6201.844,632.0
6204.325,548.0
6206.807,515.0
6209.29,499.0
6211.774,474.0
6214.259,572.0
6216.7446,630.0
6219.2314,598.0
6221.719,526.0
6224.208,510.0
6226.6978,480.0
6229.1885,605.0
6231.68,747.0
6234.173,891.0
6236.6665,668.0
6239.161,602.0
6241.6567,522.0
6244.1533,474.0
6246.651,620.0
6249.1494,724.0
6251.649,629.0
6254.1494,629.0
6256.651,653.0
6259.1533,662.0
6261.6567,525.0
6264.1616,492.0
6266.6675,408.0
6269.1743,402.0
6271.682,749.0
6274.191,1013.0
6276.7007,830.0
6279.2114,569.0
6281.723,442.0
6284.236,390.0
6286.7495,434.0
6289.264,940.0
6291.78,1382.0
6294.2964,1070.0
6296.814,601.0
6299.3325,472.0
6301.852,499.0
6304.3726,402.0
6306.8945,425.0
6309.4175,466.0
6311.9414,443.0
6314.4663,430.0
6316.992,409.0
6319.519,403.0
6322.047,362.0
6324.5757,339.0
6327.1055,392.0
6329.636,397.0
6332.168,380.0
6334.7007,415.0
6337.2344,373.0
6339.769,445.0
6342.305,424.0
6344.8423,364.0
6347.3804,388.0
6349.9194,414.0
6352.4595,396.0
6355.0005,438.0
6357.5425,350.0
6360.0854,436.0
6362.6294,412.0
6365.1743,391.0
6367.72,440.0
6370.267,435.0
6372.8154,419.0
6375.3647,414.0
6377.915,424.0
6380.4663,399.0
6383.0186,464.0
6385.572,457.0
6388.126,471.0
6390.681,475.0
6393.2373,390.0
6395.7944,400.0
6398.3525,384.0
6400.912,440.0
6403.4727,535.0
6406.034,516.0
6408.5967,454.0
6411.16,436.0
6413.7246,412.0
6416.29,406.0
6418.8564,460.0
6421.424,448.0
6423.992,390.0
6426.562,447.0
6429.133,462.0
6431.7046,419.0
6434.2773,416.0
6436.851,471.0
6439.426,441.0
6442.0015,392.0
6444.578,456.0
6447.156,473.0
6449.735,450.0
6452.315,400.0
6454.896,426.0
6457.478,460.0
6460.061,382.0
6462.645,432.0
6465.23,415.0
6467.816,443.0
6470.403,418.0
6472.991,423.0
6475.5806,425.0
6478.171,401.0
6480.762,426.0
6483.3545,449.0
6485.9478,426.0
6488.542,406.0
6491.137,434.0
6493.734,456.0
6496.3315,470.0
6498.93,439.0
6501.53,421.0
6504.1304,463.0
6506.732,470.0
6509.3345,464.0
6511.938,453.0
6514.543,486.0
6517.149,492.0
6519.756,460.0
6522.364,474.0
6524.9727,508.0
6527.5825,473.0
6530.1934,511.0
6532.8057,488.0
6535.419,470.0
6538.033,432.0
6540.6484,551.0
6543.2646,538.0
6545.882,519.0
6548.5,535.0
6551.1196,520.0
6553.74,492.0
6556.362,566.0
6558.9844,624.0
6561.608,529.0
6564.2324,539.0
6566.858,493.0
6569.485,482.0
6572.113,511.0
6574.7417,549.0
6577.3716,552.0
6580.0024,568.0
6582.6343,505.0
6585.267,486.0
6587.9014,481.0
6590.5366,518.0
6593.173,592.0
6595.81,591.0
6598.448,534.0
6601.0874,501.0
6603.728,496.0
6606.3696,526.0
6609.012,525.0
6611.656,550.0
6614.3003,552.0
6616.946,520.0
6619.593,522.0
6622.2407,548.0
6624.8896,551.0
6627.5396,536.0
6630.1904,490.0
6632.8423,421.0
6635.4956,500.0
6638.15,578.0
6640.805,641.0
6643.4614,520.0
6646.1187,494.0
6648.7773,517.0
6651.437,411.0
6654.0977,509.0
6656.7593,620.0
6659.422,586.0
6662.0854,529.0
6664.7505,520.0
6667.4165,459.0
6670.0835,444.0
6672.7515,449.0
6675.4204,451.0
6678.091,479.0
6680.762,470.0
6683.4346,495.0
6686.108,415.0
6688.782,415.0
6691.4575,450.0
6694.1343,488.0
6696.812,536.0
6699.4907,511.0
6702.1704,470.0
6704.851,487.0
6707.533,476.0
6710.2163,452.0
6712.9004,489.0
6715.5854,515.0
6718.2715,475.0
6720.959,481.0
6723.6475,587.0
6726.337,505.0
6729.0273,452.0
6731.7188,463.0
6734.4116,458.0
6737.1055,471.0
6739.8003,573.0
6742.496,647.0
6745.193,566.0
6747.891,484.0
6750.5903,502.0
6753.2905,488.0
6755.9917,556.0
6758.6943,685.0
6761.398,603.0
6764.1025,557.0
6766.808,570.0
6769.5146,528.0
6772.2227,478.0
6774.9316,544.0
6777.6416,603.0
6780.3525,596.0
6783.0645,581.0
6785.778,594.0
6788.492,578.0
6791.2075,578.0
6793.924,587.0
6796.6416,442.0
6799.3604,541.0
6802.08,519.0
6804.801,536.0
6807.5225,617.0
6810.2456,698.0
6812.9697,517.0
6815.695,479.0
6818.421,414.0
6821.1484,501.0
6823.877,701.0
6826.6064,767.0
6829.337,578.0
6832.069,426.0
6834.802,428.0
6837.5356,423.0
6840.2705,553.0
6843.007,742.0
6845.744,679.0
6848.4824,483.0
6851.2217,459.0
6853.9624,450.0
6856.704,528.0
6859.447,547.0
6862.1904,545.0
6864.9355,468.0
6867.6816,430.0
6870.4287,474.0
6873.177,447.0
6875.9263,441.0
6878.677,423.0
6881.428,411.0
6884.1807,462.0
6886.9346,504.0
6889.6895,419.0
6892.4453,438.0
6895.202,476.0
6897.9604,476.0
6900.7197,461.0
6903.48,495.0
6906.241,445.0
6909.004,438.0
6911.7676,476.0
6914.532,512.0
6917.298,491.0
6920.065,478.0
6922.833,474.0
6925.602,452.0
6928.372,507.0
6931.1436,538.0
6933.916,482.0
6936.6895,475.0
6939.4644,498.0
6942.24,434.0
6945.017,502.0
6947.795,535.0
6950.574,525.0
6953.3545,542.0
6956.1357,538.0
6958.918,502.0
6961.7017,440.0
6964.4863,492.0
6967.272,502.0
6970.059,458.0
6972.847,459.0
6975.636,526.0
6978.4263,552.0
6981.218,615.0
6984.0103,564.0
6986.8037,526.0
6989.5986,495.0
6992.3945,559.0
6995.1914,571.0
6997.9893,614.0
7000.7886,670.0
7003.589,601.0
7006.39,588.0
7009.193,540.0
7011.9966,564.0
7014.8013,546.0
7017.6074,667.0
7020.4146,664.0
7023.2227,673.0
7026.0317,813.0
7028.8423,681.0
7031.654,611.0
7034.4663,518.0
7037.2803,519.0
7040.095,639.0
7042.911,956.0
7045.7285,820.0
7048.547,617.0
7051.366,502.0
7054.1865,482.0
7057.0083,680.0
7059.831,1233.0
7062.655,1083.0
7065.48,743.0
7068.306,583.0
7071.1333,527.0
7073.962,472.0
7076.7915,518.0
7079.622,523.0
7082.454,531.0
7085.287,566.0
7088.121,529.0
7090.9565,532.0
7093.793,556.0
7096.6304,637.0
7099.469,604.0
7102.309,489.0
7105.15,546.0
7107.992,595.0
7110.8354,588.0
7113.6797,688.0
7116.5254,649.0
7119.372,620.0
7122.2197,682.0
7125.069,778.0
7127.919,741.0
7130.77,680.0
7133.6226,593.0
7136.476,591.0
7139.3306,842.0
7142.1865,913.0
7145.0435,731.0
7147.9014,692.0
7150.7607,690.0
7153.621,796.0
7156.4824,986.0
7159.345,1108.0
7162.209,836.0
7165.0737,738.0
7167.94,847.0
7170.807,935.0
7173.6753,918.0
7176.545,803.0
7179.4155,788.0
7182.287,754.0
7185.16,777.0
7188.034,799.0
7190.909,922.0
7193.7856,761.0
7196.663,989.0
7199.542,1086.0
7202.422,857.0
7205.3027,609.0
7208.185,535.0
7211.0684,646.0
7213.9526,1360.0
7216.8384,1374.0
7219.725,808.0
7222.613,512.0
7225.502,625.0
7228.392,755.0
7231.283,1868.0
7234.176,2065.0
7237.0693,1116.0
7239.9644,642.0
7242.8604,546.0
7245.7573,503.0
7248.656,534.0
7251.555,508.0
7254.4556,548.0
7257.3574,588.0
7260.2603,493.0
7263.1646,433.0
7266.07,492.0
7268.976,483.0
7271.884,578.0
7274.7925,482.0
7277.7026,514.0
7280.614,471.0
7283.526,525.0
7286.4395,584.0
7289.354,524.0
7292.2695,508.0
7295.1865,564.0
7298.1045,544.0
7301.024,484.0
7303.9443,455.0
7306.8657,428.0
7309.7886,528.0
7312.7124,723.0
7315.6377,644.0
7318.564,437.0
7321.491,415.0
7324.42,435.0
7327.3496,588.0
7330.281,803.0
7333.213,752.0
7336.146,542.0
7339.0806,469.0
7342.016,461.0
7344.953,517.0
7347.891,552.0
7350.83,484.0
7353.7705,464.0
7356.712,453.0
7359.655,458.0
7362.5986,435.0
7365.5435,436.0
7368.4897,427.0
7371.437,477.0
7374.3857,495.0
7377.3354,494.0
7380.2866,498.0
7383.239,508.0
7386.192,468.0
7389.1465,461.0
7392.102,459.0
7395.059,440.0
7398.017,534.0
7400.976,592.0
7403.9365,528.0
7406.898,479.0
7409.861,434.0
7412.8247,405.0
7415.79,550.0
7418.7563,564.0
7421.7236,570.0
7424.6924,501.0
7427.662,381.0
7430.6333,404.0
7433.6055,543.0
7436.579,563.0
7439.5537,491.0
7442.5293,496.0
7445.5063,419.0
7448.4844,419.0
7451.464,433.0
7454.4443,428.0
7457.4263,381.0
7460.409,381.0
7463.3936,365.0
7466.379,404.0
7469.365,480.0
7472.353,380.0
7475.342,376.0
7478.332,333.0
7481.323,386.0
7484.316,614.0
7487.3096,621.0
7490.3047,426.0
7493.301,348.0
7496.2983,340.0
7499.297,378.0
7502.2964,416.0
7505.2974,413.0
7508.2993,362.0
7511.3027,382.0
7514.307,344.0
7517.313,322.0
7520.32,369.0
7523.328,360.0
7526.3374,368.0
7529.348,387.0
7532.36,353.0
7535.373,339.0
7538.387,351.0
7541.4023,342.0
7544.419,398.0
7547.4365,423.0
7550.4556,373.0
7553.4756,343.0
7556.497,346.0
7559.5195,341.0
7562.5435,467.0
7565.5684,462.0
7568.5947,349.0
7571.622,366.0
7574.651,384.0
7577.6807,329.0
7580.712,367.0
7583.744,385.0
7586.778,348.0
7589.8125,348.0
7592.8486,315.0
7595.8857,372.0
7598.9243,393.0
7601.964,370.0
7605.005,352.0
7608.047,309.0
7611.0903,312.0
7614.135,351.0
7617.18,437.0
7620.227,419.0
7623.275,326.0
7626.324,357.0
7629.3745,299.0
7632.4263,369.0
7635.479,344.0
7638.533,349.0
7641.5884,341.0
7644.645,351.0
7647.7026,312.0
7650.7617,331.0
7653.8223,344.0
7656.884,311.0
7659.947,339.0
7663.0107,334.0
7666.076,367.0
7669.1426,329.0
7672.2104,333.0
7675.2793,374.0
7678.3496,396.0
7681.421,360.0
7684.4937,342.0
7687.5674,351.0
7690.6426,349.0
7693.7188,379.0
7696.7964,364.0
7699.875,377.0
7702.955,394.0
7706.036,431.0
7709.1187,410.0
7712.202,428.0
7715.287,404.0
7718.373,413.0
7721.4604,406.0
7724.549,435.0
7727.6387,454.0
7730.7295,425.0
7733.822,391.0
7736.9155,395.0
7740.0103,420.0
7743.1064,462.0
7746.2036,512.0
7749.3022,463.0
7752.402,502.0
7755.503,504.0
7758.605,478.0
7761.7085,460.0
7764.813,443.0
7767.919,490.0
7771.026,524.0
7774.1343,559.0
7777.244,474.0
7780.355,458.0
7783.4673,456.0
7786.5806,584.0
7789.6953,677.0
7792.811,652.0
7795.928,567.0
7799.0464,510.0
7802.166,485.0
7805.287,502.0
7808.409,541.0
7811.5327,562.0
7814.657,538.0
7817.783,483.0
7820.91,426.0
7824.0386,468.0
7827.168,610.0
7830.299,617.0
7833.431,530.0
7836.5645,486.0
7839.699,502.0
7842.835,539.0
7845.972,689.0
7849.1104,603.0
7852.25,559.0
7855.391,517.0
7858.533,560.0
7861.677,527.0
7864.8213,554.0
7867.9673,537.0
7871.1143,538.0
7874.2627,532.0
7877.4126,572.0
7880.5635,531.0
7883.716,654.0
7886.869,604.0
7890.024,541.0
7893.18,531.0
7896.3374,568.0
7899.496,750.0
7902.656,700.0
7905.817,714.0
7908.979,599.0
7912.1426,606.0
7915.3076,738.0
7918.4736,990.0
7921.641,796.0
7924.8096,708.0
7927.9795,710.0
7931.151,657.0
7934.323,663.0
7937.497,725.0
7940.672,777.0
7943.848,793.0
7947.026,740.0
7950.2046,760.0
7953.385,831.0
7956.566,873.0
7959.7485,790.0
7962.9326,873.0
7966.1177,838.0
7969.304,1006.0
7972.4917,1009.0
7975.6807,983.0
7978.871,926.0
7982.0625,1002.0
7985.2554,1118.0
7988.4497,1304.0
7991.645,1220.0
7994.842,1210.0
7998.0396,1131.0
8001.239,1173.0
8004.4395,1451.0
8007.641,1513.0
8010.844,1436.0
8014.0483,1410.0
8017.254,1421.0
8020.461,1486.0
8023.669,1519.0
8026.8784,1442.0
8030.0894,1483.0
8033.3013,1670.0
8036.5146,1935.0
8039.7295,2088.0
8042.9453,2026.0
8046.1626,1758.0
8049.381,1799.0
8052.6006,2205.0
8055.822,2684.0
8059.044,2656.0
8062.2676,2191.0
8065.4927,2356.0
8068.7188,2529.0
8071.9463,2916.0
8075.1753,3105.0
8078.4053,3023.0
8081.6367,3140.0
8084.869,3983.0
8088.103,3359.0
8091.3384,2730.0
8094.5747,2399.0
8097.8125,3519.0
8101.052,5543.0
8104.292,4949.0
8107.5337,3850.0
8110.777,3312.0
8114.021,3203.0
8117.2666,6400.0
8120.5137,7915.0
8123.7617,6050.0
8127.011,5315.0
8130.262,4234.0
8133.514,4151.0
8136.7676,4717.0
8140.0225,5420.0
8143.2783,7091.0
8146.5356,6583.0
8149.7944,4831.0
8153.054,5945.0
8156.3154,5545.0
8159.578,6072.0
8162.842,7370.0
8166.107,6664.0
8169.3735,10562.0
8172.641,10316.0
8175.91,5867.0
8179.1807,3267.0
8182.452,3727.0
8185.725,15083.0
8188.9995,20504.0
8192.275,9440.0
8195.553,3862.0
8198.831,2957.0
8202.11,14577.0
8205.392,38039.0
8208.674,22911.0
8211.957,7645.0
8215.242,3167.0
8218.528,2213.0
8221.815,2040.0
8225.1045,2602.0
8228.395,3174.0
8231.686,2284.0
8234.979,1438.0
8238.272,1094.0
8241.567,1154.0
8244.864,1411.0
8248.162,1313.0
8251.461,1072.0
8254.762,882.0
8258.063,874.0
8261.367,1033.0
8264.672,1079.0
8267.978,1088.0
8271.285,993.0
8274.594,983.0
8277.903,901.0
8281.215,806.0
8284.527,873.0
8287.841,1022.0
8291.156,1039.0
8294.473,904.0
8297.79,840.0
8301.109,909.0
8304.43,982.0
8307.751,1059.0
8311.074,982.0
8314.398,1102.0
8317.725,983.0
8321.052,880.0
8324.38,818.0
8327.71,944.0
8331.041,1266.0
8334.373,1183.0
8337.707,927.0
8341.042,891.0
8344.378,909.0
8347.716,1328.0
8351.055,1487.0
8354.3955,1097.0
8357.737,1053.0
8361.08,989.0
8364.425,788.0
8367.7705,745.0
8371.117,807.0
8374.466,1098.0
8377.815,1147.0
8381.167,859.0
8384.52,686.0
8387.873,693.0
8391.229,976.0
8394.585,1154.0
8397.942,851.0
8401.302,648.0
8404.662,662.0
8408.024,789.0
8411.388,758.0
8414.752,646.0
8418.118,660.0
8421.485,594.0
8424.854,586.0
8428.224,594.0
8431.595,599.0
8434.968,629.0
8438.342,602.0
8441.717,586.0
8445.094,627.0
8448.472,723.0
8451.851,640.0
8455.231,658.0
8458.613,677.0
8461.997,700.0
8465.382,819.0
8468.768,836.0
8472.155,862.0
8475.544,808.0
8478.935,820.0
8482.326,762.0
8485.719,935.0
8489.113,1025.0
8492.509,1117.0
8495.906,1017.0
8499.305,946.0
8502.704,1053.0
8506.105,1220.0
8509.508,1386.0
8512.911,1270.0
8516.316,1315.0
8519.723,1410.0
8523.131,1320.0
8526.54,1488.0
8529.95,1500.0
8533.362,2011.0
8536.775,2556.0
8540.19,1731.0
8543.606,1113.0
8547.023,934.0
8550.442,2460.0
8553.862,3738.0
8557.284,2200.0
8560.707,1277.0
8564.131,1091.0
8567.557,3244.0
8570.983,5974.0
8574.412,3713.0
8577.842,1877.0
8581.272,1208.0
8584.705,860.0
8588.139,717.0
8591.574,1012.0
8595.011,1422.0
8598.449,1269.0
8601.889,785.0
8605.329,656.0
8608.771,621.0
8612.215,599.0
8615.66,563.0
8619.106,544.0
8622.554,637.0
8626.003,570.0
8629.453,510.0
8632.905,530.0
8636.358,573.0
8639.8125,582.0
8643.269,629.0
8646.726,548.0
8650.185,523.0
8653.645,594.0
8657.106,566.0
8660.569,570.0
8664.033,564.0
8667.499,615.0
8670.966,657.0
8674.435,643.0
8677.904,690.0
8681.375,697.0
8684.848,678.0
8688.321,633.0
8691.797,667.0
8695.273,826.0
8698.752,781.0
8702.231,720.0
8705.712,735.0
8709.194,774.0
8712.678,852.0
8716.163,915.0
8719.649,856.0
8723.138,874.0
8726.627,888.0
8730.117,901.0
8733.609,922.0
8737.103,979.0
8740.598,1023.0
8744.094,953.0
8747.592,941.0
8751.091,1085.0
8754.591,1208.0
8758.093,1172.0
8761.596,1090.0
8765.101,1183.0
8768.606,1217.0
8772.114,1411.0
8775.623,1383.0
8779.133,1362.0
8782.645,1403.0
8786.157,1297.0
8789.672,1326.0
8793.1875,1514.0
8796.705,1826.0
8800.224,2086.0
8803.744,1452.0
8807.266,1243.0
8810.788,1382.0
8814.3125,2486.0
8817.838,2858.0
8821.365,1830.0
8824.894,1519.0
8828.424,1565.0
8831.955,2814.0
8835.488,3155.0
8839.022,2158.0
8842.558,1880.0
8846.095,1524.0
8849.633,1421.0
8853.173,1393.0
8856.714,1964.0
8860.257,2446.0
8863.801,1788.0
8867.347,1568.0
8870.894,1501.0
8874.442,2207.0
8877.992,3031.0
8881.543,2401.0
8885.096,1886.0
8888.649,1562.0
8892.205,1614.0
8895.762,1714.0
8899.32,1980.0
8902.88,2139.0
8906.441,1691.0
8910.004,1575.0
8913.568,1624.0
8917.134,2279.0
8920.7,2237.0
8924.269,1777.0
8927.838,1749.0
8931.409,1860.0
8934.981,2723.0
8938.556,2403.0
8942.131,1980.0
8945.708,1790.0
8949.286,1510.0
8952.866,1353.0
8956.447,1462.0
8960.03,1900.0
8963.614,1858.0
8967.199,1483.0
8970.786,1206.0
8974.374,1402.0
8977.964,1803.0
8981.555,1593.0
8985.147,1257.0
8988.741,1295.0
8992.337,1519.0
8995.934,1729.0
8999.532,1616.0
9003.132,1283.0
9006.733,1361.0
9010.336,1578.0
9013.94,1463.0
9017.546,1369.0
9021.153,1226.0
9024.762,1614.0
9028.372,1707.0
9031.983,1332.0
9035.597,1018.0
9039.211,1164.0
9042.826,1666.0
9046.443,1530.0
9050.062,1045.0
9053.682,901.0
9057.303,1392.0
9060.926,2223.0
9064.55,1718.0
9068.176,1012.0
9071.803,841.0
9075.432,1123.0
9079.062,1388.0
9082.693,1101.0
9086.326,826.0
9089.961,853.0
9093.597,889.0
9097.234,1015.0
9100.873,812.0
9104.514,758.0
9108.155,829.0
9111.799,641.0
9115.443,596.0
9119.09,771.0
9122.737,921.0
9126.387,757.0
9130.037,671.0
9133.689,653.0
9137.343,895.0
9140.998,917.0
9144.654,785.0
9148.3125,747.0
9151.972,671.0
9155.633,704.0
9159.295,657.0
9162.959,864.0
9166.624,975.0
9170.291,689.0
9173.959,581.0
9177.629,655.0
9181.3,1127.0
9184.973,1075.0
9188.646,795.0
9192.322,619.0
9195.999,752.0
9199.678,1077.0
9203.357,886.0
9207.039,742.0
9210.722,589.0
9214.406,468.0
9218.092,452.0
9221.779,604.0
9225.468,806.0
9229.158,683.0
9232.85,492.0
9236.543,424.0
9240.237,677.0
9243.934,927.0
9247.631,679.0
9251.33,527.0
9255.03,333.0
9258.732,294.0
9262.436,365.0
9266.141,409.0
9269.847,415.0
9273.555,297.0
9277.264,297.0
9280.975,364.0
9284.687,361.0
9288.4,327.0
9292.116,323.0
9295.833,276.0
9299.552,295.0
9303.271,330.0
9306.993,274.0
9310.716,314.0
9314.44,309.0
9318.166,254.0
9321.894,282.0
9325.622,288.0
9329.353,287.0
9333.084,248.0
9336.817,259.0
9340.552,233.0
9344.288,262.0
9348.025,261.0
9351.765,278.0
9355.505,239.0
9359.247,234.0
9362.991,233.0
9366.736,246.0
9370.483,246.0
9374.231,253.0
9377.981,239.0
9381.732,249.0
9385.485,248.0
9389.239,239.0
9392.995,231.0
9396.752,255.0
9400.511,251.0
9404.2705,195.0
9408.032,231.0
9411.796,226.0
9415.561,232.0
9419.327,216.0
9423.095,219.0
9426.864,259.0
9430.635,236.0
9434.407,210.0
9438.181,231.0
9441.956,250.0
9445.732,297.0
9449.511,243.0
9453.291,196.0
9457.072,205.0
9460.855,262.0
9464.64,274.0
9468.426,204.0
9472.213,212.0
9476.002,197.0
9479.792,197.0
9483.584,185.0
9487.377,258.0
9491.172,220.0
9494.969,206.0
9498.767,186.0
9502.566,219.0
9506.367,268.0
9510.17,233.0
9513.974,200.0
9517.779,199.0
9521.586,193.0
9525.395,213.0
9529.205,212.0
9533.017,220.0
9536.83,163.0
9540.645,157.0
9544.461,173.0
9548.278,265.0
9552.098,217.0
9555.919,169.0
9559.741,157.0
9563.565,199.0
9567.391,190.0
9571.218,182.0
9575.046,199.0
9578.876,142.0
9582.708,147.0
9586.541,158.0
9590.376,191.0
9594.212,173.0
9598.05,145.0
9601.889,144.0
9605.7295,158.0
9609.572,155.0
9613.416,145.0
9617.262,159.0
9621.108,154.0
9624.957,127.0
9628.807,172.0
9632.658,155.0
9636.512,145.0
9640.366,151.0
9644.223,133.0
9648.08,148.0
9651.939,139.0
9655.8,160.0
9659.662,139.0
9663.526,134.0
9667.392,143.0
9671.259,132.0
9675.127,145.0
9678.997,161.0
9682.869,138.0
9686.742,158.0
9690.617,124.0
9694.493,124.0
9698.371,133.0
9702.25,129.0
9706.131,146.0
9710.014,147.0
9713.897,110.0
9717.783,127.0
9721.67,114.0
9725.559,112.0
9729.449,140.0
9733.341,106.0
9737.234,127.0
9741.129,129.0
9745.025,136.0
9748.924,121.0
9752.823,118.0
9756.725,140.0
9760.627,120.0
9764.531,108.0
9768.4375,112.0
9772.345,137.0
9776.254,137.0
9780.164,133.0
9784.076,121.0
9787.99,128.0
9791.905,137.0
9795.822,119.0
9799.74,106.0
9803.66,143.0
9807.582,130.0
9811.505,141.0
9815.43,128.0
9819.355,160.0
9823.283,127.0
9827.213,143.0
9831.144,127.0
9835.076,147.0
9839.01,137.0
9842.945,145.0
9846.883,158.0
9850.821,146.0
9854.762,138.0
9858.704,119.0
9862.647,134.0
9866.593,128.0
9870.539,148.0
9874.487,108.0
9878.4375,135.0
9882.389,134.0
9886.342,143.0
9890.296,115.0
9894.252,137.0
9898.21,151.0
9902.169,167.0
9906.13,122.0
9910.093,143.0
9914.057,142.0
9918.022,150.0
9921.989,147.0
9925.958,130.0
9929.929,139.0
9933.9,130.0
9937.874,130.0
9941.85,119.0
9945.826,145.0
9949.805,146.0
9953.784,106.0
9957.766,126.0
9961.749,131.0
9965.733,125.0
9969.72,124.0
9973.708,126.0
9977.697,142.0
9981.688,113.0
9985.681,141.0
9989.675,115.0
9993.671,123.0
9997.668,142.0
10001.667,135.0
10005.668,141.0
10009.67,122.0
10013.674,124.0
10017.68,127.0
10021.687,123.0
10025.695,126.0
10029.706,137.0
10033.718,120.0
10037.731,136.0
10041.746,130.0
10045.763,107.0
10049.781,135.0
10053.801,113.0
10057.822,116.0
10061.846,133.0
10065.87,130.0
10069.896,135.0
10073.925,135.0
10077.954,122.0
10081.985,137.0
10086.019,144.0
10090.053,133.0
10094.089,147.0
10098.127,145.0
10102.166,125.0
10106.207,122.0
10110.25,132.0
10114.294,136.0
10118.34,128.0
10122.387,138.0
10126.436,128.0
10130.486,130.0
10134.538,129.0
10138.592,145.0
10142.647,131.0
10146.704,152.0
10150.763,144.0
10154.823,133.0
10158.885,131.0
10162.948,124.0
10167.014,137.0
10171.08,129.0
10175.148,143.0
10179.219,134.0
10183.29,152.0
10187.363,155.0
10191.438,117.0
10195.515,130.0
10199.593,128.0
10203.673,123.0
10207.754,131.0
10211.837,161.0
10215.922,154.0
10220.008,144.0
10224.096,144.0
10228.186,127.0
10232.276,147.0
10236.369,148.0
10240.464,135.0
10244.56,154.0
10248.657,165.0
10252.757,142.0
10256.858,127.0
10260.961,142.0
10265.065,120.0
10269.172,145.0
10273.279,147.0
10277.389,124.0
10281.5,130.0
10285.612,153.0
10289.727,128.0
10293.843,130.0
10297.96,160.0
10302.079,134.0
10306.2,154.0
10310.322,135.0
10314.446,151.0
10318.572,162.0
10322.699,138.0
10326.828,170.0
10330.959,152.0
10335.092,152.0
10339.226,139.0
10343.361,153.0
10347.499,163.0
10351.638,168.0
10355.778,150.0
10359.921,179.0
10364.064,116.0
10368.21,150.0
10372.357,164.0
10376.507,159.0
10380.657,134.0
10384.81,132.0
10388.964,153.0
10393.119,172.0
10397.276,164.0
10401.436,146.0
10405.596,152.0
10409.758,168.0
10413.922,122.0
10418.088,127.0
10422.255,135.0
10426.424,134.0
10430.595,146.0
10434.767,141.0
10438.94,155.0
10443.116,143.0
10447.294,152.0
10451.473,138.0
10455.653,146.0
10459.836,134.0
10464.02,158.0
10468.205,133.0
10472.393,144.0
10476.581,139.0
10480.771,156.0
10484.964,148.0
10489.158,158.0
10493.354,146.0
10497.551,156.0
10501.75,149.0
10505.951,149.0
10510.153,154.0
10514.357,152.0
10518.563,144.0
10522.7705,149.0
10526.9795,149.0
10531.19,155.0
10535.403,122.0
10539.617,146.0
10543.833,150.0
10548.051,144.0
10552.27,148.0
10556.49,141.0
10560.713,145.0
10564.9375,150.0
10569.163,146.0
10573.391,127.0
10577.62,146.0
10581.852,146.0
10586.084,159.0
10590.318,164.0
10594.555,161.0
10598.793,135.0
10603.032,138.0
10607.273,204.0
10611.517,153.0
10615.761,153.0
10620.007,158.0
10624.255,169.0
10628.505,177.0
10632.756,160.0
10637.009,136.0
10641.264,154.0
10645.5205,162.0
10649.778,171.0
10654.038,170.0
10658.3,184.0
10662.563,139.0
10666.828,193.0
10671.095,168.0
10675.363,190.0
10679.634,168.0
10683.905,175.0
10688.179,157.0
10692.454,164.0
10696.731,201.0
10701.01,171.0
10705.29,160.0
10709.572,171.0
10713.856,171.0
10718.142,178.0
10722.429,178.0
10726.718,163.0
10731.009,190.0
10735.301,163.0
10739.595,189.0
10743.891,195.0
10748.188,161.0
10752.487,170.0
10756.788,188.0
10761.091,199.0
10765.3955,160.0
10769.702,170.0
10774.01,166.0
10778.319,157.0
10782.631,151.0
10786.944,162.0
10791.259,154.0
10795.575,155.0
10799.894,162.0
10804.214,140.0
10808.535,148.0
10812.858,147.0
10817.184,143.0
10821.511,147.0
10825.839,158.0
10830.169,140.0
10834.501,170.0
10838.835,158.0
10843.171,175.0
10847.508,159.0
10851.847,142.0
10856.1875,161.0
10860.53,167.0
10864.874,158.0
10869.22,194.0
10873.567,150.0
10877.917,161.0
10882.269,166.0
10886.621,177.0
10890.976,167.0
10895.332,164.0
10899.69,160.0
10904.051,158.0
10908.412,146.0
10912.775,179.0
10917.141,142.0
10921.508,145.0
10925.876,169.0
10930.246,158.0
10934.618,166.0
10938.992,157.0
10943.368,157.0
10947.745,145.0
10952.124,163.0
10956.505,155.0
10960.888,172.0
10965.272,183.0
10969.658,150.0
10974.046,185.0
10978.436,172.0
10982.827,168.0
10987.221,206.0
10991.615,178.0
10996.012,178.0
11000.41,171.0
11004.811,213.0
11009.213,171.0
11013.616,160.0
11018.021,178.0
11022.429,175.0
11026.838,172.0
11031.249,176.0
11035.661,177.0
11040.075,143.0
11044.491,203.0
11048.909,199.0
11053.329,171.0
11057.75,176.0
11062.173,209.0
11066.598,181.0
11071.024,182.0
11075.453,194.0
11079.884,185.0
11084.315,199.0
11088.749,177.0
11093.185,158.0
11097.622,181.0
11102.062,165.0
11106.502,195.0
11110.944,173.0
11115.389,183.0
11119.835,188.0
11124.283,215.0
11128.733,182.0
11133.185,182.0
11137.638,182.0
11142.093,161.0
11146.55,194.0
11151.009,195.0
11155.469,184.0
11159.931,164.0
11164.395,198.0
11168.86,169.0
11173.328,197.0
11177.798,190.0
11182.269,176.0
11186.741,181.0
11191.216,203.0
11195.692,209.0
11200.171,209.0
11204.651,207.0
11209.133,228.0
11213.616,223.0
11218.102,205.0
11222.589,179.0
11227.078,176.0
11231.569,206.0
11236.062,188.0
11240.556,216.0
11245.052,234.0
11249.55,213.0
11254.05,199.0
11258.552,223.0
11263.056,213.0
11267.561,208.0
11272.067,233.0
11276.576,208.0
11281.087,211.0
11285.6,223.0
11290.114,195.0
11294.63,235.0
11299.147,244.0
11303.667,263.0
11308.188,254.0
11312.712,236.0
11317.237,269.0
11321.765,241.0
11326.293,270.0
11330.823,279.0
11335.355,273.0
11339.89,257.0
11344.426,288.0
11348.964,274.0
11353.504,289.0
11358.045,305.0
11362.588,289.0
11367.133,313.0
11371.68,325.0
11376.229,305.0
11380.779,313.0
11385.332,347.0
11389.886,342.0
11394.441,359.0
11398.999,354.0
11403.559,346.0
11408.12,365.0
11412.684,371.0
11417.249,396.0
11421.816,399.0
11426.385,391.0
11430.955,404.0
11435.527,440.0
11440.102,452.0
11444.678,466.0
11449.256,421.0
11453.836,442.0
11458.417,459.0
11463.0,487.0
11467.585,497.0
11472.172,483.0
11476.761,465.0
11481.352,573.0
11485.944,510.0
11490.539,547.0
11495.136,569.0
11499.733,556.0
11504.333,526.0
11508.935,560.0
11513.538,620.0
11518.144,590.0
11522.751,590.0
11527.36,667.0
11531.972,676.0
11536.584,608.0
11541.198,652.0
11545.814,666.0
11550.433,660.0
11555.053,617.0
11559.675,625.0
11564.299,719.0
11568.925,651.0
11573.553,650.0
11578.183,775.0
11582.813,707.0
11587.446,645.0
11592.081,722.0
11596.718,803.0
11601.356,671.0
11605.997,629.0
11610.64,753.0
11615.284,787.0
11619.931,676.0
11624.579,728.0
11629.229,731.0
11633.88,691.0
11638.533,680.0
11643.188,891.0
11647.846,774.0
11652.505,560.0
11657.166,798.0
11661.829,891.0
11666.494,581.0
11671.161,540.0
11675.83,1023.0
11680.5,1013.0
11685.172,557.0
11689.846,513.0
11694.521,653.0
11699.199,485.0
11703.879,446.0
11708.561,427.0
11713.244,370.0
11717.93,340.0
11722.617,393.0
11727.307,323.0
11731.998,312.0
11736.69,332.0
11741.385,312.0
11746.081,302.0
11750.779,293.0
11755.4795,265.0
11760.182,286.0
11764.886,261.0
11769.592,281.0
11774.3,275.0
11779.01,294.0
11783.722,263.0
11788.436,278.0
11793.151,264.0
11797.868,242.0
11802.587,274.0
11807.308,263.0
11812.03,233.0
11816.755,234.0
11821.481,267.0
11826.21,232.0
11830.94,242.0
11835.673,204.0
11840.407,247.0
11845.144,202.0
11849.882,222.0
11854.622,229.0
11859.364,200.0
11864.108,214.0
11868.8545,216.0
11873.602,188.0
11878.351,170.0
11883.102,190.0
11887.8545,160.0
11892.609,172.0
11897.366,193.0
11902.125,185.0
11906.886,153.0
11911.648,198.0
11916.413,159.0
11921.18,173.0
11925.948,181.0
11930.719,165.0
11935.491,175.0
11940.266,184.0
11945.042,163.0
11949.82,173.0
11954.601,179.0
11959.383,172.0
11964.167,180.0
11968.953,176.0
11973.74,156.0
11978.529,141.0
11983.32,174.0
11988.113,173.0
11992.908,151.0
