M/Z,Intensity
800.0,84.0
800.32,140.0
800.64014,56.0
800.9604,118.0
801.28076,192.0
801.60126,64.0
801.9219,98.0
802.2426,151.0
802.56354,82.0
802.8846,132.0
803.20575,159.0
803.52704,85.0
803.84845,62.0
804.17,167.0
804.49164,80.0
804.8134,56.0
805.1353,142.0
805.4574,108.0
805.7796,40.0
806.1019,101.0
806.4244,157.0
806.74695,49.0
807.06964,124.0
807.39246,153.0
807.7154,46.0
808.03845,89.0
808.3617,164.0
808.68506,48.0
809.00854,92.0
809.33215,161.0
809.6559,58.0
809.97974,75.0
810.3037,157.0
810.6278,73.0
810.9521,83.0
811.2765,143.0
811.601,61.0
811.92566,77.0
812.2504,116.0
812.5753,100.0
812.9003,71.0
813.22546,153.0
813.5508,78.0
813.8762,68.0
814.2018,133.0
814.52747,73.0
814.8533,65.0
815.1792,142.0
815.50525,112.0
815.8314,58.0
816.1578,148.0
816.48425,111.0
816.81085,93.0
817.1376,156.0
817.4644,82.0
817.7914,43.0
818.11847,136.0
818.44574,90.0
818.77313,68.0
819.10065,112.0
819.4283,94.0
819.75604,55.0
820.0839,94.0
820.412,123.0
820.7402,56.0
821.0685,110.0
821.3969,93.0
821.72546,46.0
822.05414,105.0
822.38293,113.0
822.7119,69.0
823.041,184.0
823.37024,141.0
823.6996,55.0
824.02905,128.0
824.35864,145.0
824.6884,129.0
825.0183,1147.0
825.3483,150.0
825.67847,78.0
826.0087,526.0
826.3391,139.0
826.6696,52.0
827.0003,243.0
827.3311,122.0
827.66205,45.0
827.9931,91.0
828.3243,121.0
828.65564,50.0
828.9871,91.0
829.3187,146.0
829.65045,45.0
829.9823,74.0
830.3143,132.0
830.6464,41.0
830.9787,71.0
831.3111,120.0
831.6436,53.0
831.97626,84.0
832.309,138.0
832.64197,63.0
832.97504,101.0
833.3082,129.0
833.64154,61.0
833.975,89.0
834.3086,128.0
834.64233,48.0
834.9762,91.0
835.3102,145.0
835.6443,60.0
835.9785,93.0
836.3129,120.0
836.64746,53.0
836.9821,97.0
837.3169,119.0
837.6518,53.0
837.9869,89.0
838.3221,115.0
838.6574,72.0
838.99286,319.0
839.3284,121.0
839.6642,61.0
840.00006,190.0
840.33606,129.0
840.6722,63.0
841.0084,290.0
841.34485,125.0
841.6814,70.0
842.01807,155.0
842.35486,143.0
842.6918,41.0
843.0289,138.0
843.3661,129.0
843.7034,61.0
844.0409,106.0
844.37854,147.0
844.7163,90.0
845.0542,332.0
845.3922,171.0
845.73035,78.0
846.06866,195.0
846.4071,118.0
846.74567,66.0
847.08435,186.0
847.42316,121.0
847.76215,63.0
848.10126,122.0
848.4405,105.0
848.77985,61.0
849.1194,108.0
849.45905,93.0
849.7988,52.0
850.13873,125.0
850.47876,92.0
850.819,62.0
851.1593,112.0
851.49976,97.0
851.84033,52.0
852.1811,116.0
852.522,105.0
852.863,61.0
853.2041,120.0
853.5454,76.0
853.88684,60.0
854.2284,133.0
854.57007,69.0
854.9119,265.0
855.2539,137.0
855.596,61.0
855.93823,171.0
856.2806,140.0
856.6231,58.0
856.96576,202.0
857.30853,134.0
857.6514,55.0
857.9945,135.0
858.3377,171.0
858.681,68.0
859.0245,117.0
859.3681,126.0
859.71185,53.0
860.0557,101.0
860.3997,116.0
860.7439,348.0
861.0882,621.0
861.4326,128.0
861.77716,270.0
862.1219,266.0
862.46674,105.0
862.8117,176.0
863.15686,157.0
863.50214,94.0
863.84753,85.0
864.19305,108.0
864.53876,82.0
864.8846,79.0
865.2305,126.0
865.5766,71.0
865.92285,62.0
866.2692,162.0
866.6157,43.0
866.96234,101.0
867.30914,143.0
867.65607,53.0
868.0031,88.0
868.35034,127.0
868.6977,61.0
869.04517,77.0
869.39276,127.0
869.74054,61.0
870.08844,77.0
870.43646,93.0
870.7846,69.0
871.13293,122.0
871.4814,91.0
871.82996,68.0
872.1787,125.0
872.5276,76.0
872.8766,107.0
873.2257,112.0
873.575,54.0
873.92444,87.0
874.274,154.0
874.6237,60.0
874.9736,81.0
875.32355,132.0
875.6737,50.0
876.024,77.0
876.3744,126.0
876.7249,136.0
877.0756,193.0
877.42645,106.0
877.7774,120.0
878.12854,119.0
878.4798,98.0
878.8312,103.0
879.18274,123.0
879.5344,69.0
879.8862,77.0
880.23816,159.0
880.5903,62.0
880.9425,88.0
881.29486,119.0
881.6474,46.0
882.00006,81.0
882.35284,115.0
882.7058,65.0
883.0589,114.0
883.4121,106.0
883.7655,55.0
884.119,89.0
884.47266,87.0
884.8264,55.0
885.18036,92.0
885.5344,77.0
885.8886,60.0
886.243,129.0
886.5975,55.0
886.9521,57.0
887.3069,134.0
887.6618,48.0
888.01685,86.0
888.3721,115.0
888.7274,61.0
889.0829,112.0
889.43854,132.0
889.7943,54.0
890.1502,98.0
890.5063,106.0
890.8625,62.0
891.2188,120.0
891.5753,78.0
891.93195,65.0
892.2887,151.0
892.6456,54.0
893.0027,81.0
893.35986,141.0
893.7172,50.0
894.0747,124.0
894.4323,107.0
894.7901,83.0
895.148,92.0
895.50604,89.0
895.86426,77.0
896.2226,121.0
896.58105,48.0
896.9397,71.0
897.29846,112.0
897.6574,48.0
898.0165,65.0
898.3757,93.0
898.73505,69.0
899.09454,82.0
899.45416,97.0
899.81396,50.0
900.1739,100.0
900.53394,79.0
900.89417,70.0
901.2545,130.0
901.615,57.0
901.97565,57.0
902.3364,106.0
902.6974,61.0
903.0585,72.0
903.4197,106.0
903.78107,57.0
904.1426,94.0
904.5042,118.0
904.866,61.0
905.22797,138.0
905.5901,86.0
905.95233,62.0
906.3147,139.0
906.67725,56.0
907.0399,67.0
907.4027,99.0
907.7657,48.0
908.1288,107.0
908.49207,86.0
908.85547,58.0
909.219,116.0
909.5827,67.0
909.94653,56.0
910.3105,138.0
910.6746,55.0
911.0389,88.0
911.4033,112.0
911.7679,42.0
912.13257,91.0
912.49744,94.0
912.8624,51.0
913.2276,130.0
913.5929,63.0
913.9583,60.0
914.3239,125.0
914.68964,53.0
915.05554,83.0
915.4216,79.0
915.7877,51.0
916.15405,85.0
916.5205,86.0
916.88715,78.0
917.2539,145.0
917.6208,46.0
917.98785,72.0
918.35504,132.0
918.7224,33.0
919.0899,84.0
919.4575,87.0
919.8253,50.0
920.19324,113.0
920.56134,66.0
920.92957,66.0
921.2979,124.0
921.66644,45.0
922.0351,70.0
922.40393,99.0
922.7729,53.0
923.14197,86.0
923.5112,82.0
923.8806,58.0
924.2502,115.0
924.6199,47.0
924.98975,61.0
925.35974,104.0
925.72986,64.0
926.10016,85.0
926.4706,92.0
926.8412,53.0
927.2119,106.0
927.5828,55.0
927.95386,71.0
928.325,101.0
928.69635,54.0
929.0678,69.0
929.43945,117.0
929.8112,52.0
930.18317,112.0
930.55524,93.0
930.9274,54.0
931.2998,111.0
931.6723,51.0
932.045,75.0
932.4178,93.0
932.7908,49.0
933.1639,107.0
933.5372,92.0
933.9106,67.0
934.2841,125.0
934.65784,71.0
935.0317,77.0
935.4057,122.0
935.77985,46.0
936.1542,97.0
936.5286,61.0
936.90326,37.0
937.278,133.0
937.65295,61.0
938.028,66.0
938.4032,85.0
938.77856,35.0
939.15405,99.0
939.5297,71.0
939.9055,64.0
940.2815,120.0
940.6576,51.0
941.0339,67.0
941.4103,85.0
941.78687,42.0
942.1636,94.0
942.54047,85.0
942.9175,62.0
943.2947,107.0
943.672,47.0
944.04944,76.0
944.42706,81.0
944.8048,51.0
945.18274,103.0
945.5608,82.0
945.939,53.0
946.3174,117.0
946.6959,47.0
947.0746,84.0
947.4534,69.0
947.8324,63.0
948.21155,105.0
948.5908,65.0
948.9703,74.0
949.34985,123.0
949.7296,56.0
950.1095,101.0
950.48956,92.0
950.86975,69.0
951.2501,105.0
951.6306,59.0
952.0113,60.0
952.3921,102.0
952.7731,49.0
953.1542,91.0
953.53546,61.0
953.9169,37.0
954.29846,116.0
954.6802,52.0
955.0621,70.0
955.4441,125.0
955.8263,50.0
956.2086,114.0
956.5911,70.0
956.97375,70.0
957.35657,80.0
957.7395,40.0
958.1226,107.0
958.50586,98.0
958.8893,65.0
959.2728,125.0
959.65656,51.0
960.0404,68.0
960.42444,98.0
960.8086,41.0
961.19293,99.0
961.5774,61.0
961.96204,71.0
962.3468,104.0
962.73175,47.0
963.1168,79.0
963.5021,75.0
963.88745,41.0
964.273,101.0
964.6587,49.0
965.04456,60.0
965.4306,105.0
965.8168,56.0
966.2031,113.0
966.5896,81.0
966.97626,52.0
967.36304,102.0
967.75,45.0
968.1371,101.0
968.52435,99.0
968.91174,55.0
969.2993,127.0
969.687,49.0
970.0749,81.0
970.4629,100.0
970.8511,47.0
971.23944,108.0
971.6279,61.0
972.0166,70.0
972.4054,117.0
972.7944,50.0
973.1835,120.0
973.57275,79.0
973.96216,57.0
974.35175,91.0
974.7415,47.0
975.1314,75.0
975.5215,86.0
975.9117,50.0
976.30206,94.0
976.69257,48.0
977.08325,81.0
977.47406,109.0
977.86505,50.0
978.2562,120.0
978.6475,61.0
979.039,78.0
979.4306,117.0
979.8224,50.0
980.2143,113.0
980.6064,68.0
980.99866,74.0
981.39105,81.0
981.7836,55.0
982.17633,93.0
982.5692,67.0
982.9622,53.0
983.3554,111.0
983.7488,57.0
984.1423,96.0
984.53595,96.0
984.92975,70.0
985.3237,118.0
985.71783,50.0
986.1121,104.0
986.5066,84.0
986.9012,66.0
987.29596,102.0
987.69086,67.0
988.08594,91.0
988.4812,104.0
988.8766,61.0
989.27216,104.0
989.66785,59.0
990.0637,80.0
990.4597,99.0
990.8559,68.0
991.25226,107.0
991.64874,52.0
992.0454,104.0
992.4422,117.0
992.8392,53.0
993.2363,99.0
993.6336,71.0
994.03107,81.0
994.42865,110.0
994.8264,42.0
995.22437,99.0
995.62244,77.0
996.0207,88.0
996.4191,83.0
996.8177,60.0
997.21643,106.0
997.6153,48.0
998.01434,73.0
998.4136,113.0
998.8129,42.0
999.21246,94.0
999.6121,69.0
1000.01196,79.0
1000.412,93.0
1000.81213,56.0
1001.21246,137.0
1001.613,67.0
1002.0136,45.0
1002.4144,86.0
1002.81537,52.0
1003.2165,89.0
1003.6178,71.0
1004.0192,66.0
1004.42084,116.0
1004.82263,47.0
1005.22455,104.0
1005.62665,82.0
1006.0289,88.0
1006.4313,110.0
1006.83386,64.0
1007.2366,124.0
1007.63947,74.0
1008.04254,102.0
1008.44574,124.0
1008.8491,72.0
1009.2527,101.0
1009.6564,70.0
1010.06024,69.0
1010.4643,97.0
1010.86847,62.0
1011.2728,111.0
1011.6773,66.0
1012.082,87.0
1012.4868,89.0
1012.8918,65.0
1013.29694,108.0
1013.7023,72.0
1014.1077,107.0
1014.51337,88.0
1014.9192,92.0
1015.32513,107.0
1015.73126,52.0
1016.1376,105.0
1016.544,90.0
1016.9506,67.0
1017.3574,131.0
1017.76434,54.0
1018.17145,85.0
1018.57874,82.0
1018.98615,65.0
1019.39374,106.0
1019.8015,47.0
1020.2094,112.0
1020.6175,79.0
1021.02576,65.0
1021.43414,129.0
1021.8427,55.0
1022.25146,111.0
1022.66034,84.0
1023.0694,86.0
1023.47864,98.0
1023.888,77.0
1024.2976,103.0
1024.7073,58.0
1025.1172,94.0
1025.5272,93.0
1025.9374,52.0
1026.3478,103.0
1026.7583,70.0
1027.169,92.0
1027.5798,81.0
1027.9908,121.0
1028.4021,108.0
1028.8135,85.0
1029.225,109.0
1029.6367,69.0
1030.0486,124.0
1030.4606,100.0
1030.8728,89.0
1031.2852,115.0
1031.6976,69.0
1032.1104,100.0
1032.5232,109.0
1032.9362,55.0
1033.3494,127.0
1033.7627,88.0
1034.1761,104.0
1034.5898,81.0
1035.0037,100.0
1035.4177,98.0
1035.8319,99.0
1036.2462,108.0
1036.6608,83.0
1037.0754,92.0
1037.4902,113.0
1037.9053,72.0
1038.3204,103.0
1038.7357,64.0
1039.1512,99.0
1039.5669,90.0
1039.9827,70.0
1040.3987,116.0
1040.8148,53.0
1041.2312,102.0
1041.6477,82.0
1042.0643,68.0
1042.4812,105.0
1042.8982,55.0
1043.3153,119.0
1043.7327,91.0
1044.1501,98.0
1044.5677,76.0
1044.9856,77.0
1045.4036,98.0
1045.8218,81.0
1046.2401,119.0
1046.6586,63.0
1047.0773,89.0
1047.4961,117.0
1047.915,81.0
1048.3342,99.0
1048.7535,45.0
1049.1731,89.0
1049.5928,112.0
1050.0126,306.0
1050.4326,121.0
1050.8528,202.0
1051.2731,111.0
1051.6936,72.0
1052.1143,140.0
1052.5352,84.0
1052.9562,104.0
1053.3773,102.0
1053.7987,81.0
1054.2202,108.0
1054.6418,81.0
1055.0637,73.0
1055.4857,98.0
1055.908,81.0
1056.3303,132.0
1056.7528,71.0
1057.1755,104.0
1057.5984,97.0
1058.0215,63.0
1058.4447,151.0
1058.868,52.0
1059.2916,108.0
1059.7153,83.0
1060.1392,80.0
1060.5632,142.0
1060.9874,86.0
1061.4119,137.0
1061.8364,80.0
1062.2611,107.0
1062.686,72.0
1063.1111,65.0
1063.5364,106.0
1063.9618,74.0
1064.3873,104.0
1064.8131,72.0
1065.239,91.0
1065.6652,141.0
1066.0914,247.0
1066.5178,105.0
1066.9445,207.0
1067.3712,112.0
1067.7982,109.0
1068.2253,92.0
1068.6526,89.0
1069.0801,97.0
1069.5077,97.0
1069.9355,86.0
1070.3635,108.0
1070.7916,64.0
1071.22,107.0
1071.6484,94.0
1072.0771,138.0
1072.506,127.0
1072.9349,95.0
1073.3641,125.0
1073.7935,74.0
1074.223,106.0
1074.6527,79.0
1075.0825,81.0
1075.5126,112.0
1075.9427,63.0
1076.3732,92.0
1076.8037,70.0
1077.2344,90.0
1077.6653,84.0
1078.0963,81.0
1078.5276,94.0
1078.959,76.0
1079.3906,97.0
1079.8224,61.0
1080.2543,105.0
1080.6864,73.0
1081.1187,78.0
1081.5511,69.0
1081.9838,112.0
1082.4165,94.0
1082.8495,62.0
1083.2826,114.0
1083.716,69.0
1084.1494,75.0
1084.5831,91.0
1085.017,84.0
1085.4509,92.0
1085.8851,63.0
1086.3195,106.0
1086.754,62.0
1087.1887,99.0
1087.6235,90.0
1088.0586,106.0
1088.4938,94.0
1088.9292,71.0
1089.3647,100.0
1089.8005,87.0
1090.2365,121.0
1090.6725,73.0
1091.1088,93.0
1091.5452,97.0
1091.9818,74.0
1092.4186,113.0
1092.8556,63.0
1093.2927,104.0
1093.7301,53.0
1094.1676,80.0
1094.6052,70.0
1095.0431,81.0
1095.4811,96.0
1095.9193,71.0
1096.3577,110.0
1096.7963,54.0
1097.235,101.0
1097.6738,64.0
1098.1129,68.0
1098.5521,100.0
1098.9916,71.0
1099.4312,110.0
1099.871,75.0
1100.3109,95.0
1100.751,54.0
1101.1913,90.0
1101.6317,77.0
1102.0724,69.0
1102.5132,107.0
1102.9542,63.0
1103.3954,106.0
1103.8368,71.0
1104.2783,95.0
1104.72,53.0
1105.1619,81.0
1105.6039,100.0
1106.0461,85.0
1106.4885,97.0
1106.9312,72.0
1107.3739,126.0
1107.8169,71.0
1108.26,107.0
1108.7034,59.0
1109.1469,68.0
1109.5905,107.0
1110.0343,62.0
1110.4783,98.0
1110.9225,74.0
1111.3668,101.0
1111.8114,46.0
1112.2561,98.0
1112.701,68.0
1113.1461,80.0
1113.5914,82.0
1114.0369,53.0
1114.4824,91.0
1114.9282,60.0
1115.3741,99.0
1115.8203,71.0
1116.2666,84.0
1116.7131,64.0
1117.1598,78.0
1117.6067,89.0
1118.0537,66.0
1118.501,111.0
1118.9484,53.0
1119.396,107.0
1119.8438,53.0
1120.2917,95.0
1120.7399,56.0
1121.1881,89.0
1121.6366,79.0
1122.0852,65.0
1122.534,110.0
1122.983,65.0
1123.4323,104.0
1123.8816,54.0
1124.3312,78.0
1124.7809,57.0
1125.2308,87.0
1125.6809,65.0
1126.1312,87.0
1126.5817,81.0
1127.0323,62.0
1127.4832,96.0
1127.9342,44.0
1128.3854,114.0
1128.8367,53.0
1129.2882,80.0
1129.7399,65.0
1130.1918,95.0
1130.6438,71.0
1131.0961,77.0
1131.5485,91.0
1132.0011,58.0
1132.4539,129.0
1132.9069,65.0
1133.36,108.0
1133.8134,60.0
1134.2668,104.0
1134.7206,66.0
1135.1744,84.0
1135.6285,95.0
1136.0828,78.0
1136.5372,90.0
1136.9918,61.0
1137.4467,115.0
1137.9016,65.0
1138.3568,104.0
1138.8121,65.0
1139.2677,103.0
1139.7234,63.0
1140.1793,90.0
1140.6354,76.0
1141.0917,64.0
1141.5481,94.0
1142.0048,54.0
1142.4615,104.0
1142.9186,52.0
1143.3757,95.0
1143.8331,61.0
1144.2906,76.0
1144.7484,56.0
1145.2063,75.0
1145.6644,73.0
1146.1227,85.0
1146.5812,78.0
1147.0398,69.0
1147.4987,98.0
1147.9576,55.0
1148.4169,155.0
1148.8762,53.0
1149.3358,151.0
1149.7955,66.0
1150.2555,110.0
1150.7156,69.0
1151.1759,81.0
1151.6364,98.0
1152.097,76.0
1152.5579,99.0
1153.0189,67.0
1153.4801,103.0
1153.9415,53.0
1154.4031,108.0
1154.8649,51.0
1155.3268,111.0
1155.789,56.0
1156.2512,103.0
1156.7137,67.0
1157.1764,88.0
1157.6393,91.0
1158.1023,53.0
1158.5656,93.0
1159.0289,63.0
1159.4926,101.0
1159.9563,59.0
1160.4203,76.0
1160.8844,57.0
1161.3488,104.0
1161.8134,59.0
1162.2781,86.0
1162.743,61.0
1163.2081,84.0
1163.6735,63.0
1164.1389,80.0
1164.6046,95.0
1165.0704,62.0
1165.5365,86.0
1166.0027,54.0
1166.4691,95.0
1166.9357,59.0
1167.4025,106.0
1167.8694,60.0
1168.3365,96.0
1168.8038,50.0
1169.2714,112.0
1169.739,72.0
1170.2069,90.0
1170.675,76.0
1171.1433,64.0
1171.6118,74.0
1172.0804,65.0
1172.5493,99.0
1173.0183,77.0
1173.4875,106.0
1173.9569,80.0
1174.4265,128.0
1174.8962,57.0
1175.3662,121.0
1175.8363,65.0
1176.3066,118.0
1176.7772,71.0
1177.2479,96.0
1177.7189,58.0
1178.19,75.0
1178.6613,87.0
1179.1327,69.0
1179.6044,82.0
1180.0762,76.0
1180.5482,107.0
1181.0204,66.0
1181.4928,99.0
1181.9655,62.0
1182.4382,108.0
1182.9113,59.0
1183.3844,119.0
1183.8578,44.0
1184.3313,93.0
1184.805,37.0
1185.2789,115.0
1185.753,73.0
1186.2273,80.0
1186.7018,72.0
1187.1765,81.0
1187.6514,94.0
1188.1265,78.0
1188.6017,89.0
1189.0771,78.0
1189.5527,88.0
1190.0286,51.0
1190.5045,89.0
1190.9807,60.0
1191.4572,85.0
1191.9337,54.0
1192.4105,92.0
1192.8875,54.0
1193.3646,100.0
1193.8419,44.0
1194.3195,91.0
1194.7972,60.0
1195.2751,87.0
1195.7533,57.0
1196.2316,95.0
1196.7101,67.0
1197.1887,76.0
1197.6676,77.0
1198.1467,94.0
1198.626,67.0
1199.1055,67.0
1199.5851,81.0
1200.065,82.0
1200.5449,108.0
1201.0251,61.0
1201.5056,107.0
1201.9862,56.0
1202.467,99.0
1202.948,73.0
1203.4292,105.0
1203.9105,68.0
1204.3921,120.0
1204.8739,50.0
1205.3558,110.0
1205.838,71.0
1206.3203,101.0
1206.8029,64.0
1207.2855,95.0
1207.7684,52.0
1208.2516,92.0
1208.7349,70.0
1209.2184,72.0
1209.702,74.0
1210.1859,79.0
1210.67,69.0
1211.1543,72.0
1211.6388,78.0
1212.1234,75.0
1212.6083,94.0
1213.0933,72.0
1213.5785,83.0
1214.064,50.0
1214.5496,77.0
1215.0354,53.0
1215.5214,119.0
1216.0076,67.0
1216.494,101.0
1216.9806,84.0
1217.4674,110.0
1217.9543,62.0
1218.4415,103.0
1218.929,76.0
1219.4165,106.0
1219.9043,66.0
1220.3922,100.0
1220.8804,60.0
1221.3688,116.0
1221.8573,48.0
1222.3461,91.0
1222.835,70.0
1223.3241,102.0
1223.8135,59.0
1224.303,107.0
1224.7927,49.0
1225.2826,74.0
1225.7727,65.0
1226.2631,84.0
1226.7535,65.0
1227.2443,76.0
1227.7351,77.0
1228.2262,82.0
1228.7175,68.0
1229.209,76.0
1229.7007,74.0
1230.1925,90.0
1230.6846,77.0
1231.1769,81.0
1231.6693,63.0
1232.162,72.0
1232.6549,76.0
1233.148,66.0
1233.6412,96.0
1234.1346,86.0
1234.6283,111.0
1235.1222,76.0
1235.6162,81.0
1236.1105,79.0
1236.6049,85.0
1237.0995,66.0
1237.5944,84.0
1238.0894,66.0
1238.5846,91.0
1239.0801,97.0
1239.5757,87.0
1240.0715,75.0
1240.5675,82.0
1241.0637,88.0
1241.5602,103.0
1242.0568,81.0
1242.5536,90.0
1243.0507,77.0
1243.5479,75.0
1244.0453,68.0
1244.5428,83.0
1245.0406,62.0
1245.5387,88.0
1246.0369,69.0
1246.5353,132.0
1247.0339,74.0
1247.5327,126.0
1248.0317,66.0
1248.531,94.0
1249.0304,71.0
1249.53,96.0
1250.0298,62.0
1250.5298,110.0
1251.03,57.0
1251.5304,98.0
1252.031,64.0
1252.5319,82.0
1253.0328,65.0
1253.534,94.0
1254.0355,73.0
1254.5371,69.0
1255.039,111.0
1255.541,77.0
1256.0432,93.0
1256.5457,68.0
1257.0482,73.0
1257.551,91.0
1258.0541,64.0
1258.5573,84.0
1259.0607,79.0
1259.5643,73.0
1260.0681,51.0
1260.5721,95.0
1261.0764,88.0
1261.5808,108.0
1262.0854,93.0
1262.5903,100.0
1263.0953,95.0
1263.6006,103.0
1264.1061,77.0
1264.6117,90.0
1265.1176,67.0
1265.6237,106.0
1266.1299,76.0
1266.6364,99.0
1267.1431,99.0
1267.6499,64.0
1268.157,82.0
1268.6642,69.0
1269.1716,65.0
1269.6793,85.0
1270.1871,73.0
1270.6952,100.0
1271.2035,78.0
1271.7119,73.0
1272.2206,85.0
1272.7295,78.0
1273.2385,93.0
1273.7478,80.0
1274.2573,81.0
1274.767,92.0
1275.2769,83.0
1275.787,72.0
1276.2972,76.0
1276.8077,128.0
1277.3185,112.0
1277.8295,100.0
1278.3406,84.0
1278.8519,110.0
1279.3635,94.0
1279.8752,76.0
1280.3872,74.0
1280.8994,77.0
1281.4117,100.0
1281.9243,61.0
1282.4371,104.0
1282.9501,77.0
1283.4633,93.0
1283.9767,55.0
1284.4902,111.0
1285.004,82.0
1285.5181,105.0
1286.0322,56.0
1286.5466,86.0
1287.0613,70.0
1287.576,88.0
1288.0911,65.0
1288.6063,107.0
1289.1218,92.0
1289.6375,71.0
1290.1533,67.0
1290.6694,81.0
1291.1857,89.0
1291.7021,79.0
1292.2189,78.0
1292.7357,101.0
1293.2528,79.0
1293.7701,74.0
1294.2876,83.0
1294.8053,69.0
1295.3232,86.0
1295.8414,73.0
1296.3597,90.0
1296.8783,61.0
1297.3971,83.0
1297.916,76.0
1298.4352,110.0
1298.9546,84.0
1299.4741,107.0
1299.9939,77.0
1300.5139,95.0
1301.0342,68.0
1301.5546,119.0
1302.0752,69.0
1302.5961,97.0
1303.1171,77.0
1303.6383,108.0
1304.1598,86.0
1304.6814,97.0
1305.2032,74.0
1305.7253,88.0
1306.2477,97.0
1306.7701,78.0
1307.2928,91.0
1307.8158,64.0
1308.3389,99.0
1308.8622,58.0
1309.3857,90.0
1309.9095,70.0
1310.4335,103.0
1310.9576,83.0
1311.482,89.0
1312.0066,64.0
1312.5314,95.0
1313.0564,68.0
1313.5817,88.0
1314.107,61.0
1314.6327,80.0
1315.1586,59.0
1315.6847,90.0
1316.2109,90.0
1316.7374,73.0
1317.2642,72.0
1317.791,66.0
1318.3181,91.0
1318.8455,63.0
1319.373,86.0
1319.9008,69.0
1320.4287,84.0
1320.9569,71.0
1321.4854,91.0
1322.0139,77.0
1322.5427,100.0
1323.0718,64.0
1323.601,88.0
1324.1304,69.0
1324.66,115.0
1325.19,72.0
1325.72,77.0
1326.2502,91.0
1326.7808,77.0
1327.3115,97.0
1327.8424,55.0
1328.3735,87.0
1328.9049,66.0
1329.4365,92.0
1329.9683,57.0
1330.5002,91.0
1331.0325,63.0
1331.565,116.0
1332.0975,56.0
1332.6304,108.0
1333.1635,75.0
1333.6968,101.0
1334.2302,82.0
1334.7639,73.0
1335.2979,90.0
1335.832,83.0
1336.3663,105.0
1336.9009,74.0
1337.4357,80.0
1337.9707,64.0
1338.5059,79.0
1339.0413,71.0
1339.5769,121.0
1340.1128,67.0
1340.6488,90.0
1341.185,83.0
1341.7216,84.0
1342.2583,86.0
1342.7952,77.0
1343.3323,85.0
1343.8696,54.0
1344.4072,105.0
1344.945,59.0
1345.4829,89.0
1346.0211,66.0
1346.5596,104.0
1347.0981,84.0
1347.637,89.0
1348.176,67.0
1348.7153,87.0
1349.2548,82.0
1349.7944,94.0
1350.3344,96.0
1350.8745,69.0
1351.4149,95.0
1351.9554,63.0
1352.4962,107.0
1353.0372,73.0
1353.5785,86.0
1354.1199,72.0
1354.6615,80.0
1355.2034,85.0
1355.7455,95.0
1356.2878,102.0
1356.8303,61.0
1357.373,102.0
1357.916,56.0
1358.4592,91.0
1359.0026,71.0
1359.5461,93.0
1360.09,59.0
1360.634,83.0
1361.1783,74.0
1361.7228,83.0
1362.2675,81.0
1362.8124,79.0
1363.3575,115.0
1363.9028,70.0
1364.4484,100.0
1364.9941,56.0
1365.5402,80.0
1366.0864,72.0
1366.6328,97.0
1367.1794,77.0
1367.7263,82.0
1368.2734,69.0
1368.8208,78.0
1369.3683,88.0
1369.916,65.0
1370.464,103.0
1371.0122,76.0
1371.5607,78.0
1372.1093,60.0
1372.6581,92.0
1373.2072,89.0
1373.7565,90.0
1374.306,89.0
1374.8557,74.0
1375.4056,96.0
1375.9558,67.0
1376.5062,89.0
1377.0569,64.0
1377.6077,115.0
1378.1587,70.0
1378.71,102.0
1379.2615,86.0
1379.8132,72.0
1380.3651,84.0
1380.9172,61.0
1381.4696,93.0
1382.0222,65.0
1382.5751,100.0
1383.128,87.0
1383.6813,108.0
1384.2347,99.0
1384.7885,84.0
1385.3424,88.0
1385.8965,67.0
1386.4508,91.0
1387.0054,61.0
1387.5602,90.0
1388.1152,81.0
1388.6705,89.0
1389.226,89.0
1389.7816,81.0
1390.3375,106.0
1390.8937,83.0
1391.4501,98.0
1392.0067,61.0
1392.5635,108.0
1393.1205,73.0
1393.6777,92.0
1394.2352,91.0
1394.793,84.0
1395.3508,99.0
1395.9089,75.0
1396.4673,120.0
1397.0259,90.0
1397.5847,128.0
1398.1438,88.0
1398.703,96.0
1399.2625,94.0
1399.8221,91.0
1400.3821,106.0
1400.9423,64.0
1401.5027,99.0
1402.0632,57.0
1402.624,90.0
1403.185,87.0
1403.7463,80.0
1404.3079,102.0
1404.8696,80.0
1405.4315,137.0
1405.9937,72.0
1406.556,108.0
1407.1187,74.0
1407.6815,102.0
1408.2446,79.0
1408.808,81.0
1409.3715,81.0
1409.9352,54.0
1410.4991,94.0
1411.0634,63.0
1411.6278,82.0
1412.1925,77.0
1412.7573,88.0
1413.3224,79.0
1413.8877,66.0
1414.4532,105.0
1415.019,72.0
1415.5851,98.0
1416.1514,69.0
1416.7178,91.0
1417.2844,96.0
1417.8513,70.0
1418.4185,87.0
1418.9858,71.0
1419.5535,104.0
1420.1213,68.0
1420.6893,96.0
1421.2576,86.0
1421.826,81.0
1422.3948,122.0
1422.9637,70.0
1423.533,106.0
1424.1024,73.0
1424.672,90.0
1425.2418,92.0
1425.8119,77.0
1426.3822,96.0
1426.9528,58.0
1427.5236,101.0
1428.0946,71.0
1428.6659,76.0
1429.2373,93.0
1429.809,70.0
1430.3809,116.0
1430.953,70.0
1431.5254,110.0
1432.098,71.0
1432.6709,100.0
1433.244,119.0
1433.8173,88.0
1434.3907,96.0
1434.9645,67.0
1435.5385,97.0
1436.1127,63.0
1436.6871,92.0
1437.2618,87.0
1437.8368,81.0
1438.412,86.0
1438.9873,62.0
1439.5629,81.0
1440.1387,72.0
1440.7147,80.0
1441.291,92.0
1441.8676,79.0
1442.4443,97.0
1443.0214,80.0
1443.5985,82.0
1444.1759,65.0
1444.7535,89.0
1445.3314,88.0
1445.9095,66.0
1446.4879,87.0
1447.0665,66.0
1447.6454,90.0
1448.2245,84.0
1448.8038,98.0
1449.3833,103.0
1449.963,67.0
1450.543,115.0
1451.1232,74.0
1451.7036,88.0
1452.2843,83.0
1452.8652,82.0
1453.4464,88.0
1454.0278,70.0
1454.6095,105.0
1455.1913,85.0
1455.7733,92.0
1456.3556,89.0
1456.9381,63.0
1457.5209,93.0
1458.1039,75.0
1458.6871,75.0
1459.2706,79.0
1459.8544,68.0
1460.4384,110.0
1461.0226,55.0
1461.6069,109.0
1462.1915,80.0
1462.7764,95.0
1463.3615,122.0
1463.9468,76.0
1464.5323,96.0
1465.1182,64.0
1465.7042,107.0
1466.2905,79.0
1466.8771,86.0
1467.4639,107.0
1468.0509,76.0
1468.6382,84.0
1469.2256,73.0
1469.8132,97.0
1470.4011,89.0
1470.9893,55.0
1471.5776,111.0
1472.1663,80.0
1472.7551,85.0
1473.3442,88.0
1473.9336,78.0
1474.5232,113.0
1475.113,78.0
1475.7031,107.0
1476.2935,91.0
1476.884,83.0
1477.4747,115.0
1478.0657,56.0
1478.6569,94.0
1479.2483,82.0
1479.84,85.0
1480.4319,108.0
1481.024,61.0
1481.6165,118.0
1482.2091,77.0
1482.802,86.0
1483.3951,88.0
1483.9885,70.0
1484.5822,85.0
1485.176,69.0
1485.7701,118.0
1486.3645,106.0
1486.9591,62.0
1487.5538,85.0
1488.1488,69.0
1488.744,97.0
1489.3395,88.0
1489.9352,68.0
1490.5311,93.0
1491.1273,73.0
1491.7238,80.0
1492.3204,76.0
1492.9174,75.0
1493.5145,91.0
1494.1119,81.0
1494.7096,114.0
1495.3075,101.0
1495.9056,88.0
1496.504,110.0
1497.1027,63.0
1497.7015,83.0
1498.3007,75.0
1498.9,65.0
1499.4996,79.0
1500.0995,66.0
1500.6996,82.0
1501.2998,87.0
1501.9003,80.0
1502.501,88.0
1503.1019,79.0
1503.7031,107.0
1504.3046,74.0
1504.9062,78.0
1505.5082,96.0
1506.1104,79.0
1506.7128,85.0
1507.3154,85.0
1507.9183,78.0
1508.5215,103.0
1509.1249,55.0
1509.7285,80.0
1510.3324,99.0
1510.9365,65.0
1511.5409,73.0
1512.1455,63.0
1512.7504,158.0
1513.3555,113.0
1513.9608,82.0
1514.5664,96.0
1515.1722,74.0
1515.7783,97.0
1516.3846,94.0
1516.9912,62.0
1517.598,106.0
1518.2051,70.0
1518.8124,77.0
1519.4199,82.0
1520.0277,67.0
1520.6357,91.0
1521.244,79.0
1521.8525,80.0
1522.4613,83.0
1523.0703,66.0
1523.6796,92.0
1524.2891,85.0
1524.8988,86.0
1525.5088,129.0
1526.119,79.0
1526.7295,112.0
1527.3402,96.0
1527.9512,63.0
1528.5624,94.0
1529.1738,84.0
1529.7855,78.0
1530.3975,86.0
1531.0096,60.0
1531.6221,97.0
1532.2347,76.0
1532.8477,69.0
1533.4608,73.0
1534.0742,82.0
1534.6879,79.0
1535.3018,89.0
1535.9159,61.0
1536.5303,80.0
1537.1449,65.0
1537.7598,85.0
1538.3749,95.0
1538.9902,53.0
1539.6058,88.0
1540.2217,82.0
1540.8378,76.0
1541.4541,82.0
1542.0707,59.0
1542.6875,84.0
1543.3046,68.0
1543.9219,71.0
1544.5394,108.0
1545.1572,70.0
1545.7753,75.0
1546.3936,98.0
1547.0121,61.0
1547.6309,95.0
1548.2499,69.0
1548.8691,89.0
1549.4886,82.0
1550.1084,61.0
1550.7284,89.0
1551.3486,104.0
1551.9691,59.0
1552.5898,91.0
1553.2109,77.0
1553.8323,90.0
1554.4539,98.0
1555.0757,75.0
1555.6978,79.0
1556.3201,87.0
1556.9426,70.0
1557.5654,94.0
1558.1885,57.0
1558.8118,83.0
1559.4353,101.0
1560.0591,82.0
1560.6831,76.0
1561.3074,81.0
1561.9319,68.0
1562.5566,91.0
1563.1816,91.0
1563.8069,80.0
1564.4324,86.0
1565.0581,64.0
1565.6841,85.0
1566.3103,74.0
1566.9368,76.0
1567.5636,89.0
1568.1907,73.0
1568.818,84.0
1569.4456,92.0
1570.0734,65.0
1570.7014,83.0
1571.3297,108.0
1571.9583,61.0
1572.587,106.0
1573.2161,64.0
1573.8453,82.0
1574.4749,84.0
1575.1046,75.0
1575.7346,97.0
1576.3649,81.0
1576.9954,71.0
1577.6261,77.0
1578.2572,84.0
1578.8885,82.0
1579.5201,86.0
1580.152,60.0
1580.784,86.0
1581.4164,73.0
1582.049,69.0
1582.6818,78.0
1583.3148,60.0
1583.9481,64.0
1584.5817,77.0
1585.2155,81.0
1585.8495,86.0
1586.4839,109.0
1587.1185,78.0
1587.7534,87.0
1588.3885,87.0
1589.0239,68.0
1589.6595,102.0
1590.2954,76.0
1590.9315,69.0
1591.5679,88.0
1592.2045,58.0
1592.8413,76.0
1593.4784,85.0
1594.1158,70.0
1594.7535,82.0
1595.3915,98.0
1596.0297,91.0
1596.6681,96.0
1597.3068,78.0
1597.9457,96.0
1598.5848,103.0
1599.2242,75.0
1599.8639,76.0
1600.5038,102.0
1601.144,70.0
1601.7845,83.0
1602.4253,113.0
1603.0663,81.0
1603.7075,110.0
1604.349,83.0
1604.9907,92.0
1605.6327,97.0
1606.2749,78.0
1606.9174,103.0
1607.5602,81.0
1608.2032,73.0
1608.8466,67.0
1609.4901,85.0
1610.1339,87.0
1610.778,77.0
1611.4222,91.0
1612.0668,56.0
1612.7115,88.0
1613.3567,84.0
1614.0021,61.0
1614.6477,97.0
1615.2936,78.0
1615.9397,69.0
1616.586,92.0
1617.2327,68.0
1617.8795,72.0
1618.5266,88.0
1619.1741,71.0
1619.8218,85.0
1620.4697,91.0
1621.1179,81.0
1621.7664,86.0
1622.415,100.0
1623.064,78.0
1623.7131,99.0
1624.3627,83.0
1625.0125,77.0
1625.6625,85.0
1626.3127,90.0
1626.9633,64.0
1627.614,102.0
1628.265,78.0
1628.9163,60.0
1629.5679,101.0
1630.2197,73.0
1630.8718,104.0
1631.5242,97.0
1632.1768,84.0
1632.8296,103.0
1633.4827,97.0
1634.1361,69.0
1634.7898,65.0
1635.4437,94.0
1636.0979,59.0
1636.7523,77.0
1637.407,90.0
1638.0619,71.0
1638.7172,90.0
1639.3727,92.0
1640.0284,81.0
1640.6844,115.0
1641.3407,82.0
1641.9972,88.0
1642.6539,92.0
1643.311,80.0
1643.9684,87.0
1644.626,106.0
1645.2838,85.0
1645.9419,79.0
1646.6002,104.0
1647.2589,73.0
1647.9178,89.0
1648.577,101.0
1649.2365,80.0
1649.8961,69.0
1650.556,81.0
1651.2163,60.0
1651.8768,67.0
1652.5376,78.0
1653.1986,87.0
1653.8599,80.0
1654.5214,76.0
1655.1832,78.0
1655.8453,86.0
1656.5077,76.0
1657.1703,85.0
1657.8331,82.0
1658.4962,90.0
1659.1597,81.0
1659.8234,81.0
1660.4873,74.0
1661.1515,53.0
1661.8159,89.0
1662.4806,111.0
1663.1456,68.0
1663.8109,84.0
1664.4764,97.0
1665.1422,58.0
1665.8082,85.0
1666.4746,78.0
1667.1412,64.0
1667.8081,80.0
1668.4752,81.0
1669.1426,62.0
1669.8102,68.0
1670.4781,92.0
1671.1464,61.0
1671.8148,73.0
1672.4835,102.0
1673.1525,68.0
1673.8218,107.0
1674.4913,87.0
1675.1611,52.0
1675.8312,103.0
1676.5015,76.0
1677.1721,73.0
1677.843,70.0
1678.5142,93.0
1679.1855,62.0
1679.8572,83.0
1680.5292,99.0
1681.2014,71.0
1681.8739,73.0
1682.5466,98.0
1683.2196,58.0
1683.893,88.0
1684.5665,113.0
1685.2404,64.0
1685.9144,71.0
1686.5887,79.0
1687.2634,61.0
1687.9384,73.0
1688.6135,90.0
1689.289,70.0
1689.9646,62.0
1690.6406,75.0
1691.3169,81.0
1691.9934,65.0
1692.6702,88.0
1693.3473,73.0
1694.0247,70.0
1694.7023,72.0
1695.3801,74.0
1696.0582,55.0
1696.7367,73.0
1697.4154,92.0
1698.0944,66.0
1698.7736,77.0
1699.4531,88.0
1700.1329,72.0
1700.813,69.0
1701.4933,89.0
1702.1738,70.0
1702.8547,78.0
1703.5359,91.0
1704.2173,69.0
1704.8989,82.0
1705.5809,103.0
1706.2632,68.0
1706.9457,91.0
1707.6284,87.0
1708.3115,72.0
1708.9949,91.0
1709.6785,82.0
1710.3623,74.0
1711.0465,80.0
1711.731,78.0
1712.4156,82.0
1713.1006,54.0
1713.7858,80.0
1714.4713,107.0
1715.1571,71.0
1715.8431,88.0
1716.5294,85.0
1717.2161,76.0
1717.903,77.0
1718.5901,88.0
1719.2775,49.0
1719.9652,74.0
1720.6532,85.0
1721.3414,98.0
1722.0299,82.0
1722.7188,106.0
1723.4078,93.0
1724.0972,69.0
1724.7869,80.0
1725.4768,69.0
1726.167,55.0
1726.8574,73.0
1727.5482,91.0
1728.2393,72.0
1728.9305,64.0
1729.6221,70.0
1730.314,61.0
1731.0061,56.0
1731.6985,93.0
1732.3911,80.0
1733.0841,57.0
1733.7773,102.0
1734.4708,71.0
1735.1647,66.0
1735.8588,70.0
1736.5531,86.0
1737.2477,67.0
1737.9426,63.0
1738.6378,97.0
1739.3333,77.0
1740.0289,81.0
1740.725,77.0
1741.4213,78.0
1742.1178,66.0
1742.8147,80.0
1743.5118,87.0
1744.2092,55.0
1744.9069,59.0
1745.6049,62.0
1746.3031,76.0
1747.0016,64.0
1747.7004,75.0
1748.3995,52.0
1749.0989,66.0
1749.7985,82.0
1750.4984,71.0
1751.1986,68.0
1751.899,70.0
1752.5999,78.0
1753.3009,72.0
1754.0022,67.0
1754.7039,80.0
1755.4058,70.0
1756.1079,58.0
1756.8103,65.0
1757.5131,79.0
1758.2161,73.0
1758.9193,82.0
1759.6229,90.0
1760.3268,72.0
1761.0309,59.0
1761.7354,74.0
1762.4401,76.0
1763.145,58.0
1763.8502,72.0
1764.5558,81.0
1765.2616,75.0
1765.9677,76.0
1766.6741,89.0
1767.3807,69.0
1768.0876,77.0
1768.7949,76.0
1769.5024,85.0
1770.2102,70.0
1770.9183,69.0
1771.6267,77.0
1772.3353,76.0
1773.0443,62.0
1773.7535,74.0
1774.463,75.0
1775.1729,57.0
1775.8829,61.0
1776.5933,69.0
1777.304,76.0
1778.0149,70.0
1778.7261,61.0
1779.4376,78.0
1780.1494,65.0
1780.8615,87.0
1781.5739,99.0
1782.2865,70.0
1782.9994,71.0
1783.7126,96.0
1784.4261,65.0
1785.1399,62.0
1785.854,60.0
1786.5684,75.0
1787.283,63.0
1787.9979,65.0
1788.7131,76.0
1789.4286,73.0
1790.1444,64.0
1790.8605,77.0
1791.5768,75.0
1792.2935,64.0
1793.0104,72.0
1793.7275,87.0
1794.4451,75.0
1795.1628,78.0
1795.8809,71.0
1796.5992,97.0
1797.3179,61.0
1798.0367,60.0
1798.756,78.0
1799.4755,79.0
1800.1953,63.0
1800.9154,76.0
1801.6357,68.0
1802.3564,75.0
1803.0774,59.0
1803.7986,72.0
1804.5201,87.0
1805.242,74.0
1805.964,105.0
1806.6864,108.0
1807.409,90.0
1808.1321,60.0
1808.8553,84.0
1809.5789,100.0
1810.3027,82.0
1811.0269,94.0
1811.7512,92.0
1812.476,96.0
1813.2009,59.0
1813.9261,69.0
1814.6517,82.0
1815.3776,62.0
1816.1038,62.0
1816.8302,79.0
1817.5569,93.0
1818.2839,72.0
1819.0112,66.0
1819.7389,58.0
1820.4668,72.0
1821.195,56.0
1821.9235,63.0
1822.6522,83.0
1823.3812,93.0
1824.1106,68.0
1824.8402,73.0
1825.5702,78.0
1826.3004,54.0
1827.0309,57.0
1827.7617,90.0
1828.4928,77.0
1829.2242,75.0
1829.9559,70.0
1830.6879,75.0
1831.4202,76.0
1832.1527,69.0
1832.8856,68.0
1833.6188,64.0
1834.3522,65.0
1835.0859,59.0
1835.82,85.0
1836.5543,119.0
1837.289,89.0
1838.0238,109.0
1838.759,98.0
1839.4945,111.0
1840.2303,78.0
1840.9664,102.0
1841.7028,120.0
1842.4395,91.0
1843.1764,61.0
1843.9137,71.0
1844.6512,83.0
1845.3892,79.0
1846.1273,72.0
1846.8657,70.0
1847.6045,70.0
1848.3435,53.0
1849.0829,68.0
1849.8225,65.0
1850.5624,77.0
1851.3026,79.0
1852.0431,74.0
1852.7839,83.0
1853.525,79.0
1854.2665,56.0
1855.0082,68.0
1855.7501,67.0
1856.4924,87.0
1857.235,68.0
1857.9779,86.0
1858.7211,111.0
1859.4646,83.0
1860.2084,68.0
1860.9525,78.0
1861.6969,87.0
1862.4415,84.0
1863.1865,72.0
1863.9318,77.0
1864.6774,86.0
1865.4232,76.0
1866.1694,48.0
1866.9159,90.0
1867.6627,88.0
1868.4098,96.0
1869.1571,72.0
1869.9048,82.0
1870.6527,90.0
1871.401,73.0
1872.1495,74.0
1872.8984,75.0
1873.6476,98.0
1874.3971,74.0
1875.1469,54.0
1875.8969,101.0
1876.6472,101.0
1877.3978,105.0
1878.1488,78.0
1878.9,72.0
1879.6516,74.0
1880.4034,57.0
1881.1556,45.0
1881.9081,64.0
1882.6609,85.0
1883.414,95.0
1884.1674,115.0
1884.921,401.0
1885.675,448.0
1886.4293,261.0
1887.1838,173.0
1887.9387,158.0
1888.6938,130.0
1889.4493,98.0
1890.2051,78.0
1890.9612,74.0
1891.7175,85.0
1892.4742,95.0
1893.2312,69.0
1893.9885,93.0
1894.7461,93.0
1895.504,86.0
1896.2622,93.0
1897.0208,107.0
1897.7795,115.0
1898.5387,93.0
1899.2981,71.0
1900.0579,55.0
1900.8179,90.0
1901.5782,80.0
1902.3389,77.0
1903.0999,62.0
1903.8611,77.0
1904.6227,69.0
1905.3845,72.0
1906.1467,66.0
1906.9092,80.0
1907.672,86.0
1908.435,87.0
1909.1985,70.0
1909.9622,71.0
1910.7262,82.0
1911.4905,85.0
1912.2551,69.0
1913.02,98.0
1913.7853,207.0
1914.5508,188.0
1915.3167,133.0
1916.0828,146.0
1916.8492,110.0
1917.616,95.0
1918.383,66.0
1919.1504,76.0
1919.9181,76.0
1920.686,63.0
1921.4543,65.0
1922.2229,60.0
1922.9918,64.0
1923.761,77.0
1924.5305,91.0
1925.3003,61.0
1926.0704,67.0
1926.8408,65.0
1927.6116,74.0
1928.3826,72.0
1929.1539,54.0
1929.9255,65.0
1930.6975,70.0
1931.4698,80.0
1932.2424,85.0
1933.0154,71.0
1933.7886,82.0
1934.5621,78.0
1935.3359,76.0
1936.1101,84.0
1936.8845,89.0
1937.6593,88.0
1938.4343,79.0
1939.2097,64.0
1939.9854,89.0
1940.7614,68.0
1941.5376,69.0
1942.3142,65.0
1943.0912,64.0
1943.8684,76.0
1944.646,75.0
1945.4238,63.0
1946.202,67.0
1946.9805,61.0
1947.7593,62.0
1948.5383,79.0
1949.3177,61.0
1950.0975,67.0
1950.8776,71.0
1951.658,75.0
1952.4386,72.0
1953.2196,73.0
1954.0009,78.0
1954.7825,71.0
1955.5643,63.0
1956.3466,55.0
1957.1292,57.0
1957.912,57.0
1958.6952,73.0
1959.4786,65.0
1960.2625,71.0
1961.0465,61.0
1961.8309,89.0
1962.6157,65.0
1963.4008,65.0
1964.1862,50.0
1964.9718,78.0
1965.7578,82.0
1966.5441,80.0
1967.3307,70.0
1968.1177,67.0
1968.9049,89.0
1969.6925,65.0
1970.4803,74.0
1971.2686,59.0
1972.057,69.0
1972.8458,76.0
1973.635,67.0
1974.4244,60.0
1975.2142,55.0
1976.0043,68.0
1976.7947,61.0
1977.5854,68.0
1978.3765,72.0
1979.1678,56.0
1979.9595,64.0
1980.7515,63.0
1981.5438,74.0
1982.3364,70.0
1983.1294,71.0
1983.9226,82.0
1984.7162,105.0
1985.5101,65.0
1986.3043,64.0
1987.0989,69.0
1987.8937,69.0
1988.6888,62.0
1989.4844,75.0
1990.2802,64.0
1991.0763,50.0
1991.8727,73.0
1992.6694,86.0
1993.4666,70.0
1994.2639,69.0
1995.0616,66.0
1995.8596,88.0
1996.658,73.0
1997.4567,77.0
1998.2556,73.0
1999.0549,71.0
1999.8546,87.0
2000.6545,84.0
2001.4548,63.0
2002.2554,61.0
2003.0563,59.0
2003.8575,77.0
2004.659,75.0
2005.4609,58.0
2006.2631,74.0
2007.0656,64.0
2007.8684,69.0
2008.6715,83.0
2009.475,113.0
2010.2788,82.0
2011.0829,90.0
2011.8873,112.0
2012.6921,97.0
2013.4972,88.0
2014.3026,66.0
2015.1083,70.0
2015.9143,75.0
2016.7207,59.0
2017.5273,73.0
2018.3344,55.0
2019.1417,69.0
2019.9493,48.0
2020.7573,73.0
2021.5657,75.0
2022.3743,61.0
2023.1832,59.0
2023.9926,60.0
2024.8021,62.0
2025.612,79.0
2026.4224,61.0
2027.2329,59.0
2028.0438,83.0
2028.855,93.0
2029.6665,83.0
2030.4784,68.0
2031.2905,64.0
2032.103,82.0
2032.9159,69.0
2033.729,89.0
2034.5425,81.0
2035.3563,61.0
2036.1704,72.0
2036.9849,68.0
2037.7997,70.0
2038.6147,77.0
2039.4302,70.0
2040.246,52.0
2041.062,75.0
2041.8784,65.0
2042.6952,70.0
2043.5123,67.0
2044.3297,60.0
2045.1475,74.0
2045.9656,77.0
2046.7839,80.0
2047.6027,74.0
2048.4216,54.0
2049.241,49.0
2050.0605,66.0
2050.8806,70.0
2051.701,71.0
2052.5217,74.0
2053.3428,82.0
2054.164,61.0
2054.9858,93.0
2055.8079,82.0
2056.6301,75.0
2057.453,69.0
2058.276,52.0
2059.099,69.0
2059.9229,69.0
2060.7468,81.0
2061.571,69.0
2062.3958,54.0
2063.2207,60.0
2064.046,69.0
2064.8716,84.0
2065.6975,76.0
2066.5237,82.0
2067.3503,44.0
2068.1772,67.0
2069.0046,63.0
2069.8323,61.0
2070.6602,76.0
2071.4885,69.0
2072.3171,56.0
2073.146,60.0
2073.9753,66.0
2074.805,70.0
2075.6348,69.0
2076.465,47.0
2077.2957,63.0
2078.1265,52.0
2078.9578,69.0
2079.7893,49.0
2080.6213,73.0
2081.4536,93.0
2082.2861,61.0
2083.1191,73.0
2083.9524,100.0
2084.786,99.0
2085.6199,81.0
2086.454,73.0
2087.2886,62.0
2088.1235,71.0
2088.9587,61.0
2089.7944,80.0
2090.6304,76.0
2091.4666,47.0
2092.3032,64.0
2093.1401,63.0
2093.9773,74.0
2094.815,69.0
2095.6528,82.0
2096.4912,64.0
2097.3298,54.0
2098.1687,65.0
2099.008,74.0
2099.8477,63.0
2100.6875,77.0
2101.5278,80.0
2102.3684,61.0
2103.2095,58.0
2104.0508,67.0
2104.8923,69.0
2105.7344,75.0
2106.5767,62.0
2107.4192,60.0
2108.2622,49.0
2109.1055,67.0
2109.9492,67.0
2110.7932,68.0
2111.6375,75.0
2112.4822,77.0
2113.3271,70.0
2114.1724,67.0
2115.018,75.0
2115.864,71.0
2116.7104,69.0
2117.5571,71.0
2118.404,58.0
2119.2515,74.0
2120.099,75.0
2120.9473,78.0
2121.7957,73.0
2122.6443,73.0
2123.4934,68.0
2124.3428,57.0
2125.1926,67.0
2126.0427,68.0
2126.893,79.0
2127.744,73.0
2128.595,65.0
2129.4463,73.0
2130.298,54.0
2131.1501,66.0
2132.0027,72.0
2132.8555,60.0
2133.7085,79.0
2134.562,76.0
2135.4158,72.0
2136.27,72.0
2137.1245,76.0
2137.9792,80.0
2138.8345,66.0
2139.69,72.0
2140.546,93.0
2141.402,86.0
2142.2585,86.0
2143.1155,82.0
2143.9727,79.0
2144.8303,75.0
2145.6882,73.0
2146.5464,71.0
2147.405,75.0
2148.264,61.0
2149.1233,74.0
2149.983,71.0
2150.843,88.0
2151.7034,76.0
2152.564,70.0
2153.425,57.0
2154.2864,64.0
2155.1482,65.0
2156.0103,72.0
2156.8726,91.0
2157.7354,78.0
2158.5984,65.0
2159.462,70.0
2160.3257,62.0
2161.1897,52.0
2162.0542,70.0
2162.919,98.0
2163.7842,65.0
2164.6497,100.0
2165.5156,75.0
2166.3818,65.0
2167.2483,78.0
2168.1152,77.0
2168.9824,100.0
2169.85,78.0
2170.718,68.0
2171.5864,61.0
2172.455,74.0
2173.324,71.0
2174.1934,58.0
2175.063,78.0
2175.933,78.0
2176.8035,78.0
2177.674,89.0
2178.5452,99.0
2179.4165,78.0
2180.2883,88.0
2181.1604,92.0
2182.033,73.0
2182.9058,71.0
2183.7788,69.0
2184.6523,84.0
2185.5261,76.0
2186.4004,74.0
2187.275,57.0
2188.15,69.0
2189.0251,74.0
2189.9006,77.0
2190.7766,83.0
2191.6528,70.0
2192.5295,67.0
2193.4065,85.0
2194.284,89.0
2195.1616,105.0
2196.0398,105.0
2196.9182,78.0
2197.7969,79.0
2198.676,83.0
2199.5554,72.0
2200.4353,56.0
2201.3154,70.0
2202.196,84.0
2203.077,73.0
2203.9583,75.0
2204.8398,78.0
2205.7217,80.0
2206.604,75.0
2207.4866,78.0
2208.3696,67.0
2209.253,78.0
2210.1367,75.0
2211.0208,82.0
2211.9053,100.0
2212.79,91.0
2213.675,69.0
2214.5605,78.0
2215.4463,83.0
2216.3325,89.0
2217.219,66.0
2218.106,78.0
2218.9932,68.0
2219.8809,87.0
2220.7688,94.0
2221.6572,81.0
2222.546,83.0
2223.4348,67.0
2224.3242,85.0
2225.2139,80.0
2226.104,95.0
2226.9944,67.0
2227.8853,66.0
2228.7764,74.0
2229.668,98.0
2230.5598,67.0
2231.4521,80.0
2232.3447,77.0
2233.2375,87.0
2234.1309,79.0
2235.0244,83.0
2235.9185,96.0
2236.8127,74.0
2237.7075,78.0
2238.6025,80.0
2239.498,71.0
2240.3938,75.0
2241.29,75.0
2242.1865,75.0
2243.0835,67.0
2243.9807,79.0
2244.8784,76.0
2245.7764,85.0
2246.6746,83.0
2247.5732,62.0
2248.4722,86.0
2249.3716,76.0
2250.2712,64.0
2251.1714,76.0
2252.0718,88.0
2252.9727,81.0
2253.8738,75.0
2254.7754,87.0
2255.6772,90.0
2256.5796,82.0
2257.4822,99.0
2258.3853,94.0
2259.2886,105.0
2260.1924,100.0
2261.0964,101.0
2262.001,96.0
2262.9058,72.0
2263.811,79.0
2264.7166,75.0
2265.6226,72.0
2266.5288,93.0
2267.4353,88.0
2268.3423,78.0
2269.2495,85.0
2270.1572,75.0
2271.0652,65.0
2271.9736,81.0
2272.8823,82.0
2273.7915,82.0
2274.701,82.0
2275.6108,106.0
2276.521,125.0
2277.4316,117.0
2278.3425,98.0
2279.254,94.0
2280.1655,75.0
2281.0776,85.0
2281.99,83.0
2282.9028,99.0
2283.816,74.0
2284.7295,82.0
2285.6433,93.0
2286.5576,87.0
2287.4722,80.0
2288.3872,76.0
2289.3025,74.0
2290.2183,79.0
2291.1343,83.0
2292.0508,91.0
2292.9675,90.0
2293.8848,108.0
2294.8022,95.0
2295.7202,91.0
2296.6384,88.0
2297.5571,69.0
2298.476,84.0
2299.3955,93.0
2300.3152,89.0
2301.2354,86.0
2302.1558,98.0
2303.0767,78.0
2303.9978,94.0
2304.9194,81.0
2305.8413,108.0
2306.7637,99.0
2307.6863,93.0
2308.6094,82.0
2309.5327,81.0
2310.4565,75.0
2311.3806,102.0
2312.3052,91.0
2313.23,94.0
2314.1553,85.0
2315.081,90.0
2316.007,94.0
2316.9336,96.0
2317.8604,76.0
2318.7876,115.0
2319.715,101.0
2320.643,120.0
2321.5713,109.0
2322.5,83.0
2323.429,86.0
2324.3584,105.0
2325.288,88.0
2326.2183,79.0
2327.1487,98.0
2328.0796,104.0
2329.0107,100.0
2329.9424,103.0
2330.8743,103.0
2331.8066,84.0
2332.7393,105.0
2333.6724,91.0
2334.6057,84.0
2335.5396,87.0
2336.4739,74.0
2337.4084,74.0
2338.3435,81.0
2339.2788,78.0
2340.2146,90.0
2341.1506,72.0
2342.0872,85.0
2343.024,87.0
2343.9612,97.0
2344.8987,113.0
2345.8367,110.0
2346.775,104.0
2347.7136,112.0
2348.6526,117.0
2349.592,74.0
2350.532,79.0
2351.4722,99.0
2352.4128,85.0
2353.3538,73.0
2354.2952,96.0
2355.2368,82.0
2356.179,92.0
2357.1213,85.0
2358.0642,87.0
2359.0073,81.0
2359.951,92.0
2360.895,71.0
2361.8394,108.0
2362.7842,105.0
2363.7292,83.0
2364.6748,88.0
2365.6206,90.0
2366.567,75.0
2367.5134,98.0
2368.4604,76.0
2369.4077,71.0
2370.3555,75.0
2371.3037,93.0
2372.2522,70.0
2373.2012,99.0
2374.1504,91.0
2375.1,79.0
2376.05,86.0
2377.0005,88.0
2377.9512,101.0
2378.9023,80.0
2379.854,76.0
2380.806,94.0
2381.7583,76.0
2382.711,72.0
2383.664,86.0
2384.6174,101.0
2385.5713,71.0
2386.5256,78.0
2387.4802,96.0
2388.4353,105.0
2389.3906,93.0
2390.3464,87.0
2391.3025,91.0
2392.259,86.0
2393.2158,78.0
2394.173,78.0
2395.1309,66.0
2396.0889,93.0
2397.0474,93.0
2398.006,88.0
2398.9653,85.0
2399.9248,85.0
2400.8848,70.0
2401.8452,68.0
2402.806,96.0
2403.767,79.0
2404.7285,75.0
2405.6904,83.0
2406.6526,65.0
2407.6152,74.0
2408.5784,82.0
2409.5417,75.0
2410.5056,76.0
2411.4697,78.0
2412.4343,93.0
2413.3994,74.0
2414.3647,79.0
2415.3306,89.0
2416.2966,89.0
2417.2632,88.0
2418.23,75.0
2419.1973,74.0
2420.165,72.0
2421.133,94.0
2422.1016,80.0
2423.0703,93.0
2424.0396,78.0
2425.0093,79.0
2425.9792,74.0
2426.9497,85.0
2427.9204,83.0
2428.8916,85.0
2429.863,75.0
2430.835,79.0
2431.8074,101.0
2432.78,92.0
2433.7532,89.0
2434.7266,75.0
2435.7004,77.0
2436.6748,76.0
2437.6494,76.0
2438.6245,77.0
2439.5999,91.0
2440.5757,64.0
2441.552,66.0
2442.5286,73.0
2443.5056,66.0
2444.483,73.0
2445.4607,65.0
2446.439,75.0
2447.4175,93.0
2448.3965,80.0
2449.3757,111.0
2450.3555,94.0
2451.3357,56.0
2452.3162,65.0
2453.297,75.0
2454.2783,80.0
2455.26,67.0
2456.2422,75.0
2457.2246,82.0
2458.2075,73.0
2459.191,66.0
2460.1746,66.0
2461.1587,84.0
2462.143,73.0
2463.128,70.0
2464.1133,86.0
2465.0989,81.0
2466.085,109.0
2467.0713,92.0
2468.058,85.0
2469.0454,85.0
2470.033,87.0
2471.021,74.0
2472.0095,97.0
2472.9983,88.0
2473.9875,64.0
2474.977,80.0
2475.967,66.0
2476.9575,77.0
2477.9482,72.0
2478.9395,75.0
2479.931,69.0
2480.9229,87.0
2481.9153,83.0
2482.908,102.0
2483.9011,76.0
2484.8948,65.0
2485.8887,73.0
2486.883,72.0
2487.878,84.0
2488.873,65.0
2489.8687,76.0
2490.8645,63.0
2491.8608,81.0
2492.8577,71.0
2493.8547,88.0
2494.8523,78.0
2495.8503,74.0
2496.8486,94.0
2497.8474,83.0
2498.8464,88.0
2499.846,105.0
2500.846,84.0
2501.8462,76.0
2502.847,88.0
2503.8481,83.0
2504.8496,76.0
2505.8516,71.0
2506.854,82.0
2507.8567,94.0
2508.8599,69.0
2509.8635,73.0
2510.8674,76.0
2511.8718,78.0
2512.8765,88.0
2513.8816,73.0
2514.8872,70.0
2515.893,54.0
2516.8994,68.0
2517.9062,88.0
2518.9133,76.0
2519.921,70.0
2520.929,102.0
2521.9373,79.0
2522.946,77.0
2523.9553,86.0
2524.9648,64.0
2525.9749,78.0
2526.9854,59.0
2527.996,84.0
2529.0073,82.0
2530.019,70.0
2531.031,78.0
2532.0435,76.0
2533.0562,78.0
2534.0693,90.0
2535.083,87.0
2536.097,95.0
2537.1113,87.0
2538.1262,61.0
2539.1414,77.0
2540.157,56.0
2541.173,63.0
2542.1895,73.0
2543.2063,59.0
2544.2236,86.0
2545.2412,79.0
2546.2593,106.0
2547.2778,89.0
2548.2966,96.0
2549.316,63.0
2550.3357,86.0
2551.3557,84.0
2552.3762,79.0
2553.3972,82.0
2554.4185,60.0
2555.4402,83.0
2556.4624,70.0
2557.485,67.0
2558.508,69.0
2559.5315,67.0
2560.5554,87.0
2561.5796,93.0
2562.6042,97.0
2563.6294,100.0
2564.6548,96.0
2565.6807,78.0
2566.707,97.0
2567.7336,83.0
2568.7607,85.0
2569.7883,82.0
2570.8162,70.0
2571.8445,64.0
2572.8733,67.0
2573.9023,83.0
2574.932,82.0
2575.962,89.0
2576.9922,88.0
2578.023,80.0
2579.0542,95.0
2580.086,89.0
2581.118,70.0
2582.1504,78.0
2583.1833,72.0
2584.2166,74.0
2585.2502,72.0
2586.2844,80.0
2587.3188,73.0
2588.3538,76.0
2589.3892,98.0
2590.4248,95.0
2591.461,78.0
2592.4976,95.0
2593.5347,105.0
2594.572,82.0
2595.6099,92.0
2596.6482,84.0
2597.6868,83.0
2598.7258,70.0
2599.7654,75.0
2600.8052,69.0
2601.8455,90.0
2602.8862,95.0
2603.9275,73.0
2604.969,76.0
2606.011,95.0
2607.0535,86.0
2608.0962,77.0
2609.1394,100.0
2610.183,99.0
2611.2273,106.0
2612.2717,100.0
2613.3167,90.0
2614.362,83.0
2615.4077,75.0
2616.4539,77.0
2617.5005,89.0
2618.5476,87.0
2619.595,84.0
2620.6428,86.0
2621.6912,90.0
2622.7397,87.0
2623.7888,85.0
2624.8384,75.0
2625.8884,87.0
2626.9387,67.0
2627.9895,80.0
2629.0408,75.0
2630.0923,68.0
2631.1443,66.0
2632.1968,92.0
2633.2498,94.0
2634.303,77.0
2635.3567,113.0
2636.411,91.0
2637.4653,91.0
2638.5203,73.0
2639.5757,83.0
2640.6316,87.0
2641.6877,98.0
2642.7444,87.0
2643.8015,90.0
2644.8591,83.0
2645.917,92.0
2646.9753,86.0
2648.0342,87.0
2649.0935,76.0
2650.153,89.0
2651.2131,88.0
2652.2737,92.0
2653.3345,75.0
2654.3958,75.0
2655.4575,72.0
2656.5198,80.0
2657.5823,81.0
2658.6453,98.0
2659.7087,78.0
2660.7727,80.0
2661.837,93.0
2662.9016,96.0
2663.9668,116.0
2665.0325,104.0
2666.0984,104.0
2667.1648,106.0
2668.2317,98.0
2669.299,93.0
2670.3667,108.0
2671.4348,75.0
2672.5034,77.0
2673.5725,79.0
2674.6418,72.0
2675.7117,89.0
2676.782,76.0
2677.8528,82.0
2678.9238,89.0
2679.9954,71.0
2681.0674,89.0
2682.14,78.0
2683.2126,89.0
2684.286,77.0
2685.3596,84.0
2686.4338,86.0
2687.5083,85.0
2688.5833,88.0
2689.6587,78.0
2690.7346,85.0
2691.8108,79.0
2692.8875,97.0
2693.9646,89.0
2695.0422,107.0
2696.1204,96.0
2697.1987,76.0
2698.2776,78.0
2699.357,69.0
2700.4368,73.0
2701.5168,100.0
2702.5974,103.0
2703.6785,85.0
2704.76,56.0
2705.8418,87.0
2706.924,91.0
2708.0068,84.0
2709.09,107.0
2710.1738,72.0
2711.2578,92.0
2712.3423,99.0
2713.4272,94.0
2714.5127,91.0
2715.5984,87.0
2716.6846,73.0
2717.7712,69.0
2718.8584,83.0
2719.946,78.0
2721.034,89.0
2722.1223,94.0
2723.2112,107.0
2724.3005,123.0
2725.3901,104.0
2726.4802,85.0
2727.5708,85.0
2728.6619,83.0
2729.7534,90.0
2730.8452,91.0
2731.9375,90.0
2733.0303,89.0
2734.1235,87.0
2735.2173,121.0
2736.3113,134.0
2737.4058,101.0
2738.5007,88.0
2739.5962,77.0
2740.6921,58.0
2741.7883,74.0
2742.885,74.0
2743.9822,95.0
2745.0798,82.0
2746.178,99.0
2747.2764,97.0
2748.3752,78.0
2749.4746,100.0
2750.5745,98.0
2751.6748,86.0
2752.7754,86.0
2753.8765,90.0
2754.978,87.0
2756.08,62.0
2757.1826,68.0
2758.2854,68.0
2759.3887,96.0
2760.4924,76.0
2761.5967,82.0
2762.7014,87.0
2763.8064,96.0
2764.9119,84.0
2766.0178,95.0
2767.1243,77.0
2768.2312,91.0
2769.3384,89.0
2770.446,67.0
2771.5542,89.0
2772.6628,83.0
2773.772,60.0
2774.8816,88.0
2775.9915,84.0
2777.1018,87.0
2778.2126,101.0
2779.324,88.0
2780.4358,82.0
2781.5479,78.0
2782.6604,68.0
2783.7734,81.0
2784.887,72.0
2786.001,85.0
2787.1155,87.0
2788.2302,91.0
2789.3455,86.0
2790.4612,74.0
2791.5774,97.0
2792.694,104.0
2793.8113,153.0
2794.9287,162.0
2796.0466,161.0
2797.165,159.0
2798.284,116.0
2799.4033,130.0
2800.5232,155.0
2801.6433,113.0
2802.764,133.0
2803.885,111.0
2805.0066,124.0
2806.1287,124.0
2807.2512,172.0
2808.374,180.0
2809.4973,163.0
2810.621,142.0
2811.7454,113.0
2812.87,131.0
2813.9954,110.0
2815.1208,132.0
2816.2468,126.0
2817.3733,123.0
2818.5002,123.0
2819.6277,127.0
2820.7556,108.0
2821.884,116.0
2823.0127,122.0
2824.1418,106.0
2825.2715,104.0
2826.4016,126.0
2827.5322,116.0
2828.6633,142.0
2829.7947,127.0
2830.9265,138.0
2832.0588,134.0
2833.1917,122.0
2834.325,129.0
2835.4587,110.0
2836.593,100.0
2837.7275,130.0
2838.8625,103.0
2839.998,138.0
2841.134,150.0
2842.2705,122.0
2843.4075,133.0
2844.545,121.0
2845.6829,113.0
2846.821,108.0
2847.9597,146.0
2849.0989,140.0
2850.2385,140.0
2851.3787,132.0
2852.5193,122.0
2853.6604,137.0
2854.8018,130.0
2855.9436,121.0
2857.086,115.0
2858.2288,133.0
2859.372,119.0
2860.5159,128.0
2861.6602,107.0
2862.805,118.0
2863.95,133.0
2865.0955,161.0
2866.2415,174.0
2867.388,163.0
2868.535,137.0
2869.6824,132.0
2870.8303,125.0
2871.9788,114.0
2873.1274,146.0
2874.2766,148.0
2875.4263,140.0
2876.5764,122.0
2877.727,138.0
2878.8782,129.0
2880.0298,128.0
2881.182,126.0
2882.3345,127.0
2883.4873,112.0
2884.6406,125.0
2885.7944,97.0
2886.9487,100.0
2888.1035,134.0
2889.2588,123.0
2890.4146,149.0
2891.5708,204.0
2892.7275,170.0
2893.8845,138.0
2895.042,131.0
2896.2,127.0
2897.3584,110.0
2898.5173,127.0
2899.6768,129.0
2900.8367,103.0
2901.997,132.0
2903.158,112.0
2904.3193,136.0
2905.481,160.0
2906.643,127.0
2907.8057,212.0
2908.9688,276.0
2910.1323,246.0
2911.2964,202.0
2912.461,175.0
2913.626,161.0
2914.7915,107.0
2915.9575,102.0
2917.124,103.0
2918.2908,128.0
2919.458,143.0
2920.6257,108.0
2921.794,169.0
2922.9626,158.0
2924.1318,140.0
2925.3015,146.0
2926.4717,153.0
2927.6423,129.0
2928.8135,118.0
2929.985,117.0
2931.157,126.0
2932.3293,129.0
2933.5022,117.0
2934.6755,124.0
2935.8494,109.0
2937.0237,112.0
2938.1985,114.0
2939.3738,136.0
2940.5496,132.0
2941.7258,120.0
2942.9026,125.0
2944.0798,126.0
2945.2576,139.0
2946.4358,128.0
2947.6143,115.0
2948.7932,133.0
2949.9727,96.0
2951.1526,118.0
2952.333,118.0
2953.514,115.0
2954.6953,103.0
2955.8772,105.0
2957.0596,134.0
2958.2424,139.0
2959.4258,128.0
2960.6096,122.0
2961.794,109.0
2962.9788,104.0
2964.164,128.0
2965.3496,127.0
2966.5356,122.0
2967.7222,121.0
2968.9092,99.0
2970.0967,118.0
2971.2847,129.0
2972.4731,121.0
2973.662,140.0
2974.8516,134.0
2976.0415,124.0
2977.232,131.0
2978.4229,131.0
2979.6143,132.0
2980.8062,132.0
2981.9985,126.0
2983.1914,120.0
2984.3848,113.0
2985.5786,142.0
2986.773,133.0
2987.9678,108.0
2989.1628,115.0
2990.3584,128.0
2991.5544,134.0
2992.751,117.0
2993.948,107.0
2995.1455,126.0
2996.3435,107.0
2997.542,121.0
2998.741,119.0
2999.9404,111.0
3001.1404,97.0
3002.3408,116.0
3003.5417,129.0
3004.7432,136.0
3005.945,140.0
3007.1475,133.0
3008.3503,135.0
3009.5537,136.0
3010.7576,126.0
3011.962,111.0
3013.1667,119.0
3014.372,118.0
3015.578,147.0
3016.7842,127.0
3017.991,120.0
3019.1982,108.0
3020.406,139.0
3021.6143,163.0
3022.823,141.0
3024.0322,110.0
3025.242,133.0
3026.4521,120.0
3027.6628,113.0
3028.874,95.0
3030.0857,108.0
3031.2976,134.0
3032.51,138.0
3033.723,112.0
3034.9363,120.0
3036.1501,123.0
3037.3645,147.0
3038.5793,115.0
3039.7947,135.0
3041.0105,93.0
3042.2268,117.0
3043.4436,118.0
3044.661,125.0
3045.8787,110.0
3047.097,115.0
3048.3157,126.0
3049.535,108.0
3050.7546,111.0
3051.9749,96.0
3053.1956,113.0
3054.4167,150.0
3055.6384,134.0
3056.8606,125.0
3058.0833,122.0
3059.3064,106.0
3060.53,121.0
3061.7542,113.0
3062.9788,124.0
3064.2039,139.0
3065.4294,118.0
3066.6555,127.0
3067.882,110.0
3069.1091,117.0
3070.3367,129.0
3071.5647,136.0
3072.7932,114.0
3074.0222,115.0
3075.2517,116.0
3076.4817,148.0
3077.7124,107.0
3078.9436,110.0
3080.1753,93.0
3081.4075,110.0
3082.6401,112.0
3083.8733,121.0
3085.107,107.0
3086.341,113.0
3087.5757,131.0
3088.8108,125.0
3090.0464,111.0
3091.2825,105.0
3092.519,144.0
3093.756,124.0
3094.9937,119.0
3096.2317,115.0
3097.4702,130.0
3098.7092,113.0
3099.9487,123.0
3101.1887,118.0
3102.4292,116.0
3103.6702,111.0
3104.9116,122.0
3106.1536,123.0
3107.396,134.0
3108.639,108.0
3109.8823,121.0
3111.1262,123.0
3112.3706,126.0
3113.6155,115.0
3114.8608,137.0
3116.1067,120.0
3117.353,122.0
3118.5999,122.0
3119.8474,112.0
3121.0955,112.0
3122.344,129.0
3123.593,120.0
3124.8425,114.0
3126.0925,113.0
3127.343,149.0
3128.594,106.0
3129.8455,116.0
3131.0974,123.0
3132.3499,103.0
3133.6028,127.0
3134.8562,123.0
3136.11,107.0
3137.3645,139.0
3138.6194,134.0
3139.8748,131.0
3141.1306,109.0
3142.387,118.0
3143.6438,125.0
3144.9014,129.0
3146.1594,140.0
3147.418,147.0
3148.677,105.0
3149.9365,107.0
3151.1965,99.0
3152.457,142.0
3153.718,128.0
3154.9795,102.0
3156.2415,134.0
3157.504,123.0
3158.7668,123.0
3160.0303,126.0
3161.2942,120.0
3162.5586,121.0
3163.8237,102.0
3165.0894,98.0
3166.3555,108.0
3167.622,144.0
3168.8892,112.0
3170.1567,117.0
3171.4248,136.0
3172.6934,134.0
3173.9624,139.0
3175.232,96.0
3176.502,113.0
3177.7725,116.0
3179.0435,104.0
3180.3152,123.0
3181.5874,129.0
3182.86,114.0
3184.1333,108.0
3185.407,118.0
3186.6812,133.0
3187.9558,133.0
3189.231,136.0
3190.5066,120.0
3191.7827,111.0
3193.0593,98.0
3194.3367,121.0
3195.6145,138.0
3196.8928,114.0
3198.1716,106.0
3199.451,132.0
3200.7307,118.0
3202.011,98.0
3203.2917,120.0
3204.573,118.0
3205.8547,121.0
3207.137,100.0
3208.42,115.0
3209.7034,136.0
3210.9873,125.0
3212.2717,117.0
3213.5566,134.0
3214.842,131.0
3216.128,133.0
3217.4143,120.0
3218.7012,153.0
3219.9888,134.0
3221.2769,116.0
3222.5654,127.0
3223.8545,122.0
3225.144,116.0
3226.434,126.0
3227.7246,139.0
3229.0156,115.0
3230.3071,119.0
3231.5994,121.0
3232.892,117.0
3234.1853,122.0
3235.479,140.0
3236.7732,124.0
3238.0679,117.0
3239.363,127.0
3240.6587,111.0
3241.9548,98.0
3243.2517,107.0
3244.549,143.0
3245.847,122.0
3247.1453,118.0
3248.444,128.0
3249.7434,123.0
3251.0432,99.0
3252.3438,105.0
3253.6448,152.0
3254.9463,113.0
3256.2483,110.0
3257.5508,130.0
3258.8538,113.0
3260.1572,117.0
3261.4612,132.0
3262.7659,130.0
3264.071,120.0
3265.3767,126.0
3266.6829,105.0
3267.9895,109.0
3269.2966,113.0
3270.6042,145.0
3271.9126,134.0
3273.2214,106.0
3274.5308,129.0
3275.8406,129.0
3277.151,121.0
3278.4617,133.0
3279.773,136.0
3281.085,97.0
3282.3975,118.0
3283.7104,130.0
3285.024,137.0
3286.338,124.0
3287.6523,134.0
3288.9673,130.0
3290.283,124.0
3291.599,113.0
3292.9158,118.0
3294.233,94.0
3295.5505,133.0
3296.8687,131.0
3298.1875,98.0
3299.5068,124.0
3300.8267,132.0
3302.147,115.0
3303.4678,127.0
3304.789,133.0
3306.111,127.0
3307.4336,124.0
3308.7566,146.0
3310.08,104.0
3311.404,130.0
3312.7285,154.0
3314.0537,123.0
3315.3794,120.0
3316.7056,107.0
3318.0322,141.0
3319.3594,141.0
3320.687,150.0
3322.0154,116.0
3323.3442,118.0
3324.6736,142.0
3326.0034,144.0
3327.3337,118.0
3328.6648,148.0
3329.9963,116.0
3331.3284,122.0
3332.661,143.0
3333.994,118.0
3335.3274,146.0
3336.6616,134.0
3337.9963,116.0
3339.3315,135.0
3340.6672,134.0
3342.0034,116.0
3343.3403,123.0
3344.6777,112.0
3346.0156,132.0
3347.354,112.0
3348.6929,137.0
3350.0322,137.0
3351.3723,142.0
3352.713,133.0
3354.054,148.0
3355.3955,141.0
3356.7375,134.0
3358.0803,124.0
3359.4236,149.0
3360.7673,123.0
3362.1116,127.0
3363.4563,147.0
3364.8018,140.0
3366.1477,132.0
3367.4941,152.0
3368.841,164.0
3370.1887,138.0
3371.5369,133.0
3372.8855,123.0
3374.2346,144.0
3375.5842,142.0
3376.9346,109.0
3378.2854,144.0
3379.6367,107.0
3380.9885,124.0
3382.3408,140.0
3383.6938,155.0
3385.0474,140.0
3386.4014,148.0
3387.7559,127.0
3389.1108,131.0
3390.4666,128.0
3391.8228,122.0
3393.1794,136.0
3394.5366,126.0
3395.8945,133.0
3397.253,117.0
3398.6118,146.0
3399.9712,108.0
3401.3313,133.0
3402.692,128.0
3404.053,145.0
3405.4146,130.0
3406.7766,125.0
3408.1394,111.0
3409.5027,141.0
3410.8665,140.0
3412.2307,147.0
3413.5957,138.0
3414.9612,124.0
3416.3271,135.0
3417.6936,125.0
3419.0608,121.0
3420.4285,152.0
3421.7966,160.0
3423.1653,120.0
3424.5347,134.0
3425.9045,121.0
3427.275,128.0
3428.6458,144.0
3430.017,138.0
3431.3892,140.0
3432.7617,137.0
3434.1348,126.0
3435.5083,118.0
3436.8826,137.0
3438.2573,123.0
3439.6326,138.0
3441.0083,127.0
3442.3848,116.0
3443.7617,131.0
3445.1392,127.0
3446.5173,118.0
3447.896,127.0
3449.2751,122.0
3450.6548,134.0
3452.0352,124.0
3453.416,115.0
3454.7974,138.0
3456.1792,116.0
3457.5618,132.0
3458.9448,137.0
3460.3284,150.0
3461.7124,142.0
3463.0972,118.0
3464.4824,141.0
3465.8682,144.0
3467.2544,140.0
3468.6414,119.0
3470.0288,118.0
3471.4167,121.0
3472.8054,114.0
3474.1946,121.0
3475.5842,150.0
3476.9744,105.0
3478.3652,143.0
3479.7566,138.0
3481.1484,123.0
3482.541,145.0
3483.934,136.0
3485.3276,113.0
3486.7217,156.0
3488.1165,156.0
3489.5117,153.0
3490.9075,141.0
3492.304,134.0
3493.701,126.0
3495.0984,138.0
3496.4963,134.0
3497.895,148.0
3499.2942,140.0
3500.6938,147.0
3502.0942,140.0
3503.495,118.0
3504.8965,133.0
3506.2983,111.0
3507.701,131.0
3509.104,133.0
3510.5076,147.0
3511.9119,157.0
3513.3167,155.0
3514.722,153.0
3516.128,147.0
3517.5344,131.0
3518.9414,131.0
3520.3489,146.0
3521.757,161.0
3523.1658,176.0
3524.575,172.0
3525.9849,148.0
3527.3953,138.0
3528.8062,153.0
3530.2178,170.0
3531.63,200.0
3533.0425,160.0
3534.4558,132.0
3535.8696,127.0
3537.284,129.0
3538.6987,154.0
3540.1143,135.0
3541.5303,135.0
3542.9468,154.0
3544.364,149.0
3545.7817,146.0
3547.2,129.0
3548.619,148.0
3550.0383,134.0
3551.4583,145.0
3552.879,148.0
3554.3,124.0
3555.7217,143.0
3557.144,127.0
3558.567,148.0
3559.9902,146.0
3561.4143,148.0
3562.8389,165.0
3564.264,153.0
3565.6897,180.0
3567.116,139.0
3568.5427,147.0
3569.9702,123.0
3571.3982,169.0
3572.8267,160.0
3574.2559,136.0
3575.6855,138.0
3577.1157,139.0
3578.5466,151.0
3579.978,173.0
3581.41,159.0
3582.8425,155.0
3584.2756,145.0
3585.7092,165.0
3587.1436,155.0
3588.5784,150.0
3590.014,153.0
3591.45,183.0
3592.8865,142.0
3594.3237,144.0
3595.7615,168.0
3597.1997,197.0
3598.6387,193.0
3600.0781,189.0
3601.518,182.0
3602.9587,171.0
3604.4,134.0
3605.8416,150.0
3607.284,171.0
3608.7268,227.0
3610.1704,157.0
3611.6145,194.0
3613.059,152.0
3614.5044,157.0
3615.9502,220.0
3617.3965,238.0
3618.8435,169.0
3620.291,175.0
3621.739,179.0
3623.1877,161.0
3624.637,149.0
3626.087,167.0
3627.5374,157.0
3628.9883,172.0
3630.44,182.0
3631.892,171.0
3633.3447,147.0
3634.798,186.0
3636.252,158.0
3637.7065,182.0
3639.1616,161.0
3640.6172,146.0
3642.0735,160.0
3643.5303,150.0
3644.9878,201.0
3646.4458,201.0
3647.9043,143.0
3649.3635,158.0
3650.8232,172.0
3652.2837,139.0
3653.7446,148.0
3655.206,147.0
3656.6682,148.0
3658.1309,153.0
3659.594,169.0
3661.0579,176.0
3662.5222,179.0
3663.9873,163.0
3665.453,171.0
3666.919,167.0
3668.3857,159.0
3669.853,165.0
3671.321,141.0
3672.7896,154.0
3674.2585,147.0
3675.7283,224.0
3677.1985,168.0
3678.6694,197.0
3680.1409,213.0
3681.613,174.0
3683.0857,169.0
3684.5588,181.0
3686.0327,161.0
3687.507,149.0
3688.9822,154.0
3690.4578,156.0
3691.9338,205.0
3693.4106,174.0
3694.888,184.0
3696.366,164.0
3697.8445,188.0
3699.3237,179.0
3700.8035,187.0
3702.2837,189.0
3703.7646,181.0
3705.246,158.0
3706.7283,197.0
3708.211,201.0
3709.6943,277.0
3711.1782,243.0
3712.6626,223.0
3714.1477,198.0
3715.6333,194.0
3717.1196,197.0
3718.6064,177.0
3720.094,185.0
3721.582,196.0
3723.0706,208.0
3724.5598,193.0
3726.0496,177.0
3727.54,165.0
3729.031,192.0
3730.5227,197.0
3732.015,193.0
3733.5078,309.0
3735.0012,378.0
3736.495,295.0
3737.9897,263.0
3739.4849,206.0
3740.9807,211.0
3742.477,222.0
3743.974,231.0
3745.4717,230.0
3746.97,197.0
3748.4688,194.0
3749.968,494.0
3751.468,983.0
3752.9685,1077.0
3754.4697,614.0
3755.9714,382.0
3757.4739,269.0
3758.9768,234.0
3760.4805,202.0
3761.9846,193.0
3763.4895,201.0
3764.9949,214.0
3766.501,229.0
3768.0076,244.0
3769.515,187.0
3771.0227,184.0
3772.531,198.0
3774.04,215.0
3775.5496,232.0
3777.0598,219.0
3778.5706,205.0
3780.082,217.0
3781.594,200.0
3783.1067,289.0
3784.6199,341.0
3786.1338,269.0
3787.6482,207.0
3789.1633,200.0
3790.679,175.0
3792.1953,180.0
3793.7122,192.0
3795.2297,171.0
3796.7478,193.0
3798.2666,201.0
3799.786,224.0
3801.306,191.0
3802.8264,196.0
3804.3477,183.0
3805.8694,184.0
3807.3918,189.0
3808.9148,202.0
3810.4385,221.0
3811.9626,224.0
3813.4875,204.0
3815.013,253.0
3816.539,231.0
3818.0657,182.0
3819.593,185.0
3821.1208,179.0
3822.6494,196.0
3824.1785,170.0
3825.7083,196.0
3827.2385,170.0
3828.7695,179.0
3830.301,194.0
3831.8333,207.0
3833.366,185.0
3834.8994,196.0
3836.4333,193.0
3837.968,179.0
3839.5032,209.0
3841.039,199.0
3842.5754,191.0
3844.1125,198.0
3845.6501,201.0
3847.1885,209.0
3848.7273,277.0
3850.2668,219.0
3851.807,214.0
3853.3477,206.0
3854.889,191.0
3856.431,174.0
3857.9734,183.0
3859.5166,169.0
3861.0603,204.0
3862.6047,179.0
3864.1497,183.0
3865.6953,181.0
3867.2417,200.0
3868.7886,215.0
3870.3362,192.0
3871.8843,186.0
3873.433,186.0
3874.9824,190.0
3876.5325,205.0
3878.083,202.0
3879.6343,196.0
3881.186,216.0
3882.7385,219.0
3884.2915,209.0
3885.8452,233.0
3887.3997,225.0
3888.9546,218.0
3890.5103,184.0
3892.0664,181.0
3893.6233,228.0
3895.1807,228.0
3896.7388,219.0
3898.2974,198.0
3899.8567,232.0
3901.4167,225.0
3902.9773,227.0
3904.5386,172.0
3906.1003,184.0
3907.6628,212.0
3909.2258,189.0
3910.7896,203.0
3912.3538,172.0
3913.9187,185.0
3915.4844,199.0
3917.0505,187.0
3918.6174,203.0
3920.1848,171.0
3921.753,195.0
3923.3215,161.0
3924.8909,188.0
3926.461,181.0
3928.0315,180.0
3929.6028,159.0
3931.1746,186.0
3932.747,173.0
3934.32,180.0
3935.8938,175.0
3937.4683,175.0
3939.0432,181.0
3940.619,172.0
3942.195,199.0
3943.772,165.0
3945.3494,161.0
3946.9275,182.0
3948.5063,192.0
3950.0857,189.0
3951.6658,189.0
3953.2463,183.0
3954.8276,192.0
3956.4097,180.0
3957.9922,195.0
3959.5754,199.0
3961.1592,201.0
3962.7437,180.0
3964.3289,170.0
3965.9146,187.0
3967.501,173.0
3969.088,179.0
3970.6755,167.0
3972.264,186.0
3973.8528,205.0
3975.4424,190.0
3977.0325,184.0
3978.6233,202.0
3980.2148,185.0
3981.807,196.0
3983.3997,174.0
3984.993,159.0
3986.587,187.0
3988.1816,178.0
3989.7769,162.0
3991.3728,215.0
3992.9692,194.0
3994.5664,189.0
3996.1643,188.0
3997.7627,208.0
3999.3618,175.0
4000.9617,188.0
4002.562,200.0
4004.163,213.0
4005.7646,241.0
4007.367,206.0
4008.97,225.0
4010.5735,201.0
4012.1777,204.0
4013.7827,235.0
4015.3882,194.0
4016.9944,219.0
4018.601,237.0
4020.2085,250.0
4021.8167,246.0
4023.4253,229.0
4025.0347,216.0
4026.6448,252.0
4028.2554,296.0
4029.8667,316.0
4031.4788,238.0
4033.0913,263.0
4034.7046,247.0
4036.3184,290.0
4037.9329,357.0
4039.548,287.0
4041.1638,330.0
4042.7803,360.0
4044.3975,324.0
4046.0151,286.0
4047.6335,222.0
4049.2527,284.0
4050.8723,481.0
4052.4927,499.0
4054.1138,333.0
4055.7354,273.0
4057.3577,254.0
4058.9807,644.0
4060.6042,841.0
4062.2285,545.0
4063.8535,385.0
4065.479,302.0
4067.1052,338.0
4068.7322,388.0
4070.3596,354.0
4071.9878,383.0
4073.6167,373.0
4075.246,318.0
4076.8762,321.0
4078.507,284.0
4080.1384,342.0
4081.7705,421.0
4083.4033,390.0
4085.0366,423.0
4086.6707,485.0
4088.3054,348.0
4089.9407,326.0
4091.5767,304.0
4093.2134,647.0
4094.8506,944.0
4096.489,576.0
4098.1274,340.0
4099.7666,267.0
4101.4067,643.0
4103.0474,1715.0
4104.6885,1395.0
4106.3306,584.0
4107.973,319.0
4109.616,270.0
4111.2603,246.0
4112.905,266.0
4114.55,319.0
4116.196,282.0
4117.8423,244.0
4119.4893,229.0
4121.137,225.0
4122.7856,207.0
4124.4346,238.0
4126.0845,217.0
4127.735,215.0
4129.3857,190.0
4131.0376,234.0
4132.69,247.0
4134.343,218.0
4135.9966,216.0
4137.651,212.0
4139.306,205.0
4140.962,200.0
4142.618,198.0
4144.2754,180.0
4145.933,199.0
4147.5913,227.0
4149.2505,201.0
4150.91,200.0
4152.5703,198.0
4154.2314,228.0
4155.893,243.0
4157.5557,201.0
4159.2188,205.0
4160.8823,198.0
4162.547,229.0
4164.212,217.0
4165.8774,233.0
4167.544,224.0
4169.211,239.0
4170.8784,206.0
4172.547,228.0
4174.216,248.0
4175.8857,256.0
4177.556,226.0
4179.227,239.0
4180.899,241.0
4182.5713,237.0
4184.244,214.0
4185.918,227.0
4187.5923,219.0
4189.267,229.0
4190.943,232.0
4192.619,224.0
4194.2964,206.0
4195.974,210.0
4197.6523,226.0
4199.3315,215.0
4201.011,248.0
4202.6914,237.0
4204.3726,236.0
4206.054,220.0
4207.737,240.0
4209.42,198.0
4211.1035,199.0
4212.788,239.0
4214.473,220.0
4216.1587,213.0
4217.845,215.0
4219.532,210.0
4221.22,216.0
4222.9087,255.0
4224.5977,240.0
4226.2876,231.0
4227.978,251.0
4229.6694,218.0
4231.3613,205.0
4233.0537,253.0
4234.747,227.0
4236.441,239.0
4238.1353,210.0
4239.8306,251.0
4241.5264,220.0
4243.223,221.0
4244.9204,243.0
4246.618,229.0
4248.317,221.0
4250.016,228.0
4251.7163,225.0
4253.417,203.0
4255.118,225.0
4256.8203,258.0
4258.523,211.0
4260.2266,229.0
4261.9307,239.0
4263.6353,244.0
4265.341,239.0
4267.047,262.0
4268.754,329.0
4270.4614,245.0
4272.1694,217.0
4273.8784,224.0
4275.588,304.0
4277.2983,349.0
4279.0093,285.0
4280.7207,220.0
4282.433,221.0
4284.146,296.0
4285.86,510.0
4287.574,368.0
4289.289,274.0
4291.005,242.0
4292.721,248.0
4294.4385,220.0
4296.1562,214.0
4297.8745,248.0
4299.5938,246.0
4301.3135,206.0
4303.034,218.0
4304.7554,196.0
4306.477,238.0
4308.1997,202.0
4309.923,234.0
4311.647,205.0
4313.3716,191.0
4315.097,192.0
4316.823,199.0
4318.55,195.0
4320.2773,180.0
4322.0054,205.0
4323.7344,201.0
4325.464,200.0
4327.194,198.0
4328.925,223.0
4330.6562,246.0
4332.3887,230.0
4334.1216,193.0
4335.8555,221.0
4337.59,235.0
4339.3247,204.0
4341.0605,205.0
4342.797,211.0
4344.534,198.0
4346.272,209.0
4348.0103,203.0
4349.7495,206.0
4351.4893,207.0
4353.23,221.0
4354.971,192.0
4356.7134,258.0
4358.456,223.0
4360.199,237.0
4361.9434,234.0
4363.688,232.0
4365.4336,217.0
4367.1797,240.0
4368.927,202.0
4370.6743,212.0
4372.4224,268.0
4374.1714,239.0
4375.921,213.0
4377.6714,225.0
4379.4224,208.0
4381.1743,233.0
4382.927,212.0
4384.6797,248.0
4386.4336,204.0
4388.188,239.0
4389.9434,263.0
4391.699,244.0
4393.456,227.0
4395.2134,243.0
4396.9717,232.0
4398.7305,237.0
4400.4897,243.0
4402.25,249.0
4404.0107,245.0
4405.7725,222.0
4407.5347,246.0
4409.298,294.0
4411.0615,262.0
4412.826,252.0
4414.5913,255.0
4416.357,296.0
4418.1235,329.0
4419.8906,298.0
4421.6587,245.0
4423.4272,263.0
4425.197,276.0
4426.967,249.0
4428.738,247.0
4430.5093,298.0
4432.2812,262.0
4434.054,257.0
4435.8276,252.0
4437.602,309.0
4439.377,317.0
4441.153,307.0
4442.929,264.0
4444.7065,255.0
4446.4844,262.0
4448.263,273.0
4450.0425,284.0
4451.8223,285.0
4453.603,278.0
4455.3843,250.0
4457.1665,277.0
4458.949,291.0
4460.733,295.0
4462.517,277.0
4464.3022,283.0
4466.088,284.0
4467.8745,343.0
4469.6616,343.0
4471.4497,295.0
4473.2383,325.0
4475.0273,294.0
4476.8174,278.0
4478.608,254.0
4480.3994,293.0
4482.1914,295.0
4483.9844,302.0
4485.778,281.0
4487.5723,286.0
4489.367,345.0
4491.163,332.0
4492.9595,303.0
4494.757,270.0
4496.5547,309.0
4498.3535,340.0
4500.153,352.0
4501.953,320.0
4503.754,347.0
4505.555,327.0
4507.3574,308.0
4509.16,284.0
4510.964,290.0
4512.768,298.0
4514.573,346.0
4516.379,288.0
4518.1855,280.0
4519.9927,272.0
4521.801,387.0
4523.6094,348.0
4525.419,292.0
4527.229,251.0
4529.04,330.0
4530.8516,543.0
4532.664,468.0
4534.477,297.0
4536.291,281.0
4538.1055,300.0
4539.921,313.0
4541.737,267.0
4543.5537,254.0
4545.371,238.0
4547.1895,253.0
4549.0083,227.0
4550.828,235.0
4552.6484,271.0
4554.4697,223.0
4556.2915,228.0
4558.1143,228.0
4559.9375,261.0
4561.7617,242.0
4563.5864,256.0
4565.4116,192.0
4567.238,231.0
4569.0645,231.0
4570.892,267.0
4572.72,240.0
4574.5493,239.0
4576.379,217.0
4578.2095,216.0
4580.0405,243.0
4581.8726,242.0
4583.705,226.0
4585.5386,233.0
4587.3726,235.0
4589.2075,241.0
4591.043,254.0
4592.8794,293.0
4594.7163,253.0
4596.554,258.0
4598.3926,226.0
4600.232,272.0
4602.0723,249.0
4603.913,248.0
4605.755,240.0
4607.597,197.0
4609.4404,267.0
4611.284,250.0
4613.129,237.0
4614.974,267.0
4616.8203,246.0
4618.667,253.0
4620.5146,282.0
4622.363,256.0
4624.212,258.0
4626.0615,267.0
4627.912,267.0
4629.763,243.0
4631.615,254.0
4633.468,250.0
4635.3213,283.0
4637.1753,243.0
4639.0303,267.0
4640.8857,259.0
4642.742,250.0
4644.599,251.0
4646.457,239.0
4648.3154,262.0
4650.175,237.0
4652.0347,258.0
4653.8955,272.0
4655.757,219.0
4657.619,220.0
4659.4824,236.0
4661.346,284.0
4663.211,276.0
4665.076,278.0
4666.9424,251.0
4668.809,288.0
4670.677,260.0
4672.545,256.0
4674.414,240.0
4676.2837,244.0
4678.1543,265.0
4680.0254,273.0
4681.8975,270.0
4683.77,249.0
4685.6436,253.0
4687.5176,256.0
4689.3926,273.0
4691.2686,225.0
4693.145,278.0
4695.0225,285.0
4696.9004,306.0
4698.7793,241.0
4700.6587,218.0
4702.539,229.0
4704.42,258.0
4706.302,243.0
4708.184,287.0
4710.0674,294.0
4711.951,278.0
4713.836,279.0
4715.7217,256.0
4717.608,246.0
4719.495,220.0
4721.383,233.0
4723.2715,247.0
4725.1606,249.0
4727.051,278.0
4728.9414,243.0
4730.833,247.0
4732.725,251.0
4734.618,238.0
4736.512,255.0
4738.4067,252.0
4740.3022,197.0
4742.198,226.0
4744.095,223.0
4745.9927,262.0
4747.891,240.0
4749.79,219.0
4751.69,251.0
4753.591,250.0
4755.492,240.0
4757.3945,249.0
4759.2974,235.0
4761.201,212.0
4763.1055,241.0
4765.0107,222.0
4766.9165,216.0
4768.823,184.0
4770.731,190.0
4772.639,208.0
4774.5483,211.0
4776.458,206.0
4778.3687,207.0
4780.28,221.0
4782.192,217.0
4784.105,199.0
4786.0186,186.0
4787.933,205.0
4789.848,207.0
4791.764,181.0
4793.6807,227.0
4795.598,219.0
4797.5166,221.0
4799.4355,202.0
4801.3555,185.0
4803.276,190.0
4805.1973,183.0
4807.119,189.0
4809.042,195.0
4810.966,239.0
4812.89,202.0
4814.8154,221.0
4816.741,231.0
4818.668,199.0
4820.595,182.0
4822.5234,208.0
4824.4526,198.0
4826.3823,227.0
4828.313,200.0
4830.244,222.0
4832.1763,220.0
4834.1094,211.0
4836.043,208.0
4837.9775,189.0
4839.9126,181.0
4841.8486,201.0
4843.785,202.0
4845.7227,192.0
4847.661,174.0
4849.6,169.0
4851.54,189.0
4853.4805,186.0
4855.422,175.0
4857.3643,154.0
4859.307,193.0
4861.251,184.0
4863.1953,181.0
4865.1406,187.0
4867.087,180.0
4869.0337,158.0
4870.9814,201.0
4872.9297,191.0
4874.879,170.0
4876.829,174.0
4878.78,162.0
4880.7314,184.0
4882.6836,181.0
4884.6367,201.0
4886.5903,202.0
4888.545,182.0
4890.5005,167.0
4892.4565,169.0
4894.4136,177.0
4896.3716,223.0
4898.33,207.0
4900.2896,177.0
4902.2495,179.0
4904.2104,179.0
4906.1724,183.0
4908.135,174.0
4910.098,179.0
4912.062,161.0
4914.027,182.0
4915.9927,188.0
4917.959,200.0
4919.9263,203.0
4921.894,178.0
4923.863,179.0
4925.8325,205.0
4927.8027,189.0
4929.774,199.0
4931.7456,186.0
4933.7183,184.0
4935.692,208.0
4937.666,164.0
4939.641,188.0
4941.617,181.0
4943.5938,183.0
4945.5713,189.0
4947.5493,177.0
4949.5283,167.0
4951.5083,188.0
4953.489,192.0
4955.47,204.0
4957.4526,205.0
4959.4355,179.0
4961.4194,178.0
4963.404,199.0
4965.389,205.0
4967.3755,196.0
4969.3623,185.0
4971.35,198.0
4973.339,183.0
4975.328,199.0
4977.3184,176.0
4979.309,187.0
4981.301,201.0
4983.2935,183.0
4985.2866,191.0
4987.281,215.0
4989.276,188.0
4991.2715,209.0
4993.268,202.0
4995.265,196.0
4997.263,220.0
4999.262,185.0
5001.2617,182.0
5003.262,196.0
5005.2637,203.0
5007.2656,222.0
5009.2686,209.0
5011.2725,197.0
5013.277,199.0
5015.282,199.0
5017.2886,176.0
5019.2954,191.0
5021.303,188.0
5023.3115,215.0
5025.321,188.0
5027.331,177.0
5029.342,193.0
5031.3535,189.0
5033.366,205.0
5035.3794,190.0
5037.3936,219.0
5039.4087,191.0
5041.4243,226.0
5043.441,194.0
5045.4585,183.0
5047.4766,213.0
5049.4956,198.0
5051.5156,191.0
5053.536,204.0
5055.5576,211.0
5057.58,195.0
5059.603,204.0
5061.627,182.0
5063.6514,213.0
5065.677,194.0
5067.703,206.0
5069.73,193.0
5071.758,193.0
5073.7866,162.0
5075.816,206.0
5077.846,203.0
5079.8774,224.0
5081.909,200.0
5083.942,218.0
5085.9756,216.0
5088.01,182.0
5090.045,229.0
5092.081,197.0
5094.1177,191.0
5096.1553,206.0
5098.194,188.0
5100.233,194.0
5102.273,214.0
5104.314,213.0
5106.3555,225.0
5108.398,195.0
5110.4414,196.0
5112.4854,218.0
5114.5303,227.0
5116.576,186.0
5118.6226,191.0
5120.67,203.0
5122.7183,219.0
5124.7676,209.0
5126.8174,210.0
5128.868,219.0
5130.92,202.0
5132.972,224.0
5135.0254,192.0
5137.0796,208.0
5139.1343,220.0
5141.19,226.0
5143.2466,186.0
5145.3037,213.0
5147.362,256.0
5149.421,209.0
5151.4805,227.0
5153.541,219.0
5155.6025,211.0
5157.6646,211.0
5159.7275,212.0
5161.7915,242.0
5163.8564,186.0
5165.922,212.0
5167.9883,208.0
5170.0557,170.0
5172.1235,214.0
5174.1924,203.0
5176.262,214.0
5178.3325,219.0
5180.404,209.0
5182.476,209.0
5184.549,240.0
5186.6226,231.0
5188.6973,217.0
5190.773,224.0
5192.849,187.0
5194.9263,208.0
5197.0044,198.0
5199.083,212.0
5201.1626,239.0
5203.243,232.0
5205.324,224.0
5207.4062,223.0
5209.4893,203.0
5211.573,221.0
5213.6577,224.0
5215.743,207.0
5217.8296,210.0
5219.9165,260.0
5222.0044,240.0
5224.0933,225.0
5226.183,245.0
5228.2734,244.0
5230.3647,232.0
5232.457,241.0
5234.55,247.0
5236.6436,244.0
5238.7383,238.0
5240.834,207.0
5242.93,213.0
5245.0273,232.0
5247.1255,260.0
5249.224,198.0
5251.3237,214.0
5253.4243,189.0
5255.526,220.0
5257.628,245.0
5259.731,271.0
5261.835,221.0
5263.9395,218.0
5266.045,209.0
5268.1514,250.0
5270.259,231.0
5272.3667,220.0
5274.4756,232.0
5276.5854,253.0
5278.6963,223.0
5280.8076,212.0
5282.92,249.0
5285.033,257.0
5287.147,231.0
5289.2617,241.0
5291.3774,208.0
5293.494,218.0
5295.6113,238.0
5297.7295,233.0
5299.8486,243.0
5301.9688,242.0
5304.0894,268.0
5306.211,210.0
5308.3335,202.0
5310.457,232.0
5312.581,231.0
5314.706,228.0
5316.832,299.0
5318.959,295.0
5321.0864,267.0
5323.215,236.0
5325.344,239.0
5327.4746,253.0
5329.6055,242.0
5331.7373,235.0
5333.87,213.0
5336.004,222.0
5338.138,230.0
5340.2734,228.0
5342.4097,272.0
5344.547,245.0
5346.6846,226.0
5348.823,226.0
5350.963,210.0
5353.1035,233.0
5355.2446,237.0
5357.3867,236.0
5359.53,254.0
5361.674,266.0
5363.8184,215.0
5365.964,254.0
5368.1104,265.0
5370.258,247.0
5372.406,272.0
5374.5547,283.0
5376.7046,300.0
5378.8555,278.0
5381.007,233.0
5383.159,264.0
5385.3125,256.0
5387.467,245.0
5389.6216,253.0
5391.7773,294.0
5393.934,285.0
5396.092,279.0
5398.25,284.0
5400.409,273.0
5402.5693,254.0
5404.7305,245.0
5406.8926,281.0
5409.055,312.0
5411.2188,323.0
5413.3833,304.0
5415.549,277.0
5417.715,270.0
5419.882,258.0
5422.05,271.0
5424.2188,252.0
5426.3887,295.0
5428.559,252.0
5430.7305,265.0
5432.903,275.0
5435.076,270.0
5437.25,281.0
5439.425,267.0
5441.6006,292.0
5443.7773,293.0
5445.955,286.0
5448.1333,281.0
5450.3125,279.0
5452.4927,297.0
5454.674,264.0
5456.8555,268.0
5459.038,304.0
5461.2217,302.0
5463.4062,262.0
5465.592,224.0
5467.778,305.0
5469.965,286.0
5472.153,304.0
5474.342,292.0
5476.5317,291.0
5478.722,303.0
5480.9136,273.0
5483.106,281.0
5485.2993,298.0
5487.4937,338.0
5489.6885,277.0
5491.8843,278.0
5494.081,300.0
5496.279,282.0
5498.4775,279.0
5500.677,278.0
5502.877,307.0
5505.078,286.0
5507.2803,283.0
5509.4834,304.0
5511.687,295.0
5513.8916,320.0
5516.097,278.0
5518.3037,304.0
5520.511,312.0
5522.719,304.0
5524.928,326.0
5527.138,290.0
5529.349,267.0
5531.561,278.0
5533.7734,311.0
5535.987,272.0
5538.201,317.0
5540.4165,330.0
5542.633,293.0
5544.85,271.0
5547.068,281.0
5549.2866,292.0
5551.5063,275.0
5553.727,279.0
5555.9487,271.0
5558.171,312.0
5560.394,304.0
5562.618,312.0
5564.8433,310.0
5567.0693,344.0
5569.2964,285.0
5571.524,284.0
5573.7524,274.0
5575.982,250.0
5578.2124,268.0
5580.444,264.0
5582.676,343.0
5584.9087,326.0
5587.1426,310.0
5589.3774,278.0
5591.6133,252.0
5593.85,274.0
5596.0874,332.0
5598.3257,299.0
5600.565,349.0
5602.805,361.0
5605.0464,283.0
5607.2886,286.0
5609.5312,265.0
5611.775,284.0
5614.0195,259.0
5616.265,276.0
5618.5117,270.0
5620.7593,254.0
5623.008,268.0
5625.257,286.0
5627.507,278.0
5629.758,257.0
5632.01,271.0
5634.2627,255.0
5636.5166,230.0
5638.771,251.0
5641.0264,268.0
5643.2827,255.0
5645.54,243.0
5647.7983,262.0
5650.0576,280.0
5652.318,266.0
5654.5786,251.0
5656.8403,258.0
5659.103,292.0
5661.3667,268.0
5663.6313,269.0
5665.897,305.0
5668.1636,253.0
5670.4307,249.0
5672.6987,295.0
5674.968,303.0
5677.238,290.0
5679.509,281.0
5681.781,297.0
5684.0537,274.0
5686.327,266.0
5688.6016,280.0
5690.877,255.0
5693.1533,302.0
5695.4307,267.0
5697.709,281.0
5699.9883,287.0
5702.268,304.0
5704.549,261.0
5706.8306,271.0
5709.1133,295.0
5711.397,295.0
5713.6816,253.0
5715.9673,306.0
5718.254,257.0
5720.541,277.0
5722.829,290.0
5725.118,317.0
5727.408,279.0
5729.699,297.0
5731.991,298.0
5734.284,303.0
5736.578,323.0
5738.8726,318.0
5741.168,303.0
5743.4644,272.0
5745.7617,304.0
5748.06,303.0
5750.3594,294.0
5752.6597,322.0
5754.961,347.0
5757.2627,323.0
5759.5654,308.0
5761.869,321.0
5764.174,305.0
5766.4795,294.0
5768.786,323.0
5771.0938,358.0
5773.4023,357.0
5775.712,332.0
5778.022,348.0
5780.333,327.0
5782.645,320.0
5784.958,357.0
5787.272,319.0
5789.587,353.0
5791.903,350.0
5794.2197,339.0
5796.5376,352.0
5798.8564,324.0
5801.176,367.0
5803.496,332.0
5805.8174,401.0
5808.1396,381.0
5810.463,373.0
5812.787,370.0
5815.1123,345.0
5817.4385,348.0
5819.7656,381.0
5822.0938,377.0
5824.4224,404.0
5826.752,388.0
5829.0825,397.0
5831.414,435.0
5833.7466,410.0
5836.08,346.0
5838.4146,469.0
5840.75,529.0
5843.0864,418.0
5845.424,379.0
5847.762,386.0
5850.101,422.0
5852.441,368.0
5854.7817,354.0
5857.1235,377.0
5859.4663,360.0
5861.81,383.0
5864.155,342.0
5866.5005,324.0
5868.847,380.0
5871.195,391.0
5873.5435,366.0
5875.893,374.0
5878.2437,379.0
5880.5947,359.0
5882.947,400.0
5885.3,385.0
5887.654,352.0
5890.009,409.0
5892.3647,349.0
5894.7217,361.0
5897.0796,363.0
5899.4385,373.0
5901.7983,400.0
5904.159,431.0
5906.521,418.0
5908.884,365.0
5911.2476,396.0
5913.612,397.0
5915.977,356.0
5918.3433,411.0
5920.7104,398.0
5923.0786,383.0
5925.4478,403.0
5927.818,426.0
5930.189,433.0
5932.561,431.0
5934.934,415.0
5937.308,375.0
5939.683,431.0
5942.059,417.0
5944.436,431.0
5946.814,417.0
5949.193,377.0
5951.5728,396.0
5953.9536,430.0
5956.335,375.0
5958.7173,446.0
5961.1006,464.0
5963.485,411.0
5965.87,400.0
5968.2563,413.0
5970.6436,414.0
5973.0317,421.0
5975.421,421.0
5977.811,470.0
5980.202,441.0
5982.594,407.0
5984.9873,427.0
5987.3813,410.0
5989.7764,414.0
5992.1724,450.0
5994.5693,461.0
5996.9673,388.0
5999.366,384.0
6001.766,495.0
6004.167,497.0
6006.569,495.0
6008.9717,440.0
6011.3755,457.0
6013.7803,434.0
6016.1855,411.0
6018.592,467.0
6020.999,495.0
6023.407,420.0
6025.8164,396.0
6028.2266,478.0
6030.6377,425.0
6033.05,435.0
6035.463,485.0
6037.877,482.0
6040.292,396.0
6042.708,414.0
6045.125,414.0
6047.543,469.0
6049.962,430.0
6052.382,397.0
6054.8027,414.0
6057.2246,419.0
6059.6475,423.0
6062.0713,483.0
6064.496,512.0
6066.922,469.0
6069.3486,436.0
6071.7764,463.0
6074.205,439.0
6076.635,445.0
6079.0654,400.0
6081.497,429.0
6083.9297,455.0
6086.3633,480.0
6088.798,468.0
6091.2334,512.0
6093.67,475.0
6096.1074,518.0
6098.546,484.0
6100.9854,486.0
6103.426,539.0
6105.867,467.0
6108.3096,476.0
6110.753,509.0
6113.1973,508.0
6115.6426,559.0
6118.089,612.0
6120.536,569.0
6122.9844,506.0
6125.4336,500.0
6127.884,486.0
6130.335,585.0
6132.787,608.0
6135.24,653.0
6137.6943,668.0
6140.1494,622.0
6142.6055,569.0
6145.0625,568.0
6147.5205,601.0
6149.9795,658.0
6152.4395,608.0
6154.9004,646.0
6157.3623,705.0
6159.825,654.0
6162.289,636.0
6164.754,511.0
6167.2197,618.0
6169.6865,603.0
6172.1543,708.0
6174.623,859.0
6177.093,820.0
6179.5635,661.0
6182.035,616.0
6184.508,660.0
6186.9814,617.0
6189.456,784.0
6191.9316,911.0
6194.408,927.0
6196.8857,791.0
6199.3643,835.0
6201.844,758.0
6204.325,677.0
6206.807,613.0
6209.29,549.0
6211.774,493.0
6214.259,749.0
6216.7446,941.0
6219.2314,822.0
6221.719,654.0
6224.208,529.0
6226.6978,515.0
6229.1885,606.0
6231.68,854.0
6234.173,1256.0
6236.6665,1042.0
6239.161,758.0
6241.6567,611.0
6244.1533,550.0
6246.651,639.0
6249.1494,681.0
6251.649,649.0
6254.1494,646.0
6256.651,649.0
6259.1533,612.0
6261.6567,550.0
6264.1616,491.0
6266.6675,494.0
6269.1743,459.0
6271.682,696.0
6274.191,862.0
6276.7007,752.0
6279.2114,567.0
6281.723,496.0
6284.236,465.0
6286.7495,472.0
6289.264,801.0
6291.78,1107.0
6294.2964,925.0
6296.814,626.0
6299.3325,537.0
6301.852,498.0
6304.3726,484.0
6306.8945,472.0
6309.4175,458.0
6311.9414,475.0
6314.4663,492.0
6316.992,491.0
6319.519,530.0
6322.047,438.0
6324.5757,477.0
6327.1055,477.0
6329.636,472.0
6332.168,506.0
6334.7007,501.0
6337.2344,482.0
6339.769,475.0
6342.305,496.0
6344.8423,511.0
6347.3804,515.0
6349.9194,530.0
6352.4595,477.0
6355.0005,484.0
6357.5425,508.0
6360.0854,515.0
6362.6294,504.0
6365.1743,495.0
6367.72,535.0
6370.267,507.0
6372.8154,479.0
6375.3647,515.0
6377.915,573.0
6380.4663,514.0
6383.0186,544.0
6385.572,509.0
6388.126,584.0
6390.681,544.0
6393.2373,525.0
6395.7944,504.0
6398.3525,499.0
6400.912,481.0
6403.4727,604.0
6406.034,542.0
6408.5967,535.0
6411.16,533.0
6413.7246,507.0
6416.29,537.0
6418.8564,513.0
6421.424,507.0
6423.992,512.0
6426.562,511.0
6429.133,538.0
6431.7046,477.0
6434.2773,503.0
6436.851,565.0
6439.426,552.0
6442.0015,527.0
6444.578,489.0
6447.156,561.0
6449.735,518.0
6452.315,521.0
6454.896,539.0
6457.478,524.0
6460.061,478.0
6462.645,476.0
6465.23,474.0
6467.816,482.0
6470.403,498.0
6472.991,472.0
6475.5806,518.0
6478.171,486.0
6480.762,506.0
6483.3545,485.0
6485.9478,502.0
6488.542,537.0
6491.137,517.0
6493.734,492.0
6496.3315,519.0
6498.93,521.0
6501.53,529.0
6504.1304,515.0
6506.732,505.0
6509.3345,507.0
6511.938,528.0
6514.543,618.0
6517.149,616.0
6519.756,519.0
6522.364,518.0
6524.9727,518.0
6527.5825,521.0
6530.1934,516.0
6532.8057,560.0
6535.419,535.0
6538.033,571.0
6540.6484,608.0
6543.2646,541.0
6545.882,580.0
6548.5,575.0
6551.1196,589.0
6553.74,614.0
6556.362,628.0
6558.9844,681.0
6561.608,646.0
6564.2324,582.0
6566.858,531.0
6569.485,599.0
6572.113,582.0
6574.7417,607.0
6577.3716,684.0
6580.0024,603.0
6582.6343,560.0
6585.267,572.0
6587.9014,571.0
6590.5366,660.0
6593.173,691.0
6595.81,762.0
6598.448,607.0
6601.0874,598.0
6603.728,573.0
6606.3696,591.0
6609.012,599.0
6611.656,648.0
6614.3003,624.0
6616.946,611.0
6619.593,623.0
6622.2407,569.0
6624.8896,567.0
6627.5396,588.0
6630.1904,608.0
6632.8423,595.0
6635.4956,622.0
6638.15,694.0
6640.805,701.0
6643.4614,580.0
6646.1187,612.0
6648.7773,586.0
6651.437,567.0
6654.0977,610.0
6656.7593,621.0
6659.422,556.0
6662.0854,630.0
6664.7505,562.0
6667.4165,472.0
6670.0835,432.0
6672.7515,521.0
6675.4204,479.0
6678.091,562.0
6680.762,547.0
6683.4346,524.0
6686.108,479.0
6688.782,409.0
6691.4575,468.0
6694.1343,505.0
6696.812,675.0
6699.4907,582.0
6702.1704,504.0
6704.851,447.0
6707.533,514.0
6710.2163,505.0
6712.9004,524.0
6715.5854,529.0
6718.2715,556.0
6720.959,470.0
6723.6475,529.0
6726.337,509.0
6729.0273,454.0
6731.7188,438.0
6734.4116,480.0
6737.1055,477.0
6739.8003,536.0
6742.496,564.0
6745.193,592.0
6747.891,458.0
6750.5903,462.0
6753.2905,437.0
6755.9917,500.0
6758.6943,533.0
6761.398,586.0
6764.1025,530.0
6766.808,505.0
6769.5146,480.0
6772.2227,470.0
6774.9316,506.0
6777.6416,529.0
6780.3525,557.0
6783.0645,595.0
6785.778,534.0
6788.492,531.0
6791.2075,528.0
6793.924,570.0
6796.6416,502.0
6799.3604,500.0
6802.08,526.0
6804.801,591.0
6807.5225,639.0
6810.2456,649.0
6812.9697,592.0
6815.695,485.0
6818.421,452.0
6821.1484,559.0
6823.877,828.0
6826.6064,805.0
6829.337,624.0
6832.069,489.0
6834.802,477.0
6837.5356,488.0
6840.2705,635.0
6843.007,732.0
6845.744,582.0
6848.4824,493.0
6851.2217,467.0
6853.9624,564.0
6856.704,740.0
6859.447,580.0
6862.1904,541.0
6864.9355,462.0
6867.6816,423.0
6870.4287,440.0
6873.177,439.0
6875.9263,441.0
6878.677,468.0
6881.428,433.0
6884.1807,446.0
6886.9346,455.0
6889.6895,448.0
6892.4453,440.0
6895.202,431.0
6897.9604,427.0
6900.7197,453.0
6903.48,436.0
6906.241,483.0
6909.004,474.0
6911.7676,511.0
6914.532,469.0
6917.298,456.0
6920.065,505.0
6922.833,431.0
6925.602,461.0
6928.372,486.0
6931.1436,445.0
6933.916,448.0
6936.6895,464.0
6939.4644,432.0
6942.24,425.0
6945.017,462.0
6947.795,488.0
6950.574,466.0
6953.3545,488.0
6956.1357,464.0
6958.918,459.0
6961.7017,433.0
6964.4863,479.0
6967.272,525.0
6970.059,480.0
6972.847,432.0
6975.636,520.0
6978.4263,458.0
6981.218,541.0
6984.0103,572.0
6986.8037,488.0
6989.5986,504.0
6992.3945,566.0
6995.1914,554.0
6997.9893,577.0
7000.7886,632.0
7003.589,568.0
7006.39,556.0
7009.193,547.0
7011.9966,517.0
7014.8013,554.0
7017.6074,579.0
7020.4146,603.0
7023.2227,642.0
7026.0317,736.0
7028.8423,665.0
7031.654,524.0
7034.4663,505.0
7037.2803,459.0
7040.095,544.0
7042.911,840.0
7045.7285,667.0
7048.547,520.0
7051.366,548.0
7054.1865,470.0
7057.0083,585.0
7059.831,931.0
7062.655,870.0
7065.48,632.0
7068.306,507.0
7071.1333,537.0
7073.962,490.0
7076.7915,479.0
7079.622,468.0
7082.454,508.0
7085.287,477.0
7088.121,504.0
7090.9565,471.0
7093.793,477.0
7096.6304,525.0
7099.469,506.0
7102.309,474.0
7105.15,498.0
7107.992,494.0
7110.8354,589.0
7113.6797,601.0
7116.5254,546.0
7119.372,506.0
7122.2197,583.0
7125.069,656.0
7127.919,609.0
7130.77,591.0
7133.6226,555.0
7136.476,567.0
7139.3306,693.0
7142.1865,720.0
7145.0435,649.0
7147.9014,637.0
7150.7607,597.0
7153.621,634.0
7156.4824,868.0
7159.345,932.0
7162.209,756.0
7165.0737,642.0
7167.94,663.0
7170.807,698.0
7173.6753,793.0
7176.545,661.0
7179.4155,690.0
7182.287,677.0
7185.16,648.0
7188.034,727.0
7190.909,741.0
7193.7856,631.0
7196.663,802.0
7199.542,918.0
7202.422,727.0
7205.3027,587.0
7208.185,511.0
7211.0684,520.0
7213.9526,1064.0
7216.8384,1038.0
7219.725,730.0
7222.613,564.0
7225.502,442.0
7228.392,636.0
7231.283,1376.0
7234.176,1562.0
7237.0693,933.0
7239.9644,579.0
7242.8604,472.0
7245.7573,466.0
7248.656,504.0
7251.555,449.0
7254.4556,464.0
7257.3574,468.0
7260.2603,430.0
7263.1646,445.0
7266.07,423.0
7268.976,515.0
7271.884,481.0
7274.7925,446.0
7277.7026,467.0
7280.614,469.0
7283.526,478.0
7286.4395,529.0
7289.354,484.0
7292.2695,511.0
7295.1865,572.0
7298.1045,463.0
7301.024,502.0
7303.9443,486.0
7306.8657,438.0
7309.7886,485.0
7312.7124,689.0
7315.6377,636.0
7318.564,566.0
7321.491,463.0
7324.42,471.0
7327.3496,552.0
7330.281,719.0
7333.213,736.0
7336.146,548.0
7339.0806,511.0
7342.016,513.0
7344.953,524.0
7347.891,566.0
7350.83,538.0
7353.7705,532.0
7356.712,530.0
7359.655,522.0
7362.5986,547.0
7365.5435,500.0
7368.4897,540.0
7371.437,519.0
7374.3857,576.0
7377.3354,571.0
7380.2866,582.0
7383.239,603.0
7386.192,597.0
7389.1465,583.0
7392.102,528.0
7395.059,533.0
7398.017,582.0
7400.976,688.0
7403.9365,634.0
7406.898,630.0
7409.861,528.0
7412.8247,506.0
7415.79,582.0
7418.7563,650.0
7421.7236,660.0
7424.6924,632.0
7427.662,577.0
7430.6333,475.0
7433.6055,654.0
7436.579,593.0
7439.5537,647.0
7442.5293,668.0
7445.5063,580.0
7448.4844,531.0
7451.464,597.0
7454.4443,606.0
7457.4263,461.0
7460.409,443.0
7463.3936,434.0
7466.379,513.0
7469.365,631.0
7472.353,540.0
7475.342,413.0
7478.332,392.0
7481.323,516.0
7484.316,854.0
7487.3096,935.0
7490.3047,601.0
7493.301,426.0
7496.2983,412.0
7499.297,439.0
7502.2964,443.0
7505.2974,484.0
7508.2993,399.0
7511.3027,410.0
7514.307,396.0
7517.313,399.0
7520.32,452.0
7523.328,419.0
7526.3374,376.0
7529.348,420.0
7532.36,415.0
7535.373,405.0
7538.387,387.0
7541.4023,430.0
7544.419,455.0
7547.4365,476.0
7550.4556,445.0
7553.4756,405.0
7556.497,394.0
7559.5195,415.0
7562.5435,404.0
7565.5684,526.0
7568.5947,429.0
7571.622,419.0
7574.651,421.0
7577.6807,392.0
7580.712,420.0
7583.744,419.0
7586.778,408.0
7589.8125,394.0
7592.8486,380.0
7595.8857,404.0
7598.9243,441.0
7601.964,390.0
7605.005,408.0
7608.047,363.0
7611.0903,385.0
7614.135,372.0
7617.18,444.0
7620.227,375.0
7623.275,394.0
7626.324,393.0
7629.3745,354.0
7632.4263,403.0
7635.479,403.0
7638.533,390.0
7641.5884,359.0
7644.645,364.0
7647.7026,389.0
7650.7617,350.0
7653.8223,362.0
7656.884,396.0
7659.947,402.0
7663.0107,411.0
7666.076,381.0
7669.1426,444.0
7672.2104,425.0
7675.2793,425.0
7678.3496,452.0
7681.421,452.0
7684.4937,410.0
7687.5674,448.0
7690.6426,426.0
7693.7188,462.0
7696.7964,463.0
7699.875,408.0
7702.955,459.0
7706.036,480.0
7709.1187,543.0
7712.202,508.0
7715.287,478.0
7718.373,453.0
7721.4604,518.0
7724.549,562.0
7727.6387,585.0
7730.7295,553.0
7733.822,480.0
7736.9155,534.0
7740.0103,534.0
7743.1064,569.0
7746.2036,626.0
7749.3022,582.0
7752.402,580.0
7755.503,674.0
7758.605,555.0
7761.7085,498.0
7764.813,518.0
7767.919,505.0
7771.026,688.0
7774.1343,610.0
7777.244,530.0
7780.355,480.0
7783.4673,487.0
7786.5806,814.0
7789.6953,1033.0
7792.811,770.0
7795.928,586.0
7799.0464,543.0
7802.166,554.0
7805.287,625.0
7808.409,608.0
7811.5327,566.0
7814.657,562.0
7817.783,570.0
7820.91,516.0
7824.0386,588.0
7827.168,621.0
7830.299,560.0
7833.431,594.0
7836.5645,580.0
7839.699,598.0
7842.835,584.0
7845.972,689.0
7849.1104,696.0
7852.25,628.0
7855.391,616.0
7858.533,627.0
7861.677,542.0
7864.8213,614.0
7867.9673,626.0
7871.1143,650.0
7874.2627,627.0
7877.4126,582.0
7880.5635,688.0
7883.716,759.0
7886.869,780.0
7890.024,718.0
7893.18,678.0
7896.3374,691.0
7899.496,816.0
7902.656,836.0
7905.817,818.0
7908.979,720.0
7912.1426,725.0
7915.3076,826.0
7918.4736,1015.0
7921.641,925.0
7924.8096,848.0
7927.9795,719.0
7931.151,829.0
7934.323,805.0
7937.497,914.0
7940.672,903.0
7943.848,923.0
7947.026,921.0
7950.2046,900.0
7953.385,1000.0
7956.566,1004.0
7959.7485,1067.0
7962.9326,1041.0
7966.1177,1121.0
7969.304,1088.0
7972.4917,1175.0
7975.6807,1165.0
7978.871,1126.0
7982.0625,1188.0
7985.2554,1278.0
7988.4497,1478.0
7991.645,1546.0
7994.842,1581.0
7998.0396,1422.0
8001.239,1529.0
8004.4395,1737.0
8007.641,1802.0
8010.844,1816.0
8014.0483,1811.0
8017.254,1969.0
8020.461,1939.0
8023.669,2094.0
8026.8784,2002.0
8030.0894,1964.0
8033.3013,2246.0
8036.5146,2629.0
8039.7295,2850.0
8042.9453,2635.0
8046.1626,2085.0
8049.381,2204.0
8052.6006,2986.0
8055.822,3650.0
8059.044,3627.0
8062.2676,2709.0
8065.4927,2840.0
8068.7188,3321.0
8071.9463,3770.0
8075.1753,4540.0
8078.4053,4004.0
8081.6367,4068.0
8084.869,5060.0
8088.103,4386.0
8091.3384,3029.0
8094.5747,2616.0
8097.8125,3885.0
8101.052,6922.0
8104.292,6019.0
8107.5337,4078.0
8110.777,3145.0
8114.021,3535.0
8117.2666,9703.0
8120.5137,12016.0
8123.7617,7519.0
8127.011,4850.0
8130.262,3677.0
8133.514,4300.0
8136.7676,5039.0
8140.0225,4857.0
8143.2783,5666.0
8146.5356,5207.0
8149.7944,3948.0
8153.054,4887.0
8156.3154,4323.0
8159.578,4687.0
8162.842,5546.0
8166.107,5113.0
8169.3735,7801.0
8172.641,7795.0
8175.91,4745.0
8179.1807,2746.0
8182.452,2903.0
8185.725,11054.0
8188.9995,14846.0
8192.275,7089.0
8195.553,3041.0
8198.831,2472.0
8202.11,10289.0
8205.392,26516.0
8208.674,16682.0
8211.957,5843.0
8215.242,2552.0
8218.528,2060.0
8221.815,1733.0
8225.1045,1954.0
8228.395,2326.0
8231.686,1803.0
8234.979,1252.0
8238.272,1016.0
8241.567,1066.0
8244.864,1395.0
8248.162,1295.0
8251.461,1091.0
8254.762,970.0
8258.063,1010.0
8261.367,1348.0
8264.672,1474.0
8267.978,1209.0
8271.285,1054.0
8274.594,1052.0
8277.903,971.0
8281.215,844.0
8284.527,887.0
8287.841,1000.0
8291.156,1035.0
8294.473,951.0
8297.79,847.0
8301.109,868.0
8304.43,1009.0
8307.751,1078.0
8311.074,1078.0
8314.398,1006.0
8317.725,986.0
8321.052,932.0
8324.38,899.0
8327.71,954.0
8331.041,1167.0
8334.373,1078.0
8337.707,899.0
8341.042,812.0
8344.378,836.0
8347.716,1213.0
8351.055,1297.0
8354.3955,983.0
8357.737,953.0
8361.08,932.0
8364.425,737.0
8367.7705,724.0
8371.117,709.0
8374.466,1037.0
8377.815,996.0
8381.167,752.0
8384.52,640.0
8387.873,615.0
8391.229,882.0
8394.585,950.0
8397.942,797.0
8401.302,673.0
8404.662,703.0
8408.024,780.0
8411.388,638.0
8414.752,590.0
8418.118,622.0
8421.485,529.0
8424.854,579.0
8428.224,540.0
8431.595,596.0
8434.968,627.0
8438.342,600.0
8441.717,566.0
8445.094,586.0
8448.472,631.0
8451.851,608.0
8455.231,611.0
8458.613,637.0
8461.997,691.0
8465.382,743.0
8468.768,730.0
8472.155,673.0
8475.544,755.0
8478.935,677.0
8482.326,728.0
8485.719,773.0
8489.113,865.0
8492.509,960.0
8495.906,882.0
8499.305,890.0
8502.704,871.0
8506.105,993.0
8509.508,1118.0
8512.911,934.0
8516.316,1040.0
8519.723,1214.0
8523.131,1039.0
8526.54,1109.0
8529.95,1166.0
8533.362,1534.0
8536.775,1935.0
8540.19,1400.0
8543.606,873.0
8547.023,778.0
8550.442,1938.0
8553.862,2647.0
8557.284,1711.0
8560.707,988.0
8564.131,859.0
8567.557,2167.0
8570.983,4117.0
8574.412,2635.0
8577.842,1343.0
8581.272,924.0
8584.705,646.0
8588.139,642.0
8591.574,733.0
8595.011,983.0
8598.449,944.0
8601.889,673.0
8605.329,512.0
8608.771,569.0
8612.215,552.0
8615.66,535.0
8619.106,533.0
8622.554,520.0
8626.003,534.0
8629.453,446.0
8632.905,515.0
8636.358,554.0
8639.8125,583.0
8643.269,525.0
8646.726,513.0
8650.185,516.0
8653.645,504.0
8657.106,522.0
8660.569,516.0
8664.033,522.0
8667.499,588.0
8670.966,580.0
8674.435,655.0
8677.904,667.0
8681.375,620.0
8684.848,611.0
8688.321,600.0
8691.797,666.0
8695.273,715.0
8698.752,707.0
8702.231,699.0
8705.712,700.0
8709.194,757.0
8712.678,826.0
8716.163,825.0
8719.649,824.0
8723.138,785.0
8726.627,782.0
8730.117,812.0
8733.609,864.0
8737.103,865.0
8740.598,966.0
8744.094,814.0
8747.592,882.0
8751.091,979.0
8754.591,1077.0
8758.093,1013.0
8761.596,936.0
8765.101,1018.0
8768.606,1038.0
8772.114,1286.0
8775.623,1175.0
8779.133,1189.0
8782.645,1230.0
8786.157,1125.0
8789.672,1315.0
8793.1875,1209.0
8796.705,1489.0
8800.224,1738.0
8803.744,1305.0
8807.266,1181.0
8810.788,1199.0
8814.3125,1997.0
8817.838,2215.0
8821.365,1565.0
8824.894,1362.0
8828.424,1367.0
8831.955,2283.0
8835.488,2604.0
8839.022,1956.0
8842.558,1768.0
8846.095,1454.0
8849.633,1416.0
8853.173,1393.0
8856.714,1772.0
8860.257,2176.0
8863.801,1730.0
8867.347,1541.0
8870.894,1463.0
8874.442,2029.0
8877.992,2667.0
8881.543,2211.0
8885.096,1735.0
8888.649,1585.0
8892.205,1596.0
8895.762,1627.0
8899.32,1844.0
8902.88,2017.0
8906.441,1648.0
8910.004,1640.0
8913.568,1711.0
8917.134,2166.0
8920.7,2071.0
8924.269,1818.0
8927.838,1773.0
8931.409,1901.0
8934.981,2397.0
8938.556,2143.0
8942.131,1961.0
8945.708,2055.0
8949.286,1767.0
8952.866,1539.0
8956.447,1749.0
8960.03,1988.0
8963.614,2050.0
8967.199,1721.0
8970.786,1383.0
8974.374,1682.0
8977.964,1959.0
8981.555,1820.0
8985.147,1560.0
8988.741,1509.0
8992.337,1817.0
8995.934,2095.0
8999.532,1864.0
9003.132,1434.0
9006.733,1573.0
9010.336,1889.0
9013.94,1614.0
9017.546,1500.0
9021.153,1455.0
9024.762,1902.0
9028.372,2089.0
9031.983,1480.0
9035.597,1063.0
9039.211,1272.0
9042.826,1983.0
9046.443,1834.0
9050.062,1180.0
9053.682,900.0
9057.303,1551.0
9060.926,2821.0
9064.55,2088.0
9068.176,1121.0
9071.803,893.0
9075.432,1169.0
9079.062,1320.0
9082.693,1056.0
9086.326,796.0
9089.961,835.0
9093.597,843.0
9097.234,911.0
9100.873,783.0
9104.514,730.0
9108.155,753.0
9111.799,705.0
9115.443,642.0
9119.09,743.0
9122.737,820.0
9126.387,760.0
9130.037,606.0
9133.689,668.0
9137.343,813.0
9140.998,800.0
9144.654,721.0
9148.3125,683.0
9151.972,643.0
9155.633,690.0
9159.295,664.0
9162.959,746.0
9166.624,807.0
9170.291,749.0
9173.959,596.0
9177.629,651.0
9181.3,959.0
9184.973,929.0
9188.646,831.0
9192.322,564.0
9195.999,683.0
9199.678,847.0
9203.357,781.0
9207.039,756.0
9210.722,594.0
9214.406,524.0
9218.092,477.0
9221.779,535.0
9225.468,678.0
9229.158,544.0
9232.85,485.0
9236.543,449.0
9240.237,600.0
9243.934,702.0
9247.631,593.0
9251.33,478.0
9255.03,415.0
9258.732,362.0
9262.436,357.0
9266.141,413.0
9269.847,438.0
9273.555,340.0
9277.264,305.0
9280.975,339.0
9284.687,385.0
9288.4,337.0
9292.116,320.0
9295.833,332.0
9299.552,311.0
9303.271,324.0
9306.993,306.0
9310.716,330.0
9314.44,326.0
9318.166,304.0
9321.894,293.0
9325.622,303.0
9329.353,307.0
9333.084,272.0
9336.817,284.0
9340.552,277.0
9344.288,315.0
9348.025,306.0
9351.765,290.0
9355.505,283.0
9359.247,272.0
9362.991,284.0
9366.736,268.0
9370.483,265.0
9374.231,253.0
9377.981,261.0
9381.732,239.0
9385.485,270.0
9389.239,279.0
9392.995,271.0
9396.752,296.0
9400.511,271.0
9404.2705,232.0
9408.032,243.0
9411.796,246.0
9415.561,227.0
9419.327,231.0
9423.095,245.0
9426.864,254.0
9430.635,266.0
9434.407,212.0
9438.181,187.0
9441.956,266.0
9445.732,257.0
9449.511,241.0
9453.291,253.0
9457.072,232.0
9460.855,254.0
9464.64,267.0
9468.426,230.0
9472.213,240.0
9476.002,225.0
9479.792,235.0
9483.584,223.0
9487.377,274.0
9491.172,238.0
9494.969,234.0
9498.767,202.0
9502.566,238.0
9506.367,242.0
9510.17,232.0
9513.974,235.0
9517.779,218.0
9521.586,202.0
9525.395,199.0
9529.205,205.0
9533.017,253.0
9536.83,200.0
9540.645,185.0
9544.461,208.0
9548.278,239.0
9552.098,273.0
9555.919,209.0
9559.741,178.0
9563.565,207.0
9567.391,225.0
9571.218,218.0
9575.046,197.0
9578.876,181.0
9582.708,163.0
9586.541,187.0
9590.376,199.0
9594.212,165.0
9598.05,181.0
9601.889,167.0
9605.7295,212.0
9609.572,192.0
9613.416,182.0
9617.262,146.0
9621.108,179.0
9624.957,159.0
9628.807,145.0
9632.658,163.0
9636.512,173.0
9640.366,171.0
9644.223,172.0
9648.08,190.0
9651.939,159.0
9655.8,156.0
9659.662,170.0
9663.526,187.0
9667.392,148.0
9671.259,183.0
9675.127,170.0
9678.997,178.0
9682.869,190.0
9686.742,166.0
9690.617,157.0
9694.493,172.0
9698.371,163.0
9702.25,142.0
9706.131,167.0
9710.014,164.0
9713.897,149.0
9717.783,145.0
9721.67,165.0
9725.559,160.0
9729.449,162.0
9733.341,150.0
9737.234,179.0
9741.129,153.0
9745.025,160.0
9748.924,150.0
9752.823,145.0
9756.725,147.0
9760.627,147.0
9764.531,160.0
9768.4375,153.0
9772.345,141.0
9776.254,148.0
9780.164,146.0
9784.076,158.0
9787.99,149.0
9791.905,150.0
9795.822,159.0
9799.74,158.0
9803.66,166.0
9807.582,162.0
9811.505,165.0
9815.43,151.0
9819.355,167.0
9823.283,176.0
9827.213,168.0
9831.144,171.0
9835.076,170.0
9839.01,170.0
9842.945,161.0
9846.883,198.0
9850.821,166.0
9854.762,177.0
9858.704,160.0
9862.647,158.0
9866.593,141.0
9870.539,168.0
9874.487,171.0
9878.4375,140.0
9882.389,178.0
9886.342,179.0
9890.296,163.0
9894.252,161.0
9898.21,173.0
9902.169,172.0
9906.13,171.0
9910.093,166.0
9914.057,180.0
9918.022,165.0
9921.989,159.0
9925.958,181.0
9929.929,152.0
9933.9,176.0
9937.874,167.0
9941.85,163.0
9945.826,149.0
9949.805,181.0
9953.784,166.0
9957.766,155.0
9961.749,153.0
9965.733,142.0
9969.72,142.0
9973.708,156.0
9977.697,157.0
9981.688,167.0
9985.681,162.0
9989.675,170.0
9993.671,177.0
9997.668,170.0
10001.667,189.0
10005.668,143.0
10009.67,146.0
10013.674,175.0
10017.68,176.0
10021.687,159.0
10025.695,155.0
10029.706,179.0
10033.718,178.0
10037.731,161.0
10041.746,176.0
10045.763,182.0
10049.781,174.0
10053.801,185.0
10057.822,156.0
10061.846,151.0
10065.87,174.0
10069.896,159.0
10073.925,184.0
10077.954,177.0
10081.985,182.0
10086.019,165.0
10090.053,202.0
10094.089,189.0
10098.127,172.0
10102.166,167.0
10106.207,200.0
10110.25,185.0
10114.294,192.0
10118.34,204.0
10122.387,182.0
10126.436,201.0
10130.486,221.0
10134.538,189.0
10138.592,191.0
10142.647,227.0
10146.704,206.0
10150.763,201.0
10154.823,185.0
10158.885,322.0
10162.948,407.0
10167.014,288.0
10171.08,229.0
10175.148,247.0
10179.219,267.0
10183.29,207.0
10187.363,200.0
10191.438,211.0
10195.515,205.0
10199.593,200.0
10203.673,179.0
10207.754,203.0
10211.837,186.0
10215.922,199.0
10220.008,187.0
10224.096,196.0
10228.186,184.0
10232.276,196.0
10236.369,200.0
10240.464,193.0
10244.56,174.0
10248.657,202.0
10252.757,192.0
10256.858,187.0
10260.961,198.0
10265.065,201.0
10269.172,186.0
10273.279,199.0
10277.389,185.0
10281.5,194.0
10285.612,172.0
10289.727,176.0
10293.843,206.0
10297.96,185.0
10302.079,185.0
10306.2,208.0
10310.322,192.0
10314.446,203.0
10318.572,176.0
10322.699,199.0
10326.828,174.0
10330.959,179.0
10335.092,176.0
10339.226,188.0
10343.361,207.0
10347.499,218.0
10351.638,209.0
10355.778,211.0
10359.921,201.0
10364.064,190.0
10368.21,193.0
10372.357,197.0
10376.507,182.0
10380.657,192.0
10384.81,167.0
10388.964,222.0
10393.119,210.0
10397.276,195.0
10401.436,227.0
10405.596,182.0
10409.758,199.0
10413.922,178.0
10418.088,208.0
10422.255,171.0
10426.424,191.0
10430.595,178.0
10434.767,168.0
10438.94,196.0
10443.116,185.0
10447.294,196.0
10451.473,190.0
10455.653,205.0
10459.836,195.0
10464.02,190.0
10468.205,208.0
10472.393,180.0
10476.581,198.0
10480.771,198.0
10484.964,205.0
10489.158,193.0
10493.354,174.0
10497.551,212.0
10501.75,201.0
10505.951,186.0
10510.153,184.0
10514.357,198.0
10518.563,184.0
10522.7705,177.0
10526.9795,191.0
10531.19,198.0
10535.403,185.0
10539.617,200.0
10543.833,154.0
10548.051,197.0
10552.27,216.0
10556.49,183.0
10560.713,182.0
10564.9375,194.0
10569.163,168.0
10573.391,193.0
10577.62,224.0
10581.852,173.0
10586.084,208.0
10590.318,191.0
10594.555,143.0
10598.793,173.0
10603.032,195.0
10607.273,168.0
10611.517,208.0
10615.761,199.0
10620.007,178.0
10624.255,194.0
10628.505,168.0
10632.756,225.0
10637.009,188.0
10641.264,201.0
10645.5205,202.0
10649.778,187.0
10654.038,196.0
10658.3,193.0
10662.563,204.0
10666.828,184.0
10671.095,188.0
10675.363,179.0
10679.634,205.0
10683.905,209.0
10688.179,179.0
10692.454,179.0
10696.731,186.0
10701.01,199.0
10705.29,188.0
10709.572,228.0
10713.856,209.0
10718.142,215.0
10722.429,189.0
10726.718,210.0
10731.009,188.0
10735.301,207.0
10739.595,213.0
10743.891,228.0
10748.188,197.0
10752.487,194.0
10756.788,193.0
10761.091,218.0
10765.3955,221.0
10769.702,171.0
10774.01,220.0
10778.319,209.0
10782.631,192.0
10786.944,196.0
10791.259,186.0
10795.575,171.0
10799.894,212.0
10804.214,181.0
10808.535,193.0
10812.858,173.0
10817.184,167.0
10821.511,230.0
10825.839,191.0
10830.169,196.0
10834.501,181.0
10838.835,221.0
10843.171,193.0
10847.508,213.0
10851.847,175.0
10856.1875,207.0
10860.53,205.0
10864.874,220.0
10869.22,224.0
10873.567,213.0
10877.917,186.0
10882.269,211.0
10886.621,234.0
10890.976,210.0
10895.332,195.0
10899.69,214.0
10904.051,201.0
10908.412,221.0
10912.775,202.0
10917.141,221.0
10921.508,203.0
10925.876,211.0
10930.246,194.0
10934.618,216.0
10938.992,218.0
10943.368,235.0
10947.745,233.0
10952.124,196.0
10956.505,225.0
10960.888,212.0
10965.272,187.0
10969.658,205.0
10974.046,209.0
10978.436,238.0
10982.827,234.0
10987.221,224.0
10991.615,193.0
10996.012,214.0
11000.41,239.0
11004.811,229.0
11009.213,211.0
11013.616,228.0
11018.021,223.0
11022.429,235.0
11026.838,246.0
11031.249,263.0
11035.661,220.0
11040.075,228.0
11044.491,234.0
11048.909,215.0
11053.329,221.0
11057.75,235.0
11062.173,227.0
11066.598,210.0
11071.024,225.0
11075.453,218.0
11079.884,224.0
11084.315,235.0
11088.749,203.0
11093.185,225.0
11097.622,199.0
11102.062,206.0
11106.502,251.0
11110.944,218.0
11115.389,236.0
11119.835,229.0
11124.283,252.0
11128.733,237.0
11133.185,217.0
11137.638,243.0
11142.093,222.0
11146.55,199.0
11151.009,258.0
11155.469,233.0
11159.931,237.0
11164.395,261.0
11168.86,256.0
11173.328,249.0
11177.798,238.0
11182.269,230.0
11186.741,216.0
11191.216,259.0
11195.692,254.0
11200.171,253.0
11204.651,250.0
11209.133,264.0
11213.616,222.0
11218.102,235.0
11222.589,240.0
11227.078,258.0
11231.569,240.0
11236.062,245.0
11240.556,282.0
11245.052,292.0
11249.55,240.0
11254.05,260.0
11258.552,275.0
11263.056,247.0
11267.561,255.0
11272.067,241.0
11276.576,277.0
11281.087,285.0
11285.6,308.0
11290.114,296.0
11294.63,285.0
11299.147,281.0
11303.667,304.0
11308.188,280.0
11312.712,346.0
11317.237,327.0
11321.765,283.0
11326.293,332.0
11330.823,318.0
11335.355,323.0
11339.89,344.0
11344.426,358.0
11348.964,368.0
11353.504,374.0
11358.045,363.0
11362.588,416.0
11367.133,391.0
11371.68,422.0
11376.229,377.0
11380.779,389.0
11385.332,397.0
11389.886,446.0
11394.441,443.0
11398.999,446.0
11403.559,459.0
11408.12,464.0
11412.684,507.0
11417.249,499.0
11421.816,475.0
11426.385,479.0
11430.955,522.0
11435.527,527.0
11440.102,549.0
11444.678,573.0
11449.256,548.0
11453.836,596.0
11458.417,571.0
11463.0,612.0
11467.585,614.0
11472.172,609.0
11476.761,631.0
11481.352,613.0
11485.944,693.0
11490.539,689.0
11495.136,645.0
11499.733,755.0
11504.333,728.0
11508.935,758.0
11513.538,749.0
11518.144,763.0
11522.751,734.0
11527.36,820.0
11531.972,822.0
11536.584,772.0
11541.198,797.0
11545.814,912.0
11550.433,803.0
11555.053,756.0
11559.675,915.0
11564.299,877.0
11568.925,833.0
11573.553,840.0
11578.183,1005.0
11582.813,925.0
11587.446,761.0
11592.081,903.0
11596.718,1006.0
11601.356,828.0
11605.997,862.0
11610.64,1002.0
11615.284,1001.0
11619.931,837.0
11624.579,965.0
11629.229,969.0
11633.88,888.0
11638.533,915.0
11643.188,1121.0
11647.846,976.0
11652.505,749.0
11657.166,1021.0
11661.829,1121.0
11666.494,787.0
11671.161,715.0
11675.83,1387.0
11680.5,1361.0
11685.172,817.0
11689.846,655.0
11694.521,731.0
11699.199,583.0
11703.879,496.0
11708.561,488.0
11713.244,482.0
11717.93,449.0
11722.617,441.0
11727.307,408.0
11731.998,378.0
11736.69,412.0
11741.385,373.0
11746.081,362.0
11750.779,351.0
11755.4795,352.0
11760.182,416.0
11764.886,310.0
11769.592,351.0
11774.3,371.0
11779.01,374.0
11783.722,352.0
11788.436,368.0
11793.151,331.0
11797.868,289.0
11802.587,367.0
11807.308,314.0
11812.03,286.0
11816.755,326.0
11821.481,366.0
11826.21,318.0
11830.94,347.0
11835.673,320.0
11840.407,291.0
11845.144,282.0
11849.882,285.0
11854.622,264.0
11859.364,252.0
11864.108,290.0
11868.8545,276.0
11873.602,283.0
11878.351,245.0
11883.102,260.0
11887.8545,229.0
11892.609,246.0
11897.366,229.0
11902.125,235.0
11906.886,221.0
11911.648,239.0
11916.413,234.0
11921.18,245.0
11925.948,229.0
11930.719,243.0
11935.491,226.0
11940.266,220.0
11945.042,219.0
11949.82,241.0
11954.601,228.0
11959.383,238.0
11964.167,248.0
11968.953,259.0
11973.74,209.0
11978.529,234.0
11983.32,200.0
11988.113,233.0
11992.908,238.0
