M/Z,Intensity
800.0,221.0
800.32,203.0
800.64014,50.0
800.9604,229.0
801.28076,340.0
801.60126,72.0
801.9219,151.0
802.2426,274.0
802.56354,83.0
802.8846,329.0
803.20575,280.0
803.52704,73.0
803.84845,143.0
804.17,266.0
804.49164,68.0
804.8134,68.0
805.1353,230.0
805.4574,93.0
805.7796,70.0
806.1019,227.0
806.4244,134.0
806.74695,42.0
807.06964,211.0
807.39246,151.0
807.7154,40.0
808.03845,218.0
808.3617,181.0
808.68506,40.0
809.00854,235.0
809.33215,215.0
809.6559,45.0
809.97974,197.0
810.3037,216.0
810.6278,59.0
810.9521,224.0
811.2765,222.0
811.601,58.0
811.92566,154.0
812.2504,238.0
812.5753,53.0
812.9003,163.0
813.22546,262.0
813.5508,74.0
813.8762,113.0
814.2018,236.0
814.52747,71.0
814.8533,197.0
815.1792,289.0
815.50525,103.0
815.8314,99.0
816.1578,243.0
816.48425,95.0
816.81085,181.0
817.1376,335.0
817.4644,129.0
817.7914,65.0
818.11847,280.0
818.44574,112.0
818.77313,81.0
819.10065,249.0
819.4283,95.0
819.75604,41.0
820.0839,223.0
820.412,92.0
820.7402,58.0
821.0685,255.0
821.3969,134.0
821.72546,44.0
822.05414,200.0
822.38293,145.0
822.7119,54.0
823.041,327.0
823.37024,143.0
823.6996,49.0
824.02905,261.0
824.35864,185.0
824.6884,317.0
825.0183,4259.0
825.3483,246.0
825.67847,133.0
826.0087,1780.0
826.3391,220.0
826.6696,70.0
827.0003,640.0
827.3311,166.0
827.66205,45.0
827.9931,236.0
828.3243,180.0
828.65564,49.0
828.9871,177.0
829.3187,214.0
829.65045,46.0
829.9823,145.0
830.3143,197.0
830.6464,39.0
830.9787,227.0
831.3111,193.0
831.6436,33.0
831.97626,190.0
832.309,181.0
832.64197,39.0
832.97504,184.0
833.3082,231.0
833.64154,47.0
833.975,172.0
834.3086,173.0
834.64233,38.0
834.9762,190.0
835.3102,167.0
835.6443,42.0
835.9785,167.0
836.3129,176.0
836.64746,52.0
836.9821,372.0
837.3169,167.0
837.6518,45.0
837.9869,257.0
838.3221,155.0
838.6574,93.0
838.99286,730.0
839.3284,176.0
839.6642,76.0
840.00006,446.0
840.33606,194.0
840.6722,103.0
841.0084,827.0
841.34485,181.0
841.6814,77.0
842.01807,409.0
842.35486,210.0
842.6918,60.0
843.0289,334.0
843.3661,184.0
843.7034,50.0
844.0409,186.0
844.37854,146.0
844.7163,66.0
845.0542,371.0
845.3922,286.0
845.73035,62.0
846.06866,251.0
846.4071,169.0
846.74567,63.0
847.08435,228.0
847.42316,162.0
847.76215,62.0
848.10126,214.0
848.4405,121.0
848.77985,56.0
849.1194,193.0
849.45905,115.0
849.7988,58.0
850.13873,230.0
850.47876,101.0
850.819,61.0
851.1593,227.0
851.49976,89.0
851.84033,70.0
852.1811,198.0
852.522,87.0
852.863,114.0
853.2041,212.0
853.5454,65.0
853.88684,136.0
854.2284,220.0
854.57007,78.0
854.9119,858.0
855.2539,232.0
855.596,84.0
855.93823,470.0
856.2806,211.0
856.6231,67.0
856.96576,359.0
857.30853,219.0
857.6514,66.0
857.9945,249.0
858.3377,148.0
858.681,53.0
859.0245,327.0
859.3681,167.0
859.71185,60.0
860.0557,230.0
860.3997,158.0
860.7439,743.0
861.0882,1341.0
861.4326,177.0
861.77716,514.0
862.1219,528.0
862.46674,147.0
862.8117,337.0
863.15686,288.0
863.50214,90.0
863.84753,204.0
864.19305,186.0
864.53876,85.0
864.8846,151.0
865.2305,167.0
865.5766,55.0
865.92285,129.0
866.2692,201.0
866.6157,65.0
866.96234,270.0
867.30914,171.0
867.65607,51.0
868.0031,164.0
868.35034,155.0
868.6977,37.0
869.04517,165.0
869.39276,119.0
869.74054,39.0
870.08844,154.0
870.43646,99.0
870.7846,110.0
871.13293,171.0
871.4814,84.0
871.82996,72.0
872.1787,156.0
872.5276,75.0
872.8766,264.0
873.2257,231.0
873.575,76.0
873.92444,175.0
874.274,200.0
874.6237,51.0
874.9736,172.0
875.32355,182.0
875.6737,38.0
876.024,163.0
876.3744,197.0
876.7249,330.0
877.0756,385.0
877.42645,193.0
877.7774,237.0
878.12854,255.0
878.4798,124.0
878.8312,181.0
879.18274,194.0
879.5344,80.0
879.8862,133.0
880.23816,188.0
880.5903,45.0
880.9425,138.0
881.29486,154.0
881.6474,45.0
882.00006,188.0
882.35284,172.0
882.7058,76.0
883.0589,192.0
883.4121,136.0
883.7655,55.0
884.119,206.0
884.47266,106.0
884.8264,71.0
885.18036,198.0
885.5344,90.0
885.8886,85.0
886.243,173.0
886.5975,63.0
886.9521,115.0
887.3069,142.0
887.6618,39.0
888.01685,134.0
888.3721,114.0
888.7274,65.0
889.0829,194.0
889.43854,199.0
889.7943,56.0
890.1502,185.0
890.5063,194.0
890.8625,96.0
891.2188,220.0
891.5753,93.0
891.93195,107.0
892.2887,211.0
892.6456,62.0
893.0027,208.0
893.35986,166.0
893.7172,40.0
894.0747,159.0
894.4323,127.0
894.7901,119.0
895.148,215.0
895.50604,87.0
895.86426,95.0
896.2226,154.0
896.58105,49.0
896.9397,144.0
897.29846,146.0
897.6574,48.0
898.0165,149.0
898.3757,129.0
898.73505,74.0
899.09454,179.0
899.45416,132.0
899.81396,85.0
900.1739,215.0
900.53394,82.0
900.89417,88.0
901.2545,191.0
901.615,41.0
901.97565,135.0
902.3364,145.0
902.6974,36.0
903.0585,162.0
903.4197,151.0
903.78107,62.0
904.1426,189.0
904.5042,143.0
904.866,97.0
905.22797,239.0
905.5901,72.0
905.95233,122.0
906.3147,190.0
906.67725,40.0
907.0399,144.0
907.4027,125.0
907.7657,38.0
908.1288,166.0
908.49207,94.0
908.85547,85.0
909.219,177.0
909.5827,52.0
909.94653,96.0
910.3105,136.0
910.6746,51.0
911.0389,157.0
911.4033,117.0
911.7679,47.0
912.13257,170.0
912.49744,118.0
912.8624,60.0
913.2276,183.0
913.5929,56.0
913.9583,105.0
914.3239,125.0
914.68964,46.0
915.05554,159.0
915.4216,120.0
915.7877,58.0
916.15405,183.0
916.5205,121.0
916.88715,73.0
917.2539,203.0
917.6208,55.0
917.98785,125.0
918.35504,174.0
918.7224,32.0
919.0899,161.0
919.4575,141.0
919.8253,62.0
920.19324,262.0
920.56134,72.0
920.92957,93.0
921.2979,220.0
921.66644,39.0
922.0351,162.0
922.40393,131.0
922.7729,59.0
923.14197,164.0
923.5112,92.0
923.8806,92.0
924.2502,144.0
924.6199,35.0
924.98975,119.0
925.35974,126.0
925.72986,37.0
926.10016,185.0
926.4706,94.0
926.8412,69.0
927.2119,165.0
927.5828,57.0
927.95386,102.0
928.325,120.0
928.69635,43.0
929.0678,166.0
929.43945,133.0
929.8112,74.0
930.18317,181.0
930.55524,113.0
930.9274,98.0
931.2998,155.0
931.6723,41.0
932.045,113.0
932.4178,118.0
932.7908,64.0
933.1639,202.0
933.5372,137.0
933.9106,92.0
934.2841,184.0
934.65784,49.0
935.0317,126.0
935.4057,134.0
935.77985,55.0
936.1542,156.0
936.5286,86.0
936.90326,92.0
937.278,157.0
937.65295,49.0
938.028,125.0
938.4032,140.0
938.77856,45.0
939.15405,145.0
939.5297,83.0
939.9055,82.0
940.2815,125.0
940.6576,35.0
941.0339,159.0
941.4103,111.0
941.78687,58.0
942.1636,153.0
942.54047,66.0
942.9175,115.0
943.2947,133.0
943.672,46.0
944.04944,149.0
944.42706,121.0
944.8048,62.0
945.18274,141.0
945.5608,71.0
945.939,97.0
946.3174,143.0
946.6959,38.0
947.0746,128.0
947.4534,108.0
947.8324,67.0
948.21155,214.0
948.5908,73.0
948.9703,118.0
949.34985,149.0
949.7296,41.0
950.1095,123.0
950.48956,101.0
950.86975,62.0
951.2501,150.0
951.6306,47.0
952.0113,94.0
952.3921,128.0
952.7731,38.0
953.1542,141.0
953.53546,54.0
953.9169,66.0
954.29846,137.0
954.6802,41.0
955.0621,106.0
955.4441,133.0
955.8263,52.0
956.2086,128.0
956.5911,69.0
956.97375,95.0
957.35657,133.0
957.7395,42.0
958.1226,140.0
958.50586,86.0
958.8893,75.0
959.2728,148.0
959.65656,38.0
960.0404,127.0
960.42444,108.0
960.8086,65.0
961.19293,141.0
961.5774,64.0
961.96204,111.0
962.3468,123.0
962.73175,43.0
963.1168,137.0
963.5021,79.0
963.88745,105.0
964.273,139.0
964.6587,43.0
965.04456,156.0
965.4306,126.0
965.8168,60.0
966.2031,137.0
966.5896,52.0
966.97626,98.0
967.36304,118.0
967.75,35.0
968.1371,163.0
968.52435,95.0
968.91174,79.0
969.2993,141.0
969.687,46.0
970.0749,212.0
970.4629,102.0
970.8511,93.0
971.23944,144.0
971.6279,48.0
972.0166,130.0
972.4054,96.0
972.7944,54.0
973.1835,147.0
973.57275,70.0
973.96216,80.0
974.35175,125.0
974.7415,40.0
975.1314,104.0
975.5215,94.0
975.9117,60.0
976.30206,112.0
976.69257,50.0
977.08325,110.0
977.47406,147.0
977.86505,67.0
978.2562,130.0
978.6475,65.0
979.039,122.0
979.4306,118.0
979.8224,57.0
980.2143,140.0
980.6064,70.0
980.99866,98.0
981.39105,102.0
981.7836,68.0
982.17633,216.0
982.5692,67.0
982.9622,147.0
983.3554,126.0
983.7488,45.0
984.1423,165.0
984.53595,92.0
984.92975,101.0
985.3237,115.0
985.71783,60.0
986.1121,222.0
986.5066,87.0
986.9012,104.0
987.29596,128.0
987.69086,65.0
988.08594,163.0
988.4812,89.0
988.8766,83.0
989.27216,135.0
989.66785,43.0
990.0637,137.0
990.4597,93.0
990.8559,50.0
991.25226,133.0
991.64874,51.0
992.0454,170.0
992.4422,99.0
992.8392,95.0
993.2363,132.0
993.6336,47.0
994.03107,148.0
994.42865,89.0
994.8264,83.0
995.22437,149.0
995.62244,48.0
996.0207,92.0
996.4191,107.0
996.8177,71.0
997.21643,134.0
997.6153,49.0
998.01434,106.0
998.4136,99.0
998.8129,41.0
999.21246,133.0
999.6121,59.0
1000.01196,173.0
1000.412,115.0
1000.81213,71.0
1001.21246,144.0
1001.613,68.0
1002.0136,136.0
1002.4144,112.0
1002.81537,67.0
1003.2165,146.0
1003.6178,62.0
1004.0192,122.0
1004.42084,114.0
1004.82263,79.0
1005.22455,139.0
1005.62665,82.0
1006.0289,232.0
1006.4313,104.0
1006.83386,86.0
1007.2366,130.0
1007.63947,58.0
1008.04254,252.0
1008.44574,99.0
1008.8491,115.0
1009.2527,155.0
1009.6564,50.0
1010.06024,150.0
1010.4643,96.0
1010.86847,81.0
1011.2728,152.0
1011.6773,50.0
1012.082,139.0
1012.4868,92.0
1012.8918,69.0
1013.29694,119.0
1013.7023,83.0
1014.1077,266.0
1014.51337,98.0
1014.9192,186.0
1015.32513,158.0
1015.73126,61.0
1016.1376,155.0
1016.544,68.0
1016.9506,100.0
1017.3574,94.0
1017.76434,33.0
1018.17145,142.0
1018.57874,58.0
1018.98615,74.0
1019.39374,116.0
1019.8015,52.0
1020.2094,102.0
1020.6175,49.0
1021.02576,115.0
1021.43414,138.0
1021.8427,95.0
1022.25146,134.0
1022.66034,83.0
1023.0694,113.0
1023.47864,109.0
1023.888,98.0
1024.2976,145.0
1024.7073,50.0
1025.1172,132.0
1025.5272,85.0
1025.9374,97.0
1026.3478,121.0
1026.7583,42.0
1027.169,136.0
1027.5798,71.0
1027.9908,176.0
1028.4021,110.0
1028.8135,79.0
1029.225,115.0
1029.6367,118.0
1030.0486,407.0
1030.4606,126.0
1030.8728,216.0
1031.2852,125.0
1031.6976,88.0
1032.1104,161.0
1032.5232,79.0
1032.9362,86.0
1033.3494,135.0
1033.7627,86.0
1034.1761,133.0
1034.5898,60.0
1035.0037,108.0
1035.4177,95.0
1035.8319,92.0
1036.2462,131.0
1036.6608,57.0
1037.0754,101.0
1037.4902,88.0
1037.9053,89.0
1038.3204,123.0
1038.7357,54.0
1039.1512,134.0
1039.5669,76.0
1039.9827,84.0
1040.3987,101.0
1040.8148,94.0
1041.2312,166.0
1041.6477,58.0
1042.0643,148.0
1042.4812,105.0
1042.8982,103.0
1043.3153,121.0
1043.7327,117.0
1044.1501,153.0
1044.5677,77.0
1044.9856,161.0
1045.4036,123.0
1045.8218,130.0
1046.2401,147.0
1046.6586,72.0
1047.0773,125.0
1047.4961,103.0
1047.915,80.0
1048.3342,105.0
1048.7535,49.0
1049.1731,131.0
1049.5928,91.0
1050.0126,237.0
1050.4326,111.0
1050.8528,168.0
1051.2731,125.0
1051.6936,102.0
1052.1143,170.0
1052.5352,90.0
1052.9562,107.0
1053.3773,116.0
1053.7987,143.0
1054.2202,130.0
1054.6418,60.0
1055.0637,140.0
1055.4857,81.0
1055.908,94.0
1056.3303,124.0
1056.7528,51.0
1057.1755,128.0
1057.5984,90.0
1058.0215,113.0
1058.4447,111.0
1058.868,69.0
1059.2916,103.0
1059.7153,92.0
1060.1392,156.0
1060.5632,95.0
1060.9874,113.0
1061.4119,130.0
1061.8364,85.0
1062.2611,123.0
1062.686,57.0
1063.1111,112.0
1063.5364,92.0
1063.9618,90.0
1064.3873,99.0
1064.8131,67.0
1065.239,139.0
1065.6652,237.0
1066.0914,494.0
1066.5178,118.0
1066.9445,352.0
1067.3712,153.0
1067.7982,212.0
1068.2253,139.0
1068.6526,88.0
1069.0801,132.0
1069.5077,94.0
1069.9355,111.0
1070.3635,70.0
1070.7916,70.0
1071.22,125.0
1071.6484,99.0
1072.0771,173.0
1072.506,82.0
1072.9349,125.0
1073.3641,117.0
1073.7935,111.0
1074.223,157.0
1074.6527,68.0
1075.0825,98.0
1075.5126,99.0
1075.9427,88.0
1076.3732,113.0
1076.8037,63.0
1077.2344,118.0
1077.6653,67.0
1078.0963,141.0
1078.5276,82.0
1078.959,92.0
1079.3906,108.0
1079.8224,62.0
1080.2543,118.0
1080.6864,49.0
1081.1187,98.0
1081.5511,91.0
1081.9838,185.0
1082.4165,87.0
1082.8495,88.0
1083.2826,126.0
1083.716,76.0
1084.1494,109.0
1084.5831,85.0
1085.017,95.0
1085.4509,95.0
1085.8851,83.0
1086.3195,111.0
1086.754,63.0
1087.1887,96.0
1087.6235,81.0
1088.0586,160.0
1088.4938,94.0
1088.9292,102.0
1089.3647,107.0
1089.8005,84.0
1090.2365,186.0
1090.6725,78.0
1091.1088,126.0
1091.5452,106.0
1091.9818,102.0
1092.4186,115.0
1092.8556,63.0
1093.2927,138.0
1093.7301,83.0
1094.1676,108.0
1094.6052,64.0
1095.0431,95.0
1095.4811,98.0
1095.9193,101.0
1096.3577,120.0
1096.7963,53.0
1097.235,116.0
1097.6738,62.0
1098.1129,79.0
1098.5521,92.0
1098.9916,82.0
1099.4312,101.0
1099.871,70.0
1100.3109,127.0
1100.751,46.0
1101.1913,116.0
1101.6317,39.0
1102.0724,75.0
1102.5132,80.0
1102.9542,68.0
1103.3954,139.0
1103.8368,120.0
1104.2783,118.0
1104.72,68.0
1105.1619,98.0
1105.6039,79.0
1106.0461,89.0
1106.4885,75.0
1106.9312,71.0
1107.3739,109.0
1107.8169,46.0
1108.26,105.0
1108.7034,73.0
1109.1469,102.0
1109.5905,71.0
1110.0343,105.0
1110.4783,88.0
1110.9225,87.0
1111.3668,95.0
1111.8114,56.0
1112.2561,108.0
1112.701,49.0
1113.1461,101.0
1113.5914,70.0
1114.0369,82.0
1114.4824,99.0
1114.9282,58.0
1115.3741,103.0
1115.8203,63.0
1116.2666,109.0
1116.7131,58.0
1117.1598,84.0
1117.6067,60.0
1118.0537,112.0
1118.501,97.0
1118.9484,61.0
1119.396,112.0
1119.8438,57.0
1120.2917,112.0
1120.7399,41.0
1121.1881,94.0
1121.6366,67.0
1122.0852,85.0
1122.534,74.0
1122.983,72.0
1123.4323,80.0
1123.8816,72.0
1124.3312,104.0
1124.7809,56.0
1125.2308,89.0
1125.6809,59.0
1126.1312,77.0
1126.5817,59.0
1127.0323,88.0
1127.4832,99.0
1127.9342,66.0
1128.3854,121.0
1128.8367,51.0
1129.2882,99.0
1129.7399,42.0
1130.1918,90.0
1130.6438,64.0
1131.0961,94.0
1131.5485,87.0
1132.0011,80.0
1132.4539,113.0
1132.9069,52.0
1133.36,83.0
1133.8134,36.0
1134.2668,93.0
1134.7206,37.0
1135.1744,80.0
1135.6285,68.0
1136.0828,85.0
1136.5372,51.0
1136.9918,74.0
1137.4467,106.0
1137.9016,55.0
1138.3568,106.0
1138.8121,54.0
1139.2677,88.0
1139.7234,53.0
1140.1793,87.0
1140.6354,48.0
1141.0917,75.0
1141.5481,80.0
1142.0048,76.0
1142.4615,91.0
1142.9186,58.0
1143.3757,117.0
1143.8331,41.0
1144.2906,94.0
1144.7484,49.0
1145.2063,104.0
1145.6644,57.0
1146.1227,81.0
1146.5812,66.0
1147.0398,70.0
1147.4987,73.0
1147.9576,53.0
1148.4169,113.0
1148.8762,56.0
1149.3358,124.0
1149.7955,50.0
1150.2555,93.0
1150.7156,45.0
1151.1759,84.0
1151.6364,71.0
1152.097,66.0
1152.5579,78.0
1153.0189,72.0
1153.4801,89.0
1153.9415,67.0
1154.4031,86.0
1154.8649,66.0
1155.3268,116.0
1155.789,50.0
1156.2512,95.0
1156.7137,54.0
1157.1764,92.0
1157.6393,62.0
1158.1023,77.0
1158.5656,94.0
1159.0289,77.0
1159.4926,97.0
1159.9563,55.0
1160.4203,88.0
1160.8844,65.0
1161.3488,74.0
1161.8134,43.0
1162.2781,83.0
1162.743,52.0
1163.2081,116.0
1163.6735,70.0
1164.1389,78.0
1164.6046,96.0
1165.0704,68.0
1165.5365,80.0
1166.0027,60.0
1166.4691,80.0
1166.9357,60.0
1167.4025,106.0
1167.8694,50.0
1168.3365,106.0
1168.8038,39.0
1169.2714,91.0
1169.739,66.0
1170.2069,84.0
1170.675,54.0
1171.1433,100.0
1171.6118,85.0
1172.0804,78.0
1172.5493,92.0
1173.0183,72.0
1173.4875,88.0
1173.9569,64.0
1174.4265,76.0
1174.8962,68.0
1175.3662,94.0
1175.8363,66.0
1176.3066,99.0
1176.7772,63.0
1177.2479,96.0
1177.7189,49.0
1178.19,82.0
1178.6613,61.0
1179.1327,75.0
1179.6044,68.0
1180.0762,70.0
1180.5482,80.0
1181.0204,77.0
1181.4928,108.0
1181.9655,47.0
1182.4382,96.0
1182.9113,65.0
1183.3844,98.0
1183.8578,62.0
1184.3313,94.0
1184.805,52.0
1185.2789,88.0
1185.753,55.0
1186.2273,93.0
1186.7018,63.0
1187.1765,70.0
1187.6514,69.0
1188.1265,71.0
1188.6017,71.0
1189.0771,62.0
1189.5527,73.0
1190.0286,58.0
1190.5045,71.0
1190.9807,70.0
1191.4572,98.0
1191.9337,63.0
1192.4105,83.0
1192.8875,64.0
1193.3646,109.0
1193.8419,54.0
1194.3195,97.0
1194.7972,54.0
1195.2751,94.0
1195.7533,64.0
1196.2316,92.0
1196.7101,78.0
1197.1887,100.0
1197.6676,77.0
1198.1467,90.0
1198.626,84.0
1199.1055,80.0
1199.5851,73.0
1200.065,73.0
1200.5449,101.0
1201.0251,63.0
1201.5056,99.0
1201.9862,51.0
1202.467,76.0
1202.948,71.0
1203.4292,82.0
1203.9105,63.0
1204.3921,73.0
1204.8739,61.0
1205.3558,93.0
1205.838,37.0
1206.3203,92.0
1206.8029,38.0
1207.2855,90.0
1207.7684,49.0
1208.2516,78.0
1208.7349,46.0
1209.2184,88.0
1209.702,52.0
1210.1859,88.0
1210.67,77.0
1211.1543,80.0
1211.6388,72.0
1212.1234,63.0
1212.6083,65.0
1213.0933,73.0
1213.5785,66.0
1214.064,62.0
1214.5496,70.0
1215.0354,80.0
1215.5214,87.0
1216.0076,64.0
1216.494,86.0
1216.9806,69.0
1217.4674,99.0
1217.9543,53.0
1218.4415,96.0
1218.929,94.0
1219.4165,88.0
1219.9043,66.0
1220.3922,76.0
1220.8804,77.0
1221.3688,94.0
1221.8573,49.0
1222.3461,83.0
1222.835,60.0
1223.3241,82.0
1223.8135,54.0
1224.303,74.0
1224.7927,47.0
1225.2826,85.0
1225.7727,61.0
1226.2631,92.0
1226.7535,64.0
1227.2443,71.0
1227.7351,48.0
1228.2262,65.0
1228.7175,64.0
1229.209,89.0
1229.7007,67.0
1230.1925,71.0
1230.6846,71.0
1231.1769,92.0
1231.6693,55.0
1232.162,64.0
1232.6549,67.0
1233.148,77.0
1233.6412,46.0
1234.1346,85.0
1234.6283,72.0
1235.1222,86.0
1235.6162,77.0
1236.1105,101.0
1236.6049,79.0
1237.0995,85.0
1237.5944,52.0
1238.0894,63.0
1238.5846,63.0
1239.0801,80.0
1239.5757,72.0
1240.0715,64.0
1240.5675,69.0
1241.0637,95.0
1241.5602,82.0
1242.0568,87.0
1242.5536,77.0
1243.0507,79.0
1243.5479,103.0
1244.0453,64.0
1244.5428,77.0
1245.0406,69.0
1245.5387,70.0
1246.0369,61.0
1246.5353,99.0
1247.0339,109.0
1247.5327,94.0
1248.0317,88.0
1248.531,100.0
1249.0304,103.0
1249.53,86.0
1250.0298,55.0
1250.5298,90.0
1251.03,73.0
1251.5304,82.0
1252.031,59.0
1252.5319,64.0
1253.0328,46.0
1253.534,63.0
1254.0355,62.0
1254.5371,62.0
1255.039,96.0
1255.541,55.0
1256.0432,78.0
1256.5457,83.0
1257.0482,78.0
1257.551,88.0
1258.0541,67.0
1258.5573,100.0
1259.0607,75.0
1259.5643,77.0
1260.0681,57.0
1260.5721,83.0
1261.0764,130.0
1261.5808,82.0
1262.0854,106.0
1262.5903,83.0
1263.0953,120.0
1263.6006,96.0
1264.1061,98.0
1264.6117,79.0
1265.1176,91.0
1265.6237,94.0
1266.1299,91.0
1266.6364,72.0
1267.1431,89.0
1267.6499,86.0
1268.157,67.0
1268.6642,77.0
1269.1716,75.0
1269.6793,89.0
1270.1871,80.0
1270.6952,115.0
1271.2035,77.0
1271.7119,80.0
1272.2206,67.0
1272.7295,68.0
1273.2385,79.0
1273.7478,64.0
1274.2573,77.0
1274.767,75.0
1275.2769,88.0
1275.787,64.0
1276.2972,72.0
1276.8077,156.0
1277.3185,101.0
1277.8295,122.0
1278.3406,90.0
1278.8519,131.0
1279.3635,92.0
1279.8752,87.0
1280.3872,106.0
1280.8994,84.0
1281.4117,77.0
1281.9243,79.0
1282.4371,88.0
1282.9501,82.0
1283.4633,102.0
1283.9767,84.0
1284.4902,87.0
1285.004,98.0
1285.5181,73.0
1286.0322,71.0
1286.5466,77.0
1287.0613,60.0
1287.576,101.0
1288.0911,65.0
1288.6063,94.0
1289.1218,77.0
1289.6375,68.0
1290.1533,83.0
1290.6694,84.0
1291.1857,112.0
1291.7021,71.0
1292.2189,110.0
1292.7357,104.0
1293.2528,95.0
1293.7701,71.0
1294.2876,82.0
1294.8053,70.0
1295.3232,70.0
1295.8414,58.0
1296.3597,77.0
1296.8783,55.0
1297.3971,78.0
1297.916,72.0
1298.4352,77.0
1298.9546,80.0
1299.4741,72.0
1299.9939,65.0
1300.5139,82.0
1301.0342,70.0
1301.5546,75.0
1302.0752,64.0
1302.5961,87.0
1303.1171,67.0
1303.6383,67.0
1304.1598,78.0
1304.6814,84.0
1305.2032,88.0
1305.7253,75.0
1306.2477,71.0
1306.7701,56.0
1307.2928,66.0
1307.8158,56.0
1308.3389,81.0
1308.8622,70.0
1309.3857,77.0
1309.9095,52.0
1310.4335,88.0
1310.9576,57.0
1311.482,65.0
1312.0066,59.0
1312.5314,76.0
1313.0564,63.0
1313.5817,69.0
1314.107,60.0
1314.6327,76.0
1315.1586,92.0
1315.6847,58.0
1316.2109,74.0
1316.7374,62.0
1317.2642,70.0
1317.791,49.0
1318.3181,89.0
1318.8455,49.0
1319.373,88.0
1319.9008,51.0
1320.4287,69.0
1320.9569,62.0
1321.4854,80.0
1322.0139,64.0
1322.5427,79.0
1323.0718,47.0
1323.601,75.0
1324.1304,59.0
1324.66,98.0
1325.19,74.0
1325.72,74.0
1326.2502,60.0
1326.7808,59.0
1327.3115,64.0
1327.8424,62.0
1328.3735,79.0
1328.9049,50.0
1329.4365,82.0
1329.9683,59.0
1330.5002,93.0
1331.0325,51.0
1331.565,107.0
1332.0975,63.0
1332.6304,107.0
1333.1635,83.0
1333.6968,100.0
1334.2302,77.0
1334.7639,61.0
1335.2979,81.0
1335.832,58.0
1336.3663,66.0
1336.9009,56.0
1337.4357,74.0
1337.9707,45.0
1338.5059,55.0
1339.0413,50.0
1339.5769,88.0
1340.1128,42.0
1340.6488,61.0
1341.185,66.0
1341.7216,75.0
1342.2583,66.0
1342.7952,61.0
1343.3323,68.0
1343.8696,61.0
1344.4072,66.0
1344.945,38.0
1345.4829,75.0
1346.0211,48.0
1346.5596,72.0
1347.0981,58.0
1347.637,76.0
1348.176,70.0
1348.7153,71.0
1349.2548,71.0
1349.7944,50.0
1350.3344,80.0
1350.8745,51.0
1351.4149,73.0
1351.9554,35.0
1352.4962,45.0
1353.0372,38.0
1353.5785,72.0
1354.1199,57.0
1354.6615,83.0
1355.2034,54.0
1355.7455,67.0
1356.2878,65.0
1356.8303,58.0
1357.373,85.0
1357.916,41.0
1358.4592,75.0
1359.0026,47.0
1359.5461,49.0
1360.09,55.0
1360.634,69.0
1361.1783,56.0
1361.7228,66.0
1362.2675,73.0
1362.8124,47.0
1363.3575,78.0
1363.9028,62.0
1364.4484,71.0
1364.9941,42.0
1365.5402,71.0
1366.0864,49.0
1366.6328,91.0
1367.1794,54.0
1367.7263,66.0
1368.2734,61.0
1368.8208,51.0
1369.3683,87.0
1369.916,42.0
1370.464,82.0
1371.0122,46.0
1371.5607,87.0
1372.1093,54.0
1372.6581,63.0
1373.2072,67.0
1373.7565,55.0
1374.306,85.0
1374.8557,52.0
1375.4056,126.0
1375.9558,42.0
1376.5062,87.0
1377.0569,48.0
1377.6077,80.0
1378.1587,57.0
1378.71,68.0
1379.2615,68.0
1379.8132,61.0
1380.3651,65.0
1380.9172,46.0
1381.4696,79.0
1382.0222,36.0
1382.5751,70.0
1383.128,66.0
1383.6813,119.0
1384.2347,92.0
1384.7885,83.0
1385.3424,61.0
1385.8965,46.0
1386.4508,85.0
1387.0054,55.0
1387.5602,78.0
1388.1152,48.0
1388.6705,64.0
1389.226,84.0
1389.7816,53.0
1390.3375,59.0
1390.8937,54.0
1391.4501,89.0
1392.0067,50.0
1392.5635,76.0
1393.1205,48.0
1393.6777,58.0
1394.2352,61.0
1394.793,50.0
1395.3508,79.0
1395.9089,43.0
1396.4673,99.0
1397.0259,51.0
1397.5847,81.0
1398.1438,60.0
1398.703,68.0
1399.2625,85.0
1399.8221,59.0
1400.3821,77.0
1400.9423,37.0
1401.5027,76.0
1402.0632,52.0
1402.624,67.0
1403.185,58.0
1403.7463,69.0
1404.3079,66.0
1404.8696,48.0
1405.4315,83.0
1405.9937,38.0
1406.556,82.0
1407.1187,49.0
1407.6815,69.0
1408.2446,73.0
1408.808,68.0
1409.3715,64.0
1409.9352,45.0
1410.4991,59.0
1411.0634,46.0
1411.6278,62.0
1412.1925,48.0
1412.7573,70.0
1413.3224,66.0
1413.8877,49.0
1414.4532,77.0
1415.019,50.0
1415.5851,88.0
1416.1514,52.0
1416.7178,68.0
1417.2844,69.0
1417.8513,63.0
1418.4185,81.0
1418.9858,45.0
1419.5535,88.0
1420.1213,45.0
1420.6893,107.0
1421.2576,69.0
1421.826,60.0
1422.3948,72.0
1422.9637,56.0
1423.533,79.0
1424.1024,44.0
1424.672,61.0
1425.2418,68.0
1425.8119,77.0
1426.3822,79.0
1426.9528,47.0
1427.5236,66.0
1428.0946,49.0
1428.6659,65.0
1429.2373,67.0
1429.809,71.0
1430.3809,86.0
1430.953,43.0
1431.5254,82.0
1432.098,59.0
1432.6709,84.0
1433.244,82.0
1433.8173,74.0
1434.3907,87.0
1434.9645,54.0
1435.5385,89.0
1436.1127,64.0
1436.6871,80.0
1437.2618,61.0
1437.8368,92.0
1438.412,79.0
1438.9873,46.0
1439.5629,59.0
1440.1387,52.0
1440.7147,62.0
1441.291,57.0
1441.8676,51.0
1442.4443,83.0
1443.0214,42.0
1443.5985,87.0
1444.1759,42.0
1444.7535,70.0
1445.3314,78.0
1445.9095,66.0
1446.4879,96.0
1447.0665,46.0
1447.6454,69.0
1448.2245,55.0
1448.8038,60.0
1449.3833,63.0
1449.963,53.0
1450.543,89.0
1451.1232,52.0
1451.7036,82.0
1452.2843,66.0
1452.8652,66.0
1453.4464,64.0
1454.0278,61.0
1454.6095,67.0
1455.1913,56.0
1455.7733,83.0
1456.3556,85.0
1456.9381,46.0
1457.5209,68.0
1458.1039,53.0
1458.6871,67.0
1459.2706,57.0
1459.8544,65.0
1460.4384,64.0
1461.0226,36.0
1461.6069,101.0
1462.1915,63.0
1462.7764,73.0
1463.3615,101.0
1463.9468,55.0
1464.5323,107.0
1465.1182,41.0
1465.7042,88.0
1466.2905,65.0
1466.8771,50.0
1467.4639,84.0
1468.0509,55.0
1468.6382,70.0
1469.2256,66.0
1469.8132,69.0
1470.4011,76.0
1470.9893,57.0
1471.5776,78.0
1472.1663,62.0
1472.7551,73.0
1473.3442,62.0
1473.9336,61.0
1474.5232,92.0
1475.113,52.0
1475.7031,89.0
1476.2935,64.0
1476.884,57.0
1477.4747,66.0
1478.0657,51.0
1478.6569,79.0
1479.2483,61.0
1479.84,66.0
1480.4319,81.0
1481.024,40.0
1481.6165,94.0
1482.2091,58.0
1482.802,80.0
1483.3951,54.0
1483.9885,57.0
1484.5822,54.0
1485.176,45.0
1485.7701,91.0
1486.3645,77.0
1486.9591,52.0
1487.5538,85.0
1488.1488,65.0
1488.744,76.0
1489.3395,57.0
1489.9352,39.0
1490.5311,80.0
1491.1273,50.0
1491.7238,91.0
1492.3204,68.0
1492.9174,43.0
1493.5145,94.0
1494.1119,52.0
1494.7096,68.0
1495.3075,72.0
1495.9056,64.0
1496.504,74.0
1497.1027,42.0
1497.7015,67.0
1498.3007,65.0
1498.9,54.0
1499.4996,78.0
1500.0995,44.0
1500.6996,76.0
1501.2998,48.0
1501.9003,56.0
1502.501,72.0
1503.1019,30.0
1503.7031,70.0
1504.3046,64.0
1504.9062,67.0
1505.5082,67.0
1506.1104,34.0
1506.7128,62.0
1507.3154,86.0
1507.9183,61.0
1508.5215,68.0
1509.1249,40.0
1509.7285,94.0
1510.3324,65.0
1510.9365,52.0
1511.5409,72.0
1512.1455,49.0
1512.7504,89.0
1513.3555,81.0
1513.9608,67.0
1514.5664,79.0
1515.1722,53.0
1515.7783,55.0
1516.3846,51.0
1516.9912,53.0
1517.598,76.0
1518.2051,41.0
1518.8124,51.0
1519.4199,71.0
1520.0277,55.0
1520.6357,65.0
1521.244,52.0
1521.8525,57.0
1522.4613,47.0
1523.0703,39.0
1523.6796,63.0
1524.2891,62.0
1524.8988,43.0
1525.5088,81.0
1526.119,56.0
1526.7295,71.0
1527.3402,70.0
1527.9512,44.0
1528.5624,92.0
1529.1738,53.0
1529.7855,71.0
1530.3975,57.0
1531.0096,49.0
1531.6221,91.0
1532.2347,54.0
1532.8477,57.0
1533.4608,69.0
1534.0742,35.0
1534.6879,68.0
1535.3018,64.0
1535.9159,37.0
1536.5303,63.0
1537.1449,48.0
1537.7598,65.0
1538.3749,52.0
1538.9902,40.0
1539.6058,73.0
1540.2217,55.0
1540.8378,49.0
1541.4541,54.0
1542.0707,52.0
1542.6875,79.0
1543.3046,57.0
1543.9219,60.0
1544.5394,58.0
1545.1572,52.0
1545.7753,84.0
1546.3936,72.0
1547.0121,32.0
1547.6309,73.0
1548.2499,47.0
1548.8691,31.0
1549.4886,65.0
1550.1084,44.0
1550.7284,57.0
1551.3486,78.0
1551.9691,65.0
1552.5898,98.0
1553.2109,34.0
1553.8323,69.0
1554.4539,85.0
1555.0757,37.0
1555.6978,62.0
1556.3201,62.0
1556.9426,50.0
1557.5654,73.0
1558.1885,47.0
1558.8118,72.0
1559.4353,93.0
1560.0591,44.0
1560.6831,65.0
1561.3074,53.0
1561.9319,41.0
1562.5566,74.0
1563.1816,38.0
1563.8069,53.0
1564.4324,50.0
1565.0581,46.0
1565.6841,48.0
1566.3103,59.0
1566.9368,48.0
1567.5636,64.0
1568.1907,44.0
1568.818,59.0
1569.4456,73.0
1570.0734,50.0
1570.7014,71.0
1571.3297,73.0
1571.9583,41.0
1572.587,65.0
1573.2161,35.0
1573.8453,52.0
1574.4749,58.0
1575.1046,39.0
1575.7346,60.0
1576.3649,55.0
1576.9954,52.0
1577.6261,65.0
1578.2572,43.0
1578.8885,56.0
1579.5201,71.0
1580.152,41.0
1580.784,63.0
1581.4164,67.0
1582.049,43.0
1582.6818,65.0
1583.3148,61.0
1583.9481,37.0
1584.5817,67.0
1585.2155,45.0
1585.8495,44.0
1586.4839,64.0
1587.1185,48.0
1587.7534,65.0
1588.3885,67.0
1589.0239,46.0
1589.6595,64.0
1590.2954,63.0
1590.9315,38.0
1591.5679,63.0
1592.2045,47.0
1592.8413,54.0
1593.4784,54.0
1594.1158,54.0
1594.7535,52.0
1595.3915,89.0
1596.0297,56.0
1596.6681,89.0
1597.3068,52.0
1597.9457,49.0
1598.5848,66.0
1599.2242,53.0
1599.8639,48.0
1600.5038,59.0
1601.144,33.0
1601.7845,55.0
1602.4253,69.0
1603.0663,45.0
1603.7075,75.0
1604.349,59.0
1604.9907,36.0
1605.6327,52.0
1606.2749,51.0
1606.9174,60.0
1607.5602,43.0
1608.2032,43.0
1608.8466,50.0
1609.4901,64.0
1610.1339,47.0
1610.778,43.0
1611.4222,71.0
1612.0668,42.0
1612.7115,74.0
1613.3567,66.0
1614.0021,37.0
1614.6477,65.0
1615.2936,40.0
1615.9397,57.0
1616.586,72.0
1617.2327,47.0
1617.8795,73.0
1618.5266,73.0
1619.1741,38.0
1619.8218,68.0
1620.4697,65.0
1621.1179,52.0
1621.7664,54.0
1622.415,43.0
1623.064,38.0
1623.7131,65.0
1624.3627,60.0
1625.0125,37.0
1625.6625,65.0
1626.3127,58.0
1626.9633,41.0
1627.614,60.0
1628.265,60.0
1628.9163,48.0
1629.5679,78.0
1630.2197,54.0
1630.8718,61.0
1631.5242,66.0
1632.1768,48.0
1632.8296,59.0
1633.4827,59.0
1634.1361,44.0
1634.7898,71.0
1635.4437,54.0
1636.0979,41.0
1636.7523,68.0
1637.407,43.0
1638.0619,46.0
1638.7172,61.0
1639.3727,61.0
1640.0284,59.0
1640.6844,70.0
1641.3407,65.0
1641.9972,57.0
1642.6539,68.0
1643.311,63.0
1643.9684,48.0
1644.626,108.0
1645.2838,72.0
1645.9419,56.0
1646.6002,83.0
1647.2589,55.0
1647.9178,53.0
1648.577,68.0
1649.2365,55.0
1649.8961,43.0
1650.556,56.0
1651.2163,49.0
1651.8768,59.0
1652.5376,53.0
1653.1986,44.0
1653.8599,60.0
1654.5214,65.0
1655.1832,46.0
1655.8453,59.0
1656.5077,69.0
1657.1703,42.0
1657.8331,51.0
1658.4962,65.0
1659.1597,55.0
1659.8234,56.0
1660.4873,49.0
1661.1515,35.0
1661.8159,76.0
1662.4806,58.0
1663.1456,47.0
1663.8109,57.0
1664.4764,67.0
1665.1422,48.0
1665.8082,63.0
1666.4746,62.0
1667.1412,59.0
1667.8081,55.0
1668.4752,63.0
1669.1426,41.0
1669.8102,52.0
1670.4781,51.0
1671.1464,37.0
1671.8148,55.0
1672.4835,58.0
1673.1525,56.0
1673.8218,75.0
1674.4913,67.0
1675.1611,39.0
1675.8312,55.0
1676.5015,67.0
1677.1721,36.0
1677.843,60.0
1678.5142,59.0
1679.1855,48.0
1679.8572,73.0
1680.5292,52.0
1681.2014,48.0
1681.8739,68.0
1682.5466,60.0
1683.2196,53.0
1683.893,78.0
1684.5665,90.0
1685.2404,55.0
1685.9144,60.0
1686.5887,53.0
1687.2634,50.0
1687.9384,53.0
1688.6135,61.0
1689.289,48.0
1689.9646,44.0
1690.6406,71.0
1691.3169,47.0
1691.9934,46.0
1692.6702,55.0
1693.3473,44.0
1694.0247,51.0
1694.7023,43.0
1695.3801,55.0
1696.0582,50.0
1696.7367,45.0
1697.4154,58.0
1698.0944,47.0
1698.7736,60.0
1699.4531,64.0
1700.1329,34.0
1700.813,71.0
1701.4933,71.0
1702.1738,57.0
1702.8547,53.0
1703.5359,63.0
1704.2173,55.0
1704.8989,61.0
1705.5809,91.0
1706.2632,58.0
1706.9457,59.0
1707.6284,62.0
1708.3115,58.0
1708.9949,47.0
1709.6785,54.0
1710.3623,58.0
1711.0465,49.0
1711.731,55.0
1712.4156,68.0
1713.1006,48.0
1713.7858,56.0
1714.4713,48.0
1715.1571,37.0
1715.8431,57.0
1716.5294,50.0
1717.2161,50.0
1717.903,48.0
1718.5901,63.0
1719.2775,39.0
1719.9652,48.0
1720.6532,45.0
1721.3414,49.0
1722.0299,42.0
1722.7188,68.0
1723.4078,61.0
1724.0972,48.0
1724.7869,60.0
1725.4768,60.0
1726.167,47.0
1726.8574,64.0
1727.5482,84.0
1728.2393,66.0
1728.9305,73.0
1729.6221,66.0
1730.314,51.0
1731.0061,49.0
1731.6985,70.0
1732.3911,56.0
1733.0841,41.0
1733.7773,65.0
1734.4708,43.0
1735.1647,43.0
1735.8588,61.0
1736.5531,60.0
1737.2477,47.0
1737.9426,54.0
1738.6378,47.0
1739.3333,37.0
1740.0289,60.0
1740.725,71.0
1741.4213,60.0
1742.1178,42.0
1742.8147,52.0
1743.5118,59.0
1744.2092,43.0
1744.9069,57.0
1745.6049,62.0
1746.3031,33.0
1747.0016,44.0
1747.7004,58.0
1748.3995,62.0
1749.0989,39.0
1749.7985,54.0
1750.4984,63.0
1751.1986,47.0
1751.899,53.0
1752.5999,72.0
1753.3009,39.0
1754.0022,44.0
1754.7039,60.0
1755.4058,39.0
1756.1079,41.0
1756.8103,66.0
1757.5131,80.0
1758.2161,55.0
1758.9193,55.0
1759.6229,72.0
1760.3268,42.0
1761.0309,41.0
1761.7354,56.0
1762.4401,68.0
1763.145,49.0
1763.8502,64.0
1764.5558,65.0
1765.2616,51.0
1765.9677,61.0
1766.6741,68.0
1767.3807,59.0
1768.0876,60.0
1768.7949,63.0
1769.5024,66.0
1770.2102,36.0
1770.9183,51.0
1771.6267,81.0
1772.3353,38.0
1773.0443,53.0
1773.7535,55.0
1774.463,62.0
1775.1729,38.0
1775.8829,45.0
1776.5933,72.0
1777.304,51.0
1778.0149,44.0
1778.7261,48.0
1779.4376,52.0
1780.1494,37.0
1780.8615,44.0
1781.5739,66.0
1782.2865,42.0
1782.9994,50.0
1783.7126,65.0
1784.4261,52.0
1785.1399,49.0
1785.854,58.0
1786.5684,59.0
1787.283,61.0
1787.9979,54.0
1788.7131,57.0
1789.4286,52.0
1790.1444,48.0
1790.8605,58.0
1791.5768,71.0
1792.2935,50.0
1793.0104,39.0
1793.7275,66.0
1794.4451,61.0
1795.1628,40.0
1795.8809,44.0
1796.5992,59.0
1797.3179,53.0
1798.0367,46.0
1798.756,64.0
1799.4755,49.0
1800.1953,44.0
1800.9154,62.0
1801.6357,60.0
1802.3564,47.0
1803.0774,43.0
1803.7986,56.0
1804.5201,61.0
1805.242,59.0
1805.964,91.0
1806.6864,136.0
1807.409,64.0
1808.1321,56.0
1808.8553,96.0
1809.5789,67.0
1810.3027,56.0
1811.0269,69.0
1811.7512,60.0
1812.476,51.0
1813.2009,47.0
1813.9261,55.0
1814.6517,64.0
1815.3776,62.0
1816.1038,61.0
1816.8302,67.0
1817.5569,73.0
1818.2839,46.0
1819.0112,57.0
1819.7389,65.0
1820.4668,54.0
1821.195,47.0
1821.9235,50.0
1822.6522,63.0
1823.3812,44.0
1824.1106,26.0
1824.8402,54.0
1825.5702,64.0
1826.3004,31.0
1827.0309,45.0
1827.7617,83.0
1828.4928,70.0
1829.2242,38.0
1829.9559,44.0
1830.6879,61.0
1831.4202,45.0
1832.1527,51.0
1832.8856,56.0
1833.6188,47.0
1834.3522,49.0
1835.0859,49.0
1835.82,55.0
1836.5543,69.0
1837.289,58.0
1838.0238,57.0
1838.759,54.0
1839.4945,65.0
1840.2303,57.0
1840.9664,70.0
1841.7028,67.0
1842.4395,68.0
1843.1764,46.0
1843.9137,54.0
1844.6512,58.0
1845.3892,44.0
1846.1273,34.0
1846.8657,59.0
1847.6045,43.0
1848.3435,43.0
1849.0829,39.0
1849.8225,60.0
1850.5624,54.0
1851.3026,46.0
1852.0431,50.0
1852.7839,68.0
1853.525,57.0
1854.2665,50.0
1855.0082,65.0
1855.7501,53.0
1856.4924,72.0
1857.235,56.0
1857.9779,87.0
1858.7211,107.0
1859.4646,83.0
1860.2084,61.0
1860.9525,77.0
1861.6969,68.0
1862.4415,48.0
1863.1865,49.0
1863.9318,54.0
1864.6774,66.0
1865.4232,55.0
1866.1694,46.0
1866.9159,44.0
1867.6627,58.0
1868.4098,47.0
1869.1571,53.0
1869.9048,46.0
1870.6527,56.0
1871.401,58.0
1872.1495,41.0
1872.8984,72.0
1873.6476,66.0
1874.3971,56.0
1875.1469,44.0
1875.8969,71.0
1876.6472,70.0
1877.3978,66.0
1878.1488,49.0
1878.9,68.0
1879.6516,73.0
1880.4034,55.0
1881.1556,39.0
1881.9081,45.0
1882.6609,51.0
1883.414,46.0
1884.1674,47.0
1884.921,117.0
1885.675,94.0
1886.4293,91.0
1887.1838,54.0
1887.9387,62.0
1888.6938,63.0
1889.4493,59.0
1890.2051,43.0
1890.9612,58.0
1891.7175,62.0
1892.4742,62.0
1893.2312,39.0
1893.9885,42.0
1894.7461,58.0
1895.504,56.0
1896.2622,49.0
1897.0208,82.0
1897.7795,80.0
1898.5387,84.0
1899.2981,65.0
1900.0579,43.0
1900.8179,56.0
1901.5782,52.0
1902.3389,46.0
1903.0999,51.0
1903.8611,59.0
1904.6227,72.0
1905.3845,43.0
1906.1467,43.0
1906.9092,75.0
1907.672,70.0
1908.435,48.0
1909.1985,42.0
1909.9622,49.0
1910.7262,61.0
1911.4905,69.0
1912.2551,44.0
1913.02,60.0
1913.7853,295.0
1914.5508,219.0
1915.3167,158.0
1916.0828,181.0
1916.8492,125.0
1917.616,75.0
1918.383,60.0
1919.1504,58.0
1919.9181,70.0
1920.686,59.0
1921.4543,62.0
1922.2229,40.0
1922.9918,55.0
1923.761,69.0
1924.5305,51.0
1925.3003,43.0
1926.0704,42.0
1926.8408,66.0
1927.6116,48.0
1928.3826,45.0
1929.1539,45.0
1929.9255,60.0
1930.6975,55.0
1931.4698,47.0
1932.2424,50.0
1933.0154,39.0
1933.7886,46.0
1934.5621,60.0
1935.3359,53.0
1936.1101,64.0
1936.8845,61.0
1937.6593,66.0
1938.4343,45.0
1939.2097,37.0
1939.9854,65.0
1940.7614,57.0
1941.5376,65.0
1942.3142,50.0
1943.0912,57.0
1943.8684,56.0
1944.646,54.0
1945.4238,50.0
1946.202,38.0
1946.9805,42.0
1947.7593,47.0
1948.5383,52.0
1949.3177,44.0
1950.0975,59.0
1950.8776,59.0
1951.658,51.0
1952.4386,37.0
1953.2196,45.0
1954.0009,58.0
1954.7825,55.0
1955.5643,52.0
1956.3466,41.0
1957.1292,38.0
1957.912,49.0
1958.6952,47.0
1959.4786,57.0
1960.2625,34.0
1961.0465,53.0
1961.8309,47.0
1962.6157,49.0
1963.4008,51.0
1964.1862,37.0
1964.9718,53.0
1965.7578,40.0
1966.5441,58.0
1967.3307,48.0
1968.1177,53.0
1968.9049,51.0
1969.6925,62.0
1970.4803,56.0
1971.2686,48.0
1972.057,51.0
1972.8458,49.0
1973.635,49.0
1974.4244,45.0
1975.2142,43.0
1976.0043,41.0
1976.7947,52.0
1977.5854,48.0
1978.3765,41.0
1979.1678,39.0
1979.9595,53.0
1980.7515,46.0
1981.5438,57.0
1982.3364,44.0
1983.1294,50.0
1983.9226,48.0
1984.7162,41.0
1985.5101,36.0
1986.3043,45.0
1987.0989,33.0
1987.8937,57.0
1988.6888,50.0
1989.4844,47.0
1990.2802,49.0
1991.0763,54.0
1991.8727,42.0
1992.6694,45.0
1993.4666,59.0
1994.2639,54.0
1995.0616,57.0
1995.8596,66.0
1996.658,63.0
1997.4567,59.0
1998.2556,49.0
1999.0549,44.0
1999.8546,55.0
2000.6545,38.0
2001.4548,28.0
2002.2554,42.0
2003.0563,50.0
2003.8575,34.0
2004.659,50.0
2005.4609,55.0
2006.2631,36.0
2007.0656,43.0
2007.8684,43.0
2008.6715,51.0
2009.475,56.0
2010.2788,54.0
2011.0829,60.0
2011.8873,94.0
2012.6921,91.0
2013.4972,81.0
2014.3026,59.0
2015.1083,59.0
2015.9143,65.0
2016.7207,65.0
2017.5273,39.0
2018.3344,53.0
2019.1417,36.0
2019.9493,40.0
2020.7573,43.0
2021.5657,48.0
2022.3743,54.0
2023.1832,51.0
2023.9926,37.0
2024.8021,42.0
2025.612,52.0
2026.4224,43.0
2027.2329,48.0
2028.0438,54.0
2028.855,63.0
2029.6665,70.0
2030.4784,63.0
2031.2905,55.0
2032.103,57.0
2032.9159,49.0
2033.729,75.0
2034.5425,60.0
2035.3563,53.0
2036.1704,52.0
2036.9849,47.0
2037.7997,48.0
2038.6147,63.0
2039.4302,42.0
2040.246,44.0
2041.062,40.0
2041.8784,47.0
2042.6952,55.0
2043.5123,56.0
2044.3297,50.0
2045.1475,52.0
2045.9656,45.0
2046.7839,48.0
2047.6027,44.0
2048.4216,51.0
2049.241,40.0
2050.0605,52.0
2050.8806,46.0
2051.701,66.0
2052.5217,60.0
2053.3428,46.0
2054.164,42.0
2054.9858,49.0
2055.8079,64.0
2056.6301,58.0
2057.453,52.0
2058.276,35.0
2059.099,42.0
2059.9229,63.0
2060.7468,49.0
2061.571,44.0
2062.3958,51.0
2063.2207,40.0
2064.046,52.0
2064.8716,54.0
2065.6975,67.0
2066.5237,65.0
2067.3503,46.0
2068.1772,41.0
2069.0046,59.0
2069.8323,57.0
2070.6602,51.0
2071.4885,42.0
2072.3171,41.0
2073.146,41.0
2073.9753,41.0
2074.805,51.0
2075.6348,38.0
2076.465,46.0
2077.2957,40.0
2078.1265,40.0
2078.9578,45.0
2079.7893,53.0
2080.6213,52.0
2081.4536,54.0
2082.2861,50.0
2083.1191,69.0
2083.9524,77.0
2084.786,75.0
2085.6199,62.0
2086.454,43.0
2087.2886,41.0
2088.1235,41.0
2088.9587,40.0
2089.7944,51.0
2090.6304,41.0
2091.4666,64.0
2092.3032,39.0
2093.1401,42.0
2093.9773,38.0
2094.815,51.0
2095.6528,50.0
2096.4912,44.0
2097.3298,52.0
2098.1687,53.0
2099.008,48.0
2099.8477,55.0
2100.6875,47.0
2101.5278,37.0
2102.3684,51.0
2103.2095,48.0
2104.0508,39.0
2104.8923,56.0
2105.7344,48.0
2106.5767,56.0
2107.4192,36.0
2108.2622,44.0
2109.1055,45.0
2109.9492,49.0
2110.7932,47.0
2111.6375,62.0
2112.4822,39.0
2113.3271,42.0
2114.1724,47.0
2115.018,52.0
2115.864,42.0
2116.7104,46.0
2117.5571,45.0
2118.404,26.0
2119.2515,45.0
2120.099,44.0
2120.9473,36.0
2121.7957,53.0
2122.6443,43.0
2123.4934,49.0
2124.3428,35.0
2125.1926,43.0
2126.0427,58.0
2126.893,45.0
2127.744,57.0
2128.595,51.0
2129.4463,48.0
2130.298,36.0
2131.1501,40.0
2132.0027,44.0
2132.8555,27.0
2133.7085,53.0
2134.562,57.0
2135.4158,40.0
2136.27,65.0
2137.1245,46.0
2137.9792,51.0
2138.8345,57.0
2139.69,47.0
2140.546,43.0
2141.402,60.0
2142.2585,70.0
2143.1155,89.0
2143.9727,77.0
2144.8303,67.0
2145.6882,65.0
2146.5464,34.0
2147.405,52.0
2148.264,46.0
2149.1233,58.0
2149.983,53.0
2150.843,50.0
2151.7034,53.0
2152.564,59.0
2153.425,41.0
2154.2864,51.0
2155.1482,45.0
2156.0103,50.0
2156.8726,43.0
2157.7354,48.0
2158.5984,49.0
2159.462,47.0
2160.3257,45.0
2161.1897,54.0
2162.0542,53.0
2162.919,56.0
2163.7842,53.0
2164.6497,55.0
2165.5156,40.0
2166.3818,58.0
2167.2483,45.0
2168.1152,65.0
2168.9824,65.0
2169.85,68.0
2170.718,71.0
2171.5864,55.0
2172.455,58.0
2173.324,47.0
2174.1934,41.0
2175.063,55.0
2175.933,42.0
2176.8035,61.0
2177.674,61.0
2178.5452,69.0
2179.4165,52.0
2180.2883,56.0
2181.1604,58.0
2182.033,45.0
2182.9058,52.0
2183.7788,70.0
2184.6523,43.0
2185.5261,47.0
2186.4004,44.0
2187.275,53.0
2188.15,43.0
2189.0251,51.0
2189.9006,54.0
2190.7766,53.0
2191.6528,48.0
2192.5295,47.0
2193.4065,50.0
2194.284,70.0
2195.1616,62.0
2196.0398,69.0
2196.9182,62.0
2197.7969,52.0
2198.676,55.0
2199.5554,58.0
2200.4353,59.0
2201.3154,50.0
2202.196,41.0
2203.077,52.0
2203.9583,52.0
2204.8398,65.0
2205.7217,53.0
2206.604,62.0
2207.4866,43.0
2208.3696,34.0
2209.253,58.0
2210.1367,59.0
2211.0208,58.0
2211.9053,61.0
2212.79,66.0
2213.675,54.0
2214.5605,49.0
2215.4463,56.0
2216.3325,52.0
2217.219,57.0
2218.106,62.0
2218.9932,56.0
2219.8809,61.0
2220.7688,42.0
2221.6572,54.0
2222.546,64.0
2223.4348,43.0
2224.3242,49.0
2225.2139,38.0
2226.104,53.0
2226.9944,42.0
2227.8853,43.0
2228.7764,42.0
2229.668,47.0
2230.5598,61.0
2231.4521,61.0
2232.3447,54.0
2233.2375,45.0
2234.1309,61.0
2235.0244,38.0
2235.9185,37.0
2236.8127,45.0
2237.7075,69.0
2238.6025,49.0
2239.498,50.0
2240.3938,43.0
2241.29,50.0
2242.1865,69.0
2243.0835,50.0
2243.9807,57.0
2244.8784,58.0
2245.7764,57.0
2246.6746,48.0
2247.5732,52.0
2248.4722,49.0
2249.3716,49.0
2250.2712,57.0
2251.1714,58.0
2252.0718,66.0
2252.9727,57.0
2253.8738,57.0
2254.7754,50.0
2255.6772,49.0
2256.5796,54.0
2257.4822,42.0
2258.3853,58.0
2259.2886,51.0
2260.1924,61.0
2261.0964,45.0
2262.001,50.0
2262.9058,65.0
2263.811,53.0
2264.7166,47.0
2265.6226,57.0
2266.5288,49.0
2267.4353,46.0
2268.3423,45.0
2269.2495,40.0
2270.1572,48.0
2271.0652,51.0
2271.9736,42.0
2272.8823,49.0
2273.7915,54.0
2274.701,76.0
2275.6108,105.0
2276.521,79.0
2277.4316,78.0
2278.3425,66.0
2279.254,50.0
2280.1655,62.0
2281.0776,58.0
2281.99,55.0
2282.9028,52.0
2283.816,50.0
2284.7295,62.0
2285.6433,34.0
2286.5576,45.0
2287.4722,45.0
2288.3872,42.0
2289.3025,33.0
2290.2183,52.0
2291.1343,41.0
2292.0508,41.0
2292.9675,61.0
2293.8848,65.0
2294.8022,43.0
2295.7202,46.0
2296.6384,44.0
2297.5571,73.0
2298.476,50.0
2299.3955,54.0
2300.3152,59.0
2301.2354,50.0
2302.1558,50.0
2303.0767,62.0
2303.9978,61.0
2304.9194,51.0
2305.8413,56.0
2306.7637,70.0
2307.6863,58.0
2308.6094,55.0
2309.5327,57.0
2310.4565,61.0
2311.3806,41.0
2312.3052,45.0
2313.23,50.0
2314.1553,63.0
2315.081,51.0
2316.007,56.0
2316.9336,54.0
2317.8604,52.0
2318.7876,54.0
2319.715,55.0
2320.643,76.0
2321.5713,68.0
2322.5,41.0
2323.429,53.0
2324.3584,40.0
2325.288,58.0
2326.2183,61.0
2327.1487,54.0
2328.0796,61.0
2329.0107,54.0
2329.9424,61.0
2330.8743,69.0
2331.8066,60.0
2332.7393,45.0
2333.6724,47.0
2334.6057,54.0
2335.5396,48.0
2336.4739,51.0
2337.4084,62.0
2338.3435,37.0
2339.2788,47.0
2340.2146,54.0
2341.1506,42.0
2342.0872,56.0
2343.024,58.0
2343.9612,52.0
2344.8987,62.0
2345.8367,44.0
2346.775,61.0
2347.7136,51.0
2348.6526,54.0
2349.592,55.0
2350.532,49.0
2351.4722,53.0
2352.4128,58.0
2353.3538,51.0
2354.2952,48.0
2355.2368,62.0
2356.179,64.0
2357.1213,54.0
2358.0642,44.0
2359.0073,51.0
2359.951,50.0
2360.895,51.0
2361.8394,63.0
2362.7842,39.0
2363.7292,46.0
2364.6748,51.0
2365.6206,45.0
2366.567,65.0
2367.5134,34.0
2368.4604,42.0
2369.4077,54.0
2370.3555,54.0
2371.3037,43.0
2372.2522,47.0
2373.2012,48.0
2374.1504,48.0
2375.1,49.0
2376.05,41.0
2377.0005,46.0
2377.9512,58.0
2378.9023,47.0
2379.854,56.0
2380.806,52.0
2381.7583,56.0
2382.711,49.0
2383.664,55.0
2384.6174,49.0
2385.5713,51.0
2386.5256,65.0
2387.4802,61.0
2388.4353,50.0
2389.3906,61.0
2390.3464,49.0
2391.3025,64.0
2392.259,59.0
2393.2158,51.0
2394.173,63.0
2395.1309,45.0
2396.0889,43.0
2397.0474,52.0
2398.006,54.0
2398.9653,48.0
2399.9248,57.0
2400.8848,47.0
2401.8452,41.0
2402.806,47.0
2403.767,54.0
2404.7285,66.0
2405.6904,47.0
2406.6526,63.0
2407.6152,46.0
2408.5784,44.0
2409.5417,33.0
2410.5056,63.0
2411.4697,55.0
2412.4343,62.0
2413.3994,52.0
2414.3647,49.0
2415.3306,53.0
2416.2966,48.0
2417.2632,64.0
2418.23,51.0
2419.1973,39.0
2420.165,48.0
2421.133,54.0
2422.1016,51.0
2423.0703,57.0
2424.0396,54.0
2425.0093,39.0
2425.9792,52.0
2426.9497,53.0
2427.9204,54.0
2428.8916,46.0
2429.863,69.0
2430.835,58.0
2431.8074,49.0
2432.78,53.0
2433.7532,51.0
2434.7266,44.0
2435.7004,49.0
2436.6748,54.0
2437.6494,33.0
2438.6245,51.0
2439.5999,41.0
2440.5757,40.0
2441.552,34.0
2442.5286,46.0
2443.5056,47.0
2444.483,39.0
2445.4607,43.0
2446.439,40.0
2447.4175,52.0
2448.3965,55.0
2449.3757,58.0
2450.3555,59.0
2451.3357,52.0
2452.3162,55.0
2453.297,59.0
2454.2783,52.0
2455.26,64.0
2456.2422,35.0
2457.2246,54.0
2458.2075,54.0
2459.191,44.0
2460.1746,40.0
2461.1587,54.0
2462.143,40.0
2463.128,50.0
2464.1133,51.0
2465.0989,54.0
2466.085,57.0
2467.0713,44.0
2468.058,61.0
2469.0454,47.0
2470.033,49.0
2471.021,52.0
2472.0095,39.0
2472.9983,51.0
2473.9875,44.0
2474.977,61.0
2475.967,56.0
2476.9575,57.0
2477.9482,54.0
2478.9395,62.0
2479.931,55.0
2480.9229,56.0
2481.9153,50.0
2482.908,48.0
2483.9011,52.0
2484.8948,47.0
2485.8887,68.0
2486.883,49.0
2487.878,60.0
2488.873,60.0
2489.8687,46.0
2490.8645,44.0
2491.8608,67.0
2492.8577,52.0
2493.8547,60.0
2494.8523,65.0
2495.8503,54.0
2496.8486,59.0
2497.8474,60.0
2498.8464,60.0
2499.846,44.0
2500.846,62.0
2501.8462,52.0
2502.847,40.0
2503.8481,60.0
2504.8496,55.0
2505.8516,49.0
2506.854,53.0
2507.8567,38.0
2508.8599,49.0
2509.8635,52.0
2510.8674,49.0
2511.8718,57.0
2512.8765,47.0
2513.8816,49.0
2514.8872,63.0
2515.893,63.0
2516.8994,52.0
2517.9062,55.0
2518.9133,61.0
2519.921,55.0
2520.929,46.0
2521.9373,52.0
2522.946,48.0
2523.9553,52.0
2524.9648,48.0
2525.9749,55.0
2526.9854,57.0
2527.996,48.0
2529.0073,48.0
2530.019,37.0
2531.031,45.0
2532.0435,61.0
2533.0562,47.0
2534.0693,57.0
2535.083,52.0
2536.097,51.0
2537.1113,54.0
2538.1262,60.0
2539.1414,57.0
2540.157,50.0
2541.173,42.0
2542.1895,52.0
2543.2063,36.0
2544.2236,39.0
2545.2412,55.0
2546.2593,41.0
2547.2778,57.0
2548.2966,61.0
2549.316,56.0
2550.3357,56.0
2551.3557,51.0
2552.3762,54.0
2553.3972,47.0
2554.4185,44.0
2555.4402,49.0
2556.4624,44.0
2557.485,42.0
2558.508,54.0
2559.5315,52.0
2560.5554,58.0
2561.5796,54.0
2562.6042,79.0
2563.6294,68.0
2564.6548,83.0
2565.6807,61.0
2566.707,75.0
2567.7336,58.0
2568.7607,56.0
2569.7883,55.0
2570.8162,60.0
2571.8445,54.0
2572.8733,36.0
2573.9023,51.0
2574.932,56.0
2575.962,58.0
2576.9922,59.0
2578.023,56.0
2579.0542,54.0
2580.086,51.0
2581.118,57.0
2582.1504,52.0
2583.1833,44.0
2584.2166,46.0
2585.2502,70.0
2586.2844,45.0
2587.3188,66.0
2588.3538,40.0
2589.3892,55.0
2590.4248,55.0
2591.461,55.0
2592.4976,53.0
2593.5347,68.0
2594.572,71.0
2595.6099,48.0
2596.6482,48.0
2597.6868,54.0
2598.7258,57.0
2599.7654,46.0
2600.8052,53.0
2601.8455,58.0
2602.8862,49.0
2603.9275,64.0
2604.969,64.0
2606.011,47.0
2607.0535,67.0
2608.0962,65.0
2609.1394,60.0
2610.183,70.0
2611.2273,66.0
2612.2717,53.0
2613.3167,44.0
2614.362,53.0
2615.4077,56.0
2616.4539,54.0
2617.5005,68.0
2618.5476,53.0
2619.595,67.0
2620.6428,61.0
2621.6912,68.0
2622.7397,75.0
2623.7888,72.0
2624.8384,76.0
2625.8884,50.0
2626.9387,53.0
2627.9895,49.0
2629.0408,47.0
2630.0923,50.0
2631.1443,58.0
2632.1968,44.0
2633.2498,58.0
2634.303,67.0
2635.3567,46.0
2636.411,48.0
2637.4653,50.0
2638.5203,63.0
2639.5757,58.0
2640.6316,62.0
2641.6877,56.0
2642.7444,61.0
2643.8015,61.0
2644.8591,56.0
2645.917,55.0
2646.9753,58.0
2648.0342,78.0
2649.0935,52.0
2650.153,69.0
2651.2131,60.0
2652.2737,59.0
2653.3345,51.0
2654.3958,38.0
2655.4575,57.0
2656.5198,59.0
2657.5823,45.0
2658.6453,55.0
2659.7087,49.0
2660.7727,53.0
2661.837,57.0
2662.9016,58.0
2663.9668,68.0
2665.0325,102.0
2666.0984,87.0
2667.1648,84.0
2668.2317,62.0
2669.299,67.0
2670.3667,62.0
2671.4348,40.0
2672.5034,50.0
2673.5725,41.0
2674.6418,63.0
2675.7117,61.0
2676.782,58.0
2677.8528,65.0
2678.9238,55.0
2679.9954,54.0
2681.0674,62.0
2682.14,70.0
2683.2126,65.0
2684.286,61.0
2685.3596,57.0
2686.4338,61.0
2687.5083,51.0
2688.5833,67.0
2689.6587,60.0
2690.7346,53.0
2691.8108,51.0
2692.8875,63.0
2693.9646,64.0
2695.0422,51.0
2696.1204,51.0
2697.1987,62.0
2698.2776,72.0
2699.357,73.0
2700.4368,70.0
2701.5168,67.0
2702.5974,60.0
2703.6785,50.0
2704.76,66.0
2705.8418,54.0
2706.924,61.0
2708.0068,49.0
2709.09,65.0
2710.1738,58.0
2711.2578,65.0
2712.3423,64.0
2713.4272,70.0
2714.5127,58.0
2715.5984,71.0
2716.6846,53.0
2717.7712,56.0
2718.8584,60.0
2719.946,41.0
2721.034,59.0
2722.1223,69.0
2723.2112,92.0
2724.3005,65.0
2725.3901,71.0
2726.4802,37.0
2727.5708,63.0
2728.6619,61.0
2729.7534,96.0
2730.8452,101.0
2731.9375,78.0
2733.0303,60.0
2734.1235,63.0
2735.2173,169.0
2736.3113,196.0
2737.4058,155.0
2738.5007,61.0
2739.5962,70.0
2740.6921,57.0
2741.7883,51.0
2742.885,69.0
2743.9822,60.0
2745.0798,62.0
2746.178,74.0
2747.2764,74.0
2748.3752,75.0
2749.4746,57.0
2750.5745,67.0
2751.6748,67.0
2752.7754,48.0
2753.8765,57.0
2754.978,57.0
2756.08,57.0
2757.1826,52.0
2758.2854,57.0
2759.3887,46.0
2760.4924,53.0
2761.5967,50.0
2762.7014,87.0
2763.8064,65.0
2764.9119,61.0
2766.0178,67.0
2767.1243,52.0
2768.2312,38.0
2769.3384,55.0
2770.446,61.0
2771.5542,47.0
2772.6628,51.0
2773.772,56.0
2774.8816,54.0
2775.9915,57.0
2777.1018,74.0
2778.2126,73.0
2779.324,61.0
2780.4358,55.0
2781.5479,76.0
2782.6604,60.0
2783.7734,61.0
2784.887,47.0
2786.001,53.0
2787.1155,54.0
2788.2302,50.0
2789.3455,52.0
2790.4612,68.0
2791.5774,92.0
2792.694,117.0
2793.8113,148.0
2794.9287,163.0
2796.0466,126.0
2797.165,129.0
2798.284,114.0
2799.4033,117.0
2800.5232,82.0
2801.6433,86.0
2802.764,90.0
2803.885,108.0
2805.0066,85.0
2806.1287,86.0
2807.2512,120.0
2808.374,131.0
2809.4973,107.0
2810.621,107.0
2811.7454,93.0
2812.87,100.0
2813.9954,97.0
2815.1208,103.0
2816.2468,74.0
2817.3733,86.0
2818.5002,97.0
2819.6277,101.0
2820.7556,113.0
2821.884,73.0
2823.0127,95.0
2824.1418,89.0
2825.2715,85.0
2826.4016,90.0
2827.5322,98.0
2828.6633,111.0
2829.7947,87.0
2830.9265,90.0
2832.0588,101.0
2833.1917,103.0
2834.325,87.0
2835.4587,108.0
2836.593,100.0
2837.7275,99.0
2838.8625,89.0
2839.998,84.0
2841.134,76.0
2842.2705,78.0
2843.4075,90.0
2844.545,109.0
2845.6829,91.0
2846.821,95.0
2847.9597,111.0
2849.0989,89.0
2850.2385,94.0
2851.3787,99.0
2852.5193,106.0
2853.6604,112.0
2854.8018,84.0
2855.9436,87.0
2857.086,157.0
2858.2288,144.0
2859.372,102.0
2860.5159,103.0
2861.6602,75.0
2862.805,90.0
2863.95,97.0
2865.0955,98.0
2866.2415,97.0
2867.388,123.0
2868.535,96.0
2869.6824,86.0
2870.8303,113.0
2871.9788,80.0
2873.1274,101.0
2874.2766,103.0
2875.4263,93.0
2876.5764,86.0
2877.727,94.0
2878.8782,95.0
2880.0298,87.0
2881.182,86.0
2882.3345,84.0
2883.4873,89.0
2884.6406,90.0
2885.7944,89.0
2886.9487,87.0
2888.1035,79.0
2889.2588,92.0
2890.4146,116.0
2891.5708,117.0
2892.7275,107.0
2893.8845,82.0
2895.042,86.0
2896.2,76.0
2897.3584,86.0
2898.5173,107.0
2899.6768,86.0
2900.8367,95.0
2901.997,77.0
2903.158,86.0
2904.3193,97.0
2905.481,80.0
2906.643,93.0
2907.8057,122.0
2908.9688,116.0
2910.1323,136.0
2911.2964,120.0
2912.461,100.0
2913.626,93.0
2914.7915,89.0
2915.9575,95.0
2917.124,94.0
2918.2908,81.0
2919.458,105.0
2920.6257,89.0
2921.794,118.0
2922.9626,111.0
2924.1318,116.0
2925.3015,104.0
2926.4717,120.0
2927.6423,82.0
2928.8135,95.0
2929.985,108.0
2931.157,88.0
2932.3293,87.0
2933.5022,89.0
2934.6755,100.0
2935.8494,89.0
2937.0237,91.0
2938.1985,112.0
2939.3738,92.0
2940.5496,129.0
2941.7258,79.0
2942.9026,114.0
2944.0798,95.0
2945.2576,113.0
2946.4358,108.0
2947.6143,108.0
2948.7932,130.0
2949.9727,142.0
2951.1526,120.0
2952.333,110.0
2953.514,105.0
2954.6953,101.0
2955.8772,87.0
2957.0596,96.0
2958.2424,96.0
2959.4258,103.0
2960.6096,115.0
2961.794,85.0
2962.9788,97.0
2964.164,83.0
2965.3496,80.0
2966.5356,102.0
2967.7222,107.0
2968.9092,107.0
2970.0967,79.0
2971.2847,108.0
2972.4731,100.0
2973.662,93.0
2974.8516,101.0
2976.0415,110.0
2977.232,86.0
2978.4229,89.0
2979.6143,103.0
2980.8062,96.0
2981.9985,100.0
2983.1914,91.0
2984.3848,92.0
2985.5786,91.0
2986.773,99.0
2987.9678,89.0
2989.1628,96.0
2990.3584,84.0
2991.5544,81.0
2992.751,76.0
2993.948,81.0
2995.1455,92.0
2996.3435,99.0
2997.542,88.0
2998.741,85.0
2999.9404,79.0
3001.1404,85.0
3002.3408,94.0
3003.5417,85.0
3004.7432,77.0
3005.945,79.0
3007.1475,99.0
3008.3503,109.0
3009.5537,106.0
3010.7576,90.0
3011.962,91.0
3013.1667,97.0
3014.372,86.0
3015.578,98.0
3016.7842,97.0
3017.991,84.0
3019.1982,90.0
3020.406,103.0
3021.6143,106.0
3022.823,109.0
3024.0322,99.0
3025.242,94.0
3026.4521,107.0
3027.6628,118.0
3028.874,87.0
3030.0857,78.0
3031.2976,107.0
3032.51,94.0
3033.723,86.0
3034.9363,78.0
3036.1501,115.0
3037.3645,104.0
3038.5793,126.0
3039.7947,92.0
3041.0105,88.0
3042.2268,89.0
3043.4436,95.0
3044.661,108.0
3045.8787,99.0
3047.097,83.0
3048.3157,70.0
3049.535,92.0
3050.7546,98.0
3051.9749,91.0
3053.1956,83.0
3054.4167,116.0
3055.6384,95.0
3056.8606,109.0
3058.0833,82.0
3059.3064,108.0
3060.53,99.0
3061.7542,100.0
3062.9788,100.0
3064.2039,89.0
3065.4294,99.0
3066.6555,94.0
3067.882,100.0
3069.1091,93.0
3070.3367,97.0
3071.5647,96.0
3072.7932,96.0
3074.0222,85.0
3075.2517,83.0
3076.4817,80.0
3077.7124,87.0
3078.9436,92.0
3080.1753,107.0
3081.4075,88.0
3082.6401,88.0
3083.8733,107.0
3085.107,78.0
3086.341,99.0
3087.5757,97.0
3088.8108,88.0
3090.0464,82.0
3091.2825,99.0
3092.519,83.0
3093.756,96.0
3094.9937,95.0
3096.2317,77.0
3097.4702,95.0
3098.7092,88.0
3099.9487,83.0
3101.1887,78.0
3102.4292,103.0
3103.6702,105.0
3104.9116,103.0
3106.1536,105.0
3107.396,113.0
3108.639,106.0
3109.8823,106.0
3111.1262,96.0
3112.3706,103.0
3113.6155,95.0
3114.8608,90.0
3116.1067,87.0
3117.353,92.0
3118.5999,87.0
3119.8474,106.0
3121.0955,76.0
3122.344,97.0
3123.593,103.0
3124.8425,113.0
3126.0925,79.0
3127.343,105.0
3128.594,99.0
3129.8455,93.0
3131.0974,121.0
3132.3499,95.0
3133.6028,93.0
3134.8562,81.0
3136.11,102.0
3137.3645,88.0
3138.6194,107.0
3139.8748,80.0
3141.1306,82.0
3142.387,97.0
3143.6438,92.0
3144.9014,105.0
3146.1594,130.0
3147.418,98.0
3148.677,97.0
3149.9365,104.0
3151.1965,105.0
3152.457,111.0
3153.718,117.0
3154.9795,91.0
3156.2415,99.0
3157.504,118.0
3158.7668,89.0
3160.0303,79.0
3161.2942,107.0
3162.5586,92.0
3163.8237,101.0
3165.0894,84.0
3166.3555,100.0
3167.622,94.0
3168.8892,88.0
3170.1567,113.0
3171.4248,96.0
3172.6934,110.0
3173.9624,90.0
3175.232,80.0
3176.502,103.0
3177.7725,101.0
3179.0435,87.0
3180.3152,94.0
3181.5874,92.0
3182.86,78.0
3184.1333,109.0
3185.407,110.0
3186.6812,113.0
3187.9558,121.0
3189.231,109.0
3190.5066,103.0
3191.7827,90.0
3193.0593,104.0
3194.3367,113.0
3195.6145,125.0
3196.8928,101.0
3198.1716,81.0
3199.451,105.0
3200.7307,88.0
3202.011,97.0
3203.2917,107.0
3204.573,123.0
3205.8547,108.0
3207.137,84.0
3208.42,105.0
3209.7034,101.0
3210.9873,106.0
3212.2717,85.0
3213.5566,94.0
3214.842,102.0
3216.128,101.0
3217.4143,127.0
3218.7012,110.0
3219.9888,103.0
3221.2769,102.0
3222.5654,96.0
3223.8545,105.0
3225.144,95.0
3226.434,108.0
3227.7246,100.0
3229.0156,100.0
3230.3071,90.0
3231.5994,94.0
3232.892,92.0
3234.1853,73.0
3235.479,95.0
3236.7732,103.0
3238.0679,116.0
3239.363,82.0
3240.6587,104.0
3241.9548,96.0
3243.2517,100.0
3244.549,95.0
3245.847,110.0
3247.1453,95.0
3248.444,78.0
3249.7434,84.0
3251.0432,102.0
3252.3438,90.0
3253.6448,96.0
3254.9463,88.0
3256.2483,102.0
3257.5508,104.0
3258.8538,116.0
3260.1572,87.0
3261.4612,88.0
3262.7659,105.0
3264.071,81.0
3265.3767,112.0
3266.6829,91.0
3267.9895,88.0
3269.2966,94.0
3270.6042,106.0
3271.9126,88.0
3273.2214,96.0
3274.5308,108.0
3275.8406,102.0
3277.151,93.0
3278.4617,98.0
3279.773,122.0
3281.085,96.0
3282.3975,97.0
3283.7104,100.0
3285.024,103.0
3286.338,83.0
3287.6523,97.0
3288.9673,124.0
3290.283,105.0
3291.599,109.0
3292.9158,92.0
3294.233,118.0
3295.5505,107.0
3296.8687,91.0
3298.1875,99.0
3299.5068,101.0
3300.8267,103.0
3302.147,95.0
3303.4678,88.0
3304.789,102.0
3306.111,85.0
3307.4336,113.0
3308.7566,108.0
3310.08,99.0
3311.404,91.0
3312.7285,79.0
3314.0537,94.0
3315.3794,101.0
3316.7056,101.0
3318.0322,110.0
3319.3594,93.0
3320.687,107.0
3322.0154,90.0
3323.3442,103.0
3324.6736,126.0
3326.0034,113.0
3327.3337,108.0
3328.6648,97.0
3329.9963,101.0
3331.3284,98.0
3332.661,98.0
3333.994,96.0
3335.3274,98.0
3336.6616,112.0
3337.9963,108.0
3339.3315,100.0
3340.6672,119.0
3342.0034,111.0
3343.3403,103.0
3344.6777,94.0
3346.0156,90.0
3347.354,82.0
3348.6929,90.0
3350.0322,111.0
3351.3723,119.0
3352.713,128.0
3354.054,100.0
3355.3955,102.0
3356.7375,89.0
3358.0803,95.0
3359.4236,103.0
3360.7673,101.0
3362.1116,106.0
3363.4563,106.0
3364.8018,108.0
3366.1477,108.0
3367.4941,88.0
3368.841,109.0
3370.1887,111.0
3371.5369,116.0
3372.8855,116.0
3374.2346,111.0
3375.5842,128.0
3376.9346,111.0
3378.2854,107.0
3379.6367,129.0
3380.9885,122.0
3382.3408,106.0
3383.6938,114.0
3385.0474,116.0
3386.4014,117.0
3387.7559,107.0
3389.1108,87.0
3390.4666,106.0
3391.8228,103.0
3393.1794,110.0
3394.5366,103.0
3395.8945,104.0
3397.253,121.0
3398.6118,112.0
3399.9712,120.0
3401.3313,109.0
3402.692,116.0
3404.053,115.0
3405.4146,115.0
3406.7766,115.0
3408.1394,95.0
3409.5027,123.0
3410.8665,110.0
3412.2307,116.0
3413.5957,140.0
3414.9612,117.0
3416.3271,104.0
3417.6936,94.0
3419.0608,110.0
3420.4285,119.0
3421.7966,113.0
3423.1653,139.0
3424.5347,88.0
3425.9045,108.0
3427.275,116.0
3428.6458,124.0
3430.017,98.0
3431.3892,109.0
3432.7617,103.0
3434.1348,108.0
3435.5083,112.0
3436.8826,120.0
3438.2573,95.0
3439.6326,103.0
3441.0083,102.0
3442.3848,118.0
3443.7617,121.0
3445.1392,91.0
3446.5173,108.0
3447.896,98.0
3449.2751,126.0
3450.6548,108.0
3452.0352,115.0
3453.416,109.0
3454.7974,126.0
3456.1792,128.0
3457.5618,133.0
3458.9448,120.0
3460.3284,108.0
3461.7124,91.0
3463.0972,117.0
3464.4824,92.0
3465.8682,120.0
3467.2544,98.0
3468.6414,110.0
3470.0288,113.0
3471.4167,119.0
3472.8054,125.0
3474.1946,125.0
3475.5842,117.0
3476.9744,123.0
3478.3652,124.0
3479.7566,105.0
3481.1484,104.0
3482.541,103.0
3483.934,124.0
3485.3276,88.0
3486.7217,117.0
3488.1165,113.0
3489.5117,104.0
3490.9075,118.0
3492.304,107.0
3493.701,119.0
3495.0984,110.0
3496.4963,128.0
3497.895,121.0
3499.2942,119.0
3500.6938,134.0
3502.0942,132.0
3503.495,114.0
3504.8965,121.0
3506.2983,102.0
3507.701,131.0
3509.104,131.0
3510.5076,137.0
3511.9119,117.0
3513.3167,156.0
3514.722,130.0
3516.128,133.0
3517.5344,103.0
3518.9414,101.0
3520.3489,129.0
3521.757,175.0
3523.1658,185.0
3524.575,127.0
3525.9849,124.0
3527.3953,107.0
3528.8062,127.0
3530.2178,181.0
3531.63,195.0
3533.0425,157.0
3534.4558,134.0
3535.8696,123.0
3537.284,125.0
3538.6987,117.0
3540.1143,121.0
3541.5303,123.0
3542.9468,119.0
3544.364,109.0
3545.7817,121.0
3547.2,96.0
3548.619,124.0
3550.0383,112.0
3551.4583,119.0
3552.879,125.0
3554.3,108.0
3555.7217,123.0
3557.144,120.0
3558.567,153.0
3559.9902,122.0
3561.4143,117.0
3562.8389,137.0
3564.264,149.0
3565.6897,139.0
3567.116,133.0
3568.5427,135.0
3569.9702,139.0
3571.3982,147.0
3572.8267,163.0
3574.2559,136.0
3575.6855,128.0
3577.1157,123.0
3578.5466,166.0
3579.978,156.0
3581.41,141.0
3582.8425,139.0
3584.2756,136.0
3585.7092,166.0
3587.1436,147.0
3588.5784,157.0
3590.014,141.0
3591.45,168.0
3592.8865,157.0
3594.3237,157.0
3595.7615,175.0
3597.1997,155.0
3598.6387,176.0
3600.0781,185.0
3601.518,173.0
3602.9587,174.0
3604.4,136.0
3605.8416,154.0
3607.284,207.0
3608.7268,237.0
3610.1704,195.0
3611.6145,139.0
3613.059,132.0
3614.5044,136.0
3615.9502,242.0
3617.3965,327.0
3618.8435,216.0
3620.291,156.0
3621.739,144.0
3623.1877,127.0
3624.637,133.0
3626.087,144.0
3627.5374,155.0
3628.9883,139.0
3630.44,135.0
3631.892,139.0
3633.3447,128.0
3634.798,127.0
3636.252,121.0
3637.7065,142.0
3639.1616,128.0
3640.6172,117.0
3642.0735,139.0
3643.5303,145.0
3644.9878,154.0
3646.4458,146.0
3647.9043,140.0
3649.3635,160.0
3650.8232,140.0
3652.2837,113.0
3653.7446,148.0
3655.206,108.0
3656.6682,149.0
3658.1309,136.0
3659.594,140.0
3661.0579,134.0
3662.5222,120.0
3663.9873,150.0
3665.453,162.0
3666.919,155.0
3668.3857,138.0
3669.853,119.0
3671.321,123.0
3672.7896,115.0
3674.2585,133.0
3675.7283,140.0
3677.1985,148.0
3678.6694,151.0
3680.1409,168.0
3681.613,139.0
3683.0857,139.0
3684.5588,134.0
3686.0327,138.0
3687.507,111.0
3688.9822,143.0
3690.4578,140.0
3691.9338,135.0
3693.4106,152.0
3694.888,131.0
3696.366,149.0
3697.8445,101.0
3699.3237,132.0
3700.8035,148.0
3702.2837,141.0
3703.7646,131.0
3705.246,120.0
3706.7283,127.0
3708.211,138.0
3709.6943,155.0
3711.1782,183.0
3712.6626,172.0
3714.1477,134.0
3715.6333,120.0
3717.1196,150.0
3718.6064,149.0
3720.094,129.0
3721.582,132.0
3723.0706,151.0
3724.5598,139.0
3726.0496,132.0
3727.54,142.0
3729.031,155.0
3730.5227,127.0
3732.015,150.0
3733.5078,168.0
3735.0012,190.0
3736.495,172.0
3737.9897,150.0
3739.4849,144.0
3740.9807,153.0
3742.477,152.0
3743.974,179.0
3745.4717,160.0
3746.97,155.0
3748.4688,140.0
3749.968,232.0
3751.468,389.0
3752.9685,383.0
3754.4697,279.0
3755.9714,240.0
3757.4739,174.0
3758.9768,166.0
3760.4805,146.0
3761.9846,173.0
3763.4895,129.0
3764.9949,135.0
3766.501,153.0
3768.0076,164.0
3769.515,154.0
3771.0227,174.0
3772.531,158.0
3774.04,194.0
3775.5496,175.0
3777.0598,149.0
3778.5706,160.0
3780.082,163.0
3781.594,163.0
3783.1067,230.0
3784.6199,196.0
3786.1338,172.0
3787.6482,200.0
3789.1633,144.0
3790.679,147.0
3792.1953,131.0
3793.7122,135.0
3795.2297,167.0
3796.7478,178.0
3798.2666,170.0
3799.786,182.0
3801.306,161.0
3802.8264,163.0
3804.3477,137.0
3805.8694,165.0
3807.3918,154.0
3808.9148,193.0
3810.4385,164.0
3811.9626,150.0
3813.4875,173.0
3815.013,235.0
3816.539,158.0
3818.0657,183.0
3819.593,159.0
3821.1208,154.0
3822.6494,155.0
3824.1785,166.0
3825.7083,135.0
3827.2385,136.0
3828.7695,144.0
3830.301,154.0
3831.8333,199.0
3833.366,180.0
3834.8994,192.0
3836.4333,157.0
3837.968,185.0
3839.5032,168.0
3841.039,164.0
3842.5754,153.0
3844.1125,152.0
3845.6501,142.0
3847.1885,193.0
3848.7273,226.0
3850.2668,214.0
3851.807,177.0
3853.3477,167.0
3854.889,135.0
3856.431,137.0
3857.9734,167.0
3859.5166,153.0
3861.0603,170.0
3862.6047,157.0
3864.1497,185.0
3865.6953,201.0
3867.2417,214.0
3868.7886,170.0
3870.3362,164.0
3871.8843,154.0
3873.433,164.0
3874.9824,176.0
3876.5325,177.0
3878.083,184.0
3879.6343,179.0
3881.186,209.0
3882.7385,249.0
3884.2915,220.0
3885.8452,206.0
3887.3997,204.0
3888.9546,182.0
3890.5103,161.0
3892.0664,165.0
3893.6233,153.0
3895.1807,161.0
3896.7388,147.0
3898.2974,210.0
3899.8567,239.0
3901.4167,233.0
3902.9773,189.0
3904.5386,170.0
3906.1003,169.0
3907.6628,193.0
3909.2258,147.0
3910.7896,139.0
3912.3538,140.0
3913.9187,151.0
3915.4844,184.0
3917.0505,188.0
3918.6174,172.0
3920.1848,173.0
3921.753,148.0
3923.3215,152.0
3924.8909,185.0
3926.461,156.0
3928.0315,159.0
3929.6028,151.0
3931.1746,156.0
3932.747,164.0
3934.32,170.0
3935.8938,172.0
3937.4683,139.0
3939.0432,146.0
3940.619,145.0
3942.195,146.0
3943.772,166.0
3945.3494,153.0
3946.9275,147.0
3948.5063,131.0
3950.0857,173.0
3951.6658,191.0
3953.2463,141.0
3954.8276,162.0
3956.4097,134.0
3957.9922,140.0
3959.5754,170.0
3961.1592,164.0
3962.7437,140.0
3964.3289,129.0
3965.9146,118.0
3967.501,139.0
3969.088,132.0
3970.6755,137.0
3972.264,145.0
3973.8528,123.0
3975.4424,131.0
3977.0325,154.0
3978.6233,149.0
3980.2148,156.0
3981.807,150.0
3983.3997,162.0
3984.993,168.0
3986.587,169.0
3988.1816,137.0
3989.7769,135.0
3991.3728,184.0
3992.9692,199.0
3994.5664,174.0
3996.1643,166.0
3997.7627,176.0
3999.3618,161.0
4000.9617,159.0
4002.562,189.0
4004.163,168.0
4005.7646,160.0
4007.367,154.0
4008.97,165.0
4010.5735,165.0
4012.1777,162.0
4013.7827,182.0
4015.3882,160.0
4016.9944,171.0
4018.601,171.0
4020.2085,202.0
4021.8167,199.0
4023.4253,164.0
4025.0347,184.0
4026.6448,214.0
4028.2554,223.0
4029.8667,213.0
4031.4788,177.0
4033.0913,171.0
4034.7046,206.0
4036.3184,262.0
4037.9329,240.0
4039.548,206.0
4041.1638,266.0
4042.7803,270.0
4044.3975,242.0
4046.0151,245.0
4047.6335,209.0
4049.2527,231.0
4050.8723,345.0
4052.4927,338.0
4054.1138,315.0
4055.7354,289.0
4057.3577,239.0
4058.9807,340.0
4060.6042,384.0
4062.2285,341.0
4063.8535,347.0
4065.479,372.0
4067.1052,313.0
4068.7322,381.0
4070.3596,366.0
4071.9878,474.0
4073.6167,496.0
4075.246,446.0
4076.8762,430.0
4078.507,375.0
4080.1384,457.0
4081.7705,577.0
4083.4033,569.0
4085.0366,718.0
4086.6707,867.0
4088.3054,579.0
4089.9407,358.0
4091.5767,303.0
4093.2134,1090.0
4094.8506,1802.0
4096.489,1068.0
4098.1274,480.0
4099.7666,330.0
4101.4067,1033.0
4103.0474,2822.0
4104.6885,2325.0
4106.3306,887.0
4107.973,431.0
4109.616,310.0
4111.2603,263.0
4112.905,303.0
4114.55,405.0
4116.196,340.0
4117.8423,243.0
4119.4893,171.0
4121.137,196.0
4122.7856,226.0
4124.4346,219.0
4126.0845,225.0
4127.735,196.0
4129.3857,181.0
4131.0376,177.0
4132.69,198.0
4134.343,168.0
4135.9966,196.0
4137.651,173.0
4139.306,189.0
4140.962,170.0
4142.618,151.0
4144.2754,158.0
4145.933,184.0
4147.5913,184.0
4149.2505,184.0
4150.91,183.0
4152.5703,180.0
4154.2314,178.0
4155.893,188.0
4157.5557,187.0
4159.2188,193.0
4160.8823,182.0
4162.547,177.0
4164.212,182.0
4165.8774,218.0
4167.544,208.0
4169.211,199.0
4170.8784,181.0
4172.547,171.0
4174.216,245.0
4175.8857,265.0
4177.556,212.0
4179.227,209.0
4180.899,188.0
4182.5713,206.0
4184.244,190.0
4185.918,190.0
4187.5923,226.0
4189.267,234.0
4190.943,192.0
4192.619,176.0
4194.2964,186.0
4195.974,189.0
4197.6523,201.0
4199.3315,185.0
4201.011,187.0
4202.6914,171.0
4204.3726,231.0
4206.054,205.0
4207.737,177.0
4209.42,176.0
4211.1035,180.0
4212.788,162.0
4214.473,185.0
4216.1587,171.0
4217.845,188.0
4219.532,169.0
4221.22,155.0
4222.9087,180.0
4224.5977,184.0
4226.2876,174.0
4227.978,197.0
4229.6694,220.0
4231.3613,183.0
4233.0537,206.0
4234.747,180.0
4236.441,181.0
4238.1353,214.0
4239.8306,189.0
4241.5264,190.0
4243.223,187.0
4244.9204,211.0
4246.618,224.0
4248.317,199.0
4250.016,211.0
4251.7163,180.0
4253.417,211.0
4255.118,262.0
4256.8203,250.0
4258.523,268.0
4260.2266,235.0
4261.9307,258.0
4263.6353,232.0
4265.341,274.0
4267.047,327.0
4268.754,370.0
4270.4614,306.0
4272.1694,248.0
4273.8784,191.0
4275.588,321.0
4277.2983,563.0
4279.0093,414.0
4280.7207,270.0
4282.433,204.0
4284.146,416.0
4285.86,817.0
4287.574,596.0
4289.289,361.0
4291.005,229.0
4292.721,205.0
4294.4385,187.0
4296.1562,246.0
4297.8745,323.0
4299.5938,270.0
4301.3135,238.0
4303.034,193.0
4304.7554,220.0
4306.477,196.0
4308.1997,174.0
4309.923,187.0
4311.647,163.0
4313.3716,190.0
4315.097,176.0
4316.823,179.0
4318.55,173.0
4320.2773,173.0
4322.0054,171.0
4323.7344,184.0
4325.464,180.0
4327.194,168.0
4328.925,181.0
4330.6562,176.0
4332.3887,177.0
4334.1216,183.0
4335.8555,178.0
4337.59,194.0
4339.3247,165.0
4341.0605,200.0
4342.797,149.0
4344.534,146.0
4346.272,161.0
4348.0103,174.0
4349.7495,185.0
4351.4893,171.0
4353.23,176.0
4354.971,195.0
4356.7134,184.0
4358.456,223.0
4360.199,190.0
4361.9434,206.0
4363.688,165.0
4365.4336,190.0
4367.1797,173.0
4368.927,191.0
4370.6743,203.0
4372.4224,197.0
4374.1714,191.0
4375.921,195.0
4377.6714,187.0
4379.4224,200.0
4381.1743,185.0
4382.927,194.0
4384.6797,186.0
4386.4336,231.0
4388.188,213.0
4389.9434,213.0
4391.699,213.0
4393.456,206.0
4395.2134,195.0
4396.9717,222.0
4398.7305,236.0
4400.4897,262.0
4402.25,236.0
4404.0107,204.0
4405.7725,205.0
4407.5347,299.0
4409.298,359.0
4411.0615,280.0
4412.826,201.0
4414.5913,233.0
4416.357,323.0
4418.1235,368.0
4419.8906,302.0
4421.6587,243.0
4423.4272,204.0
4425.197,227.0
4426.967,204.0
4428.738,260.0
4430.5093,317.0
4432.2812,236.0
4434.054,237.0
4435.8276,222.0
4437.602,284.0
4439.377,382.0
4441.153,271.0
4442.929,222.0
4444.7065,238.0
4446.4844,246.0
4448.263,219.0
4450.0425,259.0
4451.8223,290.0
4453.603,238.0
4455.3843,217.0
4457.1665,225.0
4458.949,324.0
4460.733,319.0
4462.517,282.0
4464.3022,229.0
4466.088,235.0
4467.8745,338.0
4469.6616,320.0
4471.4497,300.0
4473.2383,246.0
4475.0273,217.0
4476.8174,226.0
4478.608,217.0
4480.3994,244.0
4482.1914,284.0
4483.9844,249.0
4485.778,201.0
4487.5723,206.0
4489.367,225.0
4491.163,240.0
4492.9595,224.0
4494.757,220.0
4496.5547,237.0
4498.3535,280.0
4500.153,252.0
4501.953,225.0
4503.754,255.0
4505.555,248.0
4507.3574,224.0
4509.16,229.0
4510.964,201.0
4512.768,251.0
4514.573,249.0
4516.379,234.0
4518.1855,197.0
4519.9927,223.0
4521.801,250.0
4523.6094,262.0
4525.419,215.0
4527.229,179.0
4529.04,220.0
4530.8516,282.0
4532.664,266.0
4534.477,198.0
4536.291,207.0
4538.1055,225.0
4539.921,220.0
4541.737,213.0
4543.5537,205.0
4545.371,227.0
4547.1895,208.0
4549.0083,236.0
4550.828,192.0
4552.6484,206.0
4554.4697,205.0
4556.2915,198.0
4558.1143,199.0
4559.9375,193.0
4561.7617,214.0
4563.5864,183.0
4565.4116,219.0
4567.238,204.0
4569.0645,188.0
4570.892,194.0
4572.72,190.0
4574.5493,185.0
4576.379,212.0
4578.2095,207.0
4580.0405,212.0
4581.8726,232.0
4583.705,180.0
4585.5386,200.0
4587.3726,189.0
4589.2075,200.0
4591.043,199.0
4592.8794,248.0
4594.7163,211.0
4596.554,176.0
4598.3926,195.0
4600.232,248.0
4602.0723,219.0
4603.913,222.0
4605.755,202.0
4607.597,161.0
4609.4404,194.0
4611.284,217.0
4613.129,246.0
4614.974,206.0
4616.8203,175.0
4618.667,180.0
4620.5146,212.0
4622.363,243.0
4624.212,220.0
4626.0615,187.0
4627.912,177.0
4629.763,192.0
4631.615,164.0
4633.468,200.0
4635.3213,196.0
4637.1753,166.0
4639.0303,165.0
4640.8857,171.0
4642.742,190.0
4644.599,183.0
4646.457,177.0
4648.3154,182.0
4650.175,153.0
4652.0347,169.0
4653.8955,149.0
4655.757,178.0
4657.619,178.0
4659.4824,179.0
4661.346,194.0
4663.211,201.0
4665.076,168.0
4666.9424,157.0
4668.809,176.0
4670.677,192.0
4672.545,184.0
4674.414,165.0
4676.2837,171.0
4678.1543,193.0
4680.0254,211.0
4681.8975,189.0
4683.77,183.0
4685.6436,167.0
4687.5176,172.0
4689.3926,170.0
4691.2686,170.0
4693.145,168.0
4695.0225,178.0
4696.9004,206.0
4698.7793,165.0
4700.6587,131.0
4702.539,155.0
4704.42,157.0
4706.302,165.0
4708.184,199.0
4710.0674,214.0
4711.951,205.0
4713.836,181.0
4715.7217,190.0
4717.608,166.0
4719.495,144.0
4721.383,179.0
4723.2715,157.0
4725.1606,178.0
4727.051,166.0
4728.9414,168.0
4730.833,172.0
4732.725,193.0
4734.618,167.0
4736.512,176.0
4738.4067,163.0
4740.3022,172.0
4742.198,158.0
4744.095,164.0
4745.9927,208.0
4747.891,157.0
4749.79,152.0
4751.69,143.0
4753.591,172.0
4755.492,156.0
4757.3945,184.0
4759.2974,162.0
4761.201,150.0
4763.1055,161.0
4765.0107,173.0
4766.9165,129.0
4768.823,150.0
4770.731,163.0
4772.639,154.0
4774.5483,172.0
4776.458,142.0
4778.3687,162.0
4780.28,147.0
4782.192,161.0
4784.105,141.0
4786.0186,147.0
4787.933,139.0
4789.848,149.0
4791.764,149.0
4793.6807,147.0
4795.598,179.0
4797.5166,151.0
4799.4355,147.0
4801.3555,149.0
4803.276,157.0
4805.1973,163.0
4807.119,141.0
4809.042,178.0
4810.966,143.0
4812.89,146.0
4814.8154,167.0
4816.741,143.0
4818.668,133.0
4820.595,145.0
4822.5234,114.0
4824.4526,149.0
4826.3823,177.0
4828.313,170.0
4830.244,131.0
4832.1763,172.0
4834.1094,147.0
4836.043,161.0
4837.9775,148.0
4839.9126,175.0
4841.8486,179.0
4843.785,165.0
4845.7227,153.0
4847.661,144.0
4849.6,174.0
4851.54,143.0
4853.4805,159.0
4855.422,152.0
4857.3643,142.0
4859.307,143.0
4861.251,129.0
4863.1953,119.0
4865.1406,156.0
4867.087,143.0
4869.0337,165.0
4870.9814,155.0
4872.9297,159.0
4874.879,156.0
4876.829,155.0
4878.78,148.0
4880.7314,140.0
4882.6836,136.0
4884.6367,162.0
4886.5903,137.0
4888.545,151.0
4890.5005,141.0
4892.4565,166.0
4894.4136,155.0
4896.3716,141.0
4898.33,155.0
4900.2896,157.0
4902.2495,151.0
4904.2104,150.0
4906.1724,186.0
4908.135,152.0
4910.098,141.0
4912.062,118.0
4914.027,153.0
4915.9927,163.0
4917.959,166.0
4919.9263,152.0
4921.894,178.0
4923.863,183.0
4925.8325,148.0
4927.8027,155.0
4929.774,167.0
4931.7456,156.0
4933.7183,147.0
4935.692,166.0
4937.666,163.0
4939.641,153.0
4941.617,179.0
4943.5938,151.0
4945.5713,142.0
4947.5493,141.0
4949.5283,158.0
4951.5083,159.0
4953.489,167.0
4955.47,169.0
4957.4526,160.0
4959.4355,138.0
4961.4194,158.0
4963.404,173.0
4965.389,143.0
4967.3755,182.0
4969.3623,147.0
4971.35,181.0
4973.339,176.0
4975.328,152.0
4977.3184,163.0
4979.309,169.0
4981.301,168.0
4983.2935,184.0
4985.2866,163.0
4987.281,153.0
4989.276,182.0
4991.2715,185.0
4993.268,151.0
4995.265,172.0
4997.263,168.0
4999.262,153.0
5001.2617,151.0
5003.262,192.0
5005.2637,194.0
5007.2656,189.0
5009.2686,164.0
5011.2725,172.0
5013.277,165.0
5015.282,160.0
5017.2886,184.0
5019.2954,161.0
5021.303,184.0
5023.3115,174.0
5025.321,144.0
5027.331,167.0
5029.342,166.0
5031.3535,186.0
5033.366,177.0
5035.3794,164.0
5037.3936,177.0
5039.4087,175.0
5041.4243,178.0
5043.441,159.0
5045.4585,146.0
5047.4766,173.0
5049.4956,191.0
5051.5156,190.0
5053.536,183.0
5055.5576,167.0
5057.58,176.0
5059.603,173.0
5061.627,149.0
5063.6514,139.0
5065.677,201.0
5067.703,175.0
5069.73,159.0
5071.758,178.0
5073.7866,166.0
5075.816,142.0
5077.846,164.0
5079.8774,156.0
5081.909,157.0
5083.942,153.0
5085.9756,182.0
5088.01,182.0
5090.045,183.0
5092.081,171.0
5094.1177,157.0
5096.1553,181.0
5098.194,147.0
5100.233,146.0
5102.273,179.0
5104.314,193.0
5106.3555,166.0
5108.398,164.0
5110.4414,190.0
5112.4854,176.0
5114.5303,174.0
5116.576,178.0
5118.6226,153.0
5120.67,199.0
5122.7183,162.0
5124.7676,166.0
5126.8174,197.0
5128.868,211.0
5130.92,181.0
5132.972,186.0
5135.0254,153.0
5137.0796,148.0
5139.1343,176.0
5141.19,171.0
5143.2466,175.0
5145.3037,180.0
5147.362,226.0
5149.421,188.0
5151.4805,189.0
5153.541,172.0
5155.6025,149.0
5157.6646,214.0
5159.7275,169.0
5161.7915,151.0
5163.8564,162.0
5165.922,168.0
5167.9883,158.0
5170.0557,171.0
5172.1235,209.0
5174.1924,174.0
5176.262,155.0
5178.3325,189.0
5180.404,189.0
5182.476,163.0
5184.549,174.0
5186.6226,173.0
5188.6973,181.0
5190.773,147.0
5192.849,177.0
5194.9263,178.0
5197.0044,179.0
5199.083,184.0
5201.1626,179.0
5203.243,192.0
5205.324,203.0
5207.4062,165.0
5209.4893,165.0
5211.573,195.0
5213.6577,163.0
5215.743,164.0
5217.8296,194.0
5219.9165,194.0
5222.0044,209.0
5224.0933,177.0
5226.183,167.0
5228.2734,162.0
5230.3647,176.0
5232.457,185.0
5234.55,182.0
5236.6436,169.0
5238.7383,158.0
5240.834,186.0
5242.93,167.0
5245.0273,218.0
5247.1255,195.0
5249.224,175.0
5251.3237,191.0
5253.4243,175.0
5255.526,163.0
5257.628,199.0
5259.731,206.0
5261.835,191.0
5263.9395,188.0
5266.045,186.0
5268.1514,163.0
5270.259,165.0
5272.3667,131.0
5274.4756,180.0
5276.5854,195.0
5278.6963,184.0
5280.8076,183.0
5282.92,213.0
5285.033,191.0
5287.147,165.0
5289.2617,185.0
5291.3774,155.0
5293.494,186.0
5295.6113,161.0
5297.7295,194.0
5299.8486,227.0
5301.9688,244.0
5304.0894,217.0
5306.211,180.0
5308.3335,173.0
5310.457,168.0
5312.581,144.0
5314.706,153.0
5316.832,211.0
5318.959,230.0
5321.0864,205.0
5323.215,198.0
5325.344,191.0
5327.4746,165.0
5329.6055,195.0
5331.7373,170.0
5333.87,163.0
5336.004,173.0
5338.138,137.0
5340.2734,175.0
5342.4097,134.0
5344.547,182.0
5346.6846,206.0
5348.823,170.0
5350.963,186.0
5353.1035,158.0
5355.2446,201.0
5357.3867,184.0
5359.53,184.0
5361.674,164.0
5363.8184,194.0
5365.964,166.0
5368.1104,165.0
5370.258,193.0
5372.406,149.0
5374.5547,158.0
5376.7046,194.0
5378.8555,197.0
5381.007,198.0
5383.159,177.0
5385.3125,160.0
5387.467,164.0
5389.6216,181.0
5391.7773,196.0
5393.934,194.0
5396.092,201.0
5398.25,219.0
5400.409,184.0
5402.5693,208.0
5404.7305,181.0
5406.8926,202.0
5409.055,225.0
5411.2188,207.0
5413.3833,217.0
5415.549,223.0
5417.715,203.0
5419.882,184.0
5422.05,188.0
5424.2188,188.0
5426.3887,189.0
5428.559,198.0
5430.7305,180.0
5432.903,197.0
5435.076,203.0
5437.25,189.0
5439.425,205.0
5441.6006,214.0
5443.7773,201.0
5445.955,205.0
5448.1333,176.0
5450.3125,170.0
5452.4927,174.0
5454.674,169.0
5456.8555,186.0
5459.038,204.0
5461.2217,203.0
5463.4062,160.0
5465.592,173.0
5467.778,177.0
5469.965,189.0
5472.153,194.0
5474.342,195.0
5476.5317,195.0
5478.722,190.0
5480.9136,183.0
5483.106,185.0
5485.2993,190.0
5487.4937,198.0
5489.6885,202.0
5491.8843,216.0
5494.081,177.0
5496.279,186.0
5498.4775,181.0
5500.677,210.0
5502.877,207.0
5505.078,206.0
5507.2803,216.0
5509.4834,193.0
5511.687,221.0
5513.8916,177.0
5516.097,172.0
5518.3037,220.0
5520.511,198.0
5522.719,217.0
5524.928,202.0
5527.138,186.0
5529.349,179.0
5531.561,177.0
5533.7734,176.0
5535.987,210.0
5538.201,210.0
5540.4165,221.0
5542.633,215.0
5544.85,206.0
5547.068,194.0
5549.2866,203.0
5551.5063,169.0
5553.727,196.0
5555.9487,186.0
5558.171,209.0
5560.394,217.0
5562.618,221.0
5564.8433,249.0
5567.0693,221.0
5569.2964,198.0
5571.524,194.0
5573.7524,186.0
5575.982,197.0
5578.2124,188.0
5580.444,203.0
5582.676,190.0
5584.9087,183.0
5587.1426,200.0
5589.3774,167.0
5591.6133,182.0
5593.85,170.0
5596.0874,179.0
5598.3257,198.0
5600.565,203.0
5602.805,182.0
5605.0464,182.0
5607.2886,197.0
5609.5312,182.0
5611.775,192.0
5614.0195,192.0
5616.265,194.0
5618.5117,187.0
5620.7593,220.0
5623.008,188.0
5625.257,182.0
5627.507,190.0
5629.758,203.0
5632.01,181.0
5634.2627,202.0
5636.5166,171.0
5638.771,179.0
5641.0264,204.0
5643.2827,189.0
5645.54,194.0
5647.7983,201.0
5650.0576,174.0
5652.318,169.0
5654.5786,207.0
5656.8403,166.0
5659.103,202.0
5661.3667,176.0
5663.6313,172.0
5665.897,198.0
5668.1636,205.0
5670.4307,172.0
5672.6987,198.0
5674.968,210.0
5677.238,198.0
5679.509,207.0
5681.781,201.0
5684.0537,213.0
5686.327,203.0
5688.6016,244.0
5690.877,253.0
5693.1533,202.0
5695.4307,217.0
5697.709,198.0
5699.9883,202.0
5702.268,242.0
5704.549,232.0
5706.8306,222.0
5709.1133,250.0
5711.397,234.0
5713.6816,224.0
5715.9673,216.0
5718.254,233.0
5720.541,235.0
5722.829,238.0
5725.118,220.0
5727.408,239.0
5729.699,255.0
5731.991,244.0
5734.284,262.0
5736.578,229.0
5738.8726,271.0
5741.168,243.0
5743.4644,277.0
5745.7617,251.0
5748.06,241.0
5750.3594,249.0
5752.6597,258.0
5754.961,283.0
5757.2627,246.0
5759.5654,268.0
5761.869,294.0
5764.174,259.0
5766.4795,268.0
5768.786,261.0
5771.0938,293.0
5773.4023,284.0
5775.712,284.0
5778.022,306.0
5780.333,297.0
5782.645,277.0
5784.958,289.0
5787.272,279.0
5789.587,270.0
5791.903,265.0
5794.2197,275.0
5796.5376,287.0
5798.8564,303.0
5801.176,285.0
5803.496,288.0
5805.8174,308.0
5808.1396,318.0
5810.463,304.0
5812.787,335.0
5815.1123,332.0
5817.4385,300.0
5819.7656,279.0
5822.0938,346.0
5824.4224,317.0
5826.752,273.0
5829.0825,312.0
5831.414,344.0
5833.7466,322.0
5836.08,297.0
5838.4146,348.0
5840.75,416.0
5843.0864,320.0
5845.424,312.0
5847.762,347.0
5850.101,295.0
5852.441,286.0
5854.7817,299.0
5857.1235,305.0
5859.4663,279.0
5861.81,277.0
5864.155,286.0
5866.5005,260.0
5868.847,251.0
5871.195,285.0
5873.5435,265.0
5875.893,286.0
5878.2437,261.0
5880.5947,286.0
5882.947,261.0
5885.3,308.0
5887.654,291.0
5890.009,272.0
5892.3647,289.0
5894.7217,275.0
5897.0796,282.0
5899.4385,317.0
5901.7983,296.0
5904.159,272.0
5906.521,298.0
5908.884,281.0
5911.2476,288.0
5913.612,303.0
5915.977,301.0
5918.3433,277.0
5920.7104,288.0
5923.0786,292.0
5925.4478,322.0
5927.818,281.0
5930.189,313.0
5932.561,307.0
5934.934,324.0
5937.308,289.0
5939.683,283.0
5942.059,279.0
5944.436,331.0
5946.814,309.0
5949.193,299.0
5951.5728,321.0
5953.9536,280.0
5956.335,320.0
5958.7173,308.0
5961.1006,330.0
5963.485,346.0
5965.87,298.0
5968.2563,328.0
5970.6436,298.0
5973.0317,294.0
5975.421,312.0
5977.811,340.0
5980.202,299.0
5982.594,285.0
5984.9873,308.0
5987.3813,299.0
5989.7764,279.0
5992.1724,333.0
5994.5693,372.0
5996.9673,324.0
5999.366,300.0
6001.766,329.0
6004.167,323.0
6006.569,275.0
6008.9717,344.0
6011.3755,365.0
6013.7803,323.0
6016.1855,304.0
6018.592,324.0
6020.999,312.0
6023.407,325.0
6025.8164,278.0
6028.2266,285.0
6030.6377,300.0
6033.05,305.0
6035.463,288.0
6037.877,291.0
6040.292,282.0
6042.708,309.0
6045.125,287.0
6047.543,316.0
6049.962,284.0
6052.382,260.0
6054.8027,255.0
6057.2246,236.0
6059.6475,260.0
6062.0713,307.0
6064.496,356.0
6066.922,304.0
6069.3486,243.0
6071.7764,247.0
6074.205,267.0
6076.635,285.0
6079.0654,290.0
6081.497,294.0
6083.9297,304.0
6086.3633,281.0
6088.798,293.0
6091.2334,275.0
6093.67,269.0
6096.1074,286.0
6098.546,292.0
6100.9854,288.0
6103.426,314.0
6105.867,282.0
6108.3096,291.0
6110.753,303.0
6113.1973,327.0
6115.6426,313.0
6118.089,329.0
6120.536,318.0
6122.9844,285.0
6125.4336,269.0
6127.884,309.0
6130.335,347.0
6132.787,358.0
6135.24,349.0
6137.6943,329.0
6140.1494,337.0
6142.6055,348.0
6145.0625,336.0
6147.5205,372.0
6149.9795,396.0
6152.4395,354.0
6154.9004,363.0
6157.3623,400.0
6159.825,471.0
6162.289,373.0
6164.754,341.0
6167.2197,313.0
6169.6865,375.0
6172.1543,348.0
6174.623,519.0
6177.093,538.0
6179.5635,400.0
6182.035,380.0
6184.508,351.0
6186.9814,413.0
6189.456,387.0
6191.9316,540.0
6194.408,621.0
6196.8857,499.0
6199.3643,406.0
6201.844,406.0
6204.325,373.0
6206.807,347.0
6209.29,356.0
6211.774,377.0
6214.259,443.0
6216.7446,412.0
6219.2314,409.0
6221.719,330.0
6224.208,356.0
6226.6978,357.0
6229.1885,457.0
6231.68,506.0
6234.173,469.0
6236.6665,399.0
6239.161,399.0
6241.6567,350.0
6244.1533,397.0
6246.651,435.0
6249.1494,483.0
6251.649,425.0
6254.1494,423.0
6256.651,506.0
6259.1533,517.0
6261.6567,390.0
6264.1616,362.0
6266.6675,338.0
6269.1743,328.0
6271.682,531.0
6274.191,788.0
6276.7007,627.0
6279.2114,410.0
6281.723,342.0
6284.236,326.0
6286.7495,311.0
6289.264,637.0
6291.78,934.0
6294.2964,727.0
6296.814,485.0
6299.3325,366.0
6301.852,336.0
6304.3726,315.0
6306.8945,305.0
6309.4175,326.0
6311.9414,310.0
6314.4663,312.0
6316.992,304.0
6319.519,328.0
6322.047,279.0
6324.5757,278.0
6327.1055,306.0
6329.636,300.0
6332.168,275.0
6334.7007,305.0
6337.2344,301.0
6339.769,314.0
6342.305,268.0
6344.8423,309.0
6347.3804,282.0
6349.9194,286.0
6352.4595,267.0
6355.0005,309.0
6357.5425,307.0
6360.0854,307.0
6362.6294,306.0
6365.1743,277.0
6367.72,319.0
6370.267,307.0
6372.8154,282.0
6375.3647,301.0
6377.915,300.0
6380.4663,314.0
6383.0186,292.0
6385.572,300.0
6388.126,324.0
6390.681,296.0
6393.2373,303.0
6395.7944,264.0
6398.3525,284.0
6400.912,312.0
6403.4727,332.0
6406.034,333.0
6408.5967,308.0
6411.16,292.0
6413.7246,314.0
6416.29,284.0
6418.8564,298.0
6421.424,328.0
6423.992,269.0
6426.562,296.0
6429.133,331.0
6431.7046,329.0
6434.2773,303.0
6436.851,307.0
6439.426,328.0
6442.0015,294.0
6444.578,306.0
6447.156,343.0
6449.735,329.0
6452.315,334.0
6454.896,315.0
6457.478,321.0
6460.061,306.0
6462.645,277.0
6465.23,284.0
6467.816,303.0
6470.403,326.0
6472.991,319.0
6475.5806,312.0
6478.171,310.0
6480.762,329.0
6483.3545,296.0
6485.9478,319.0
6488.542,320.0
6491.137,340.0
6493.734,352.0
6496.3315,364.0
6498.93,365.0
6501.53,344.0
6504.1304,291.0
6506.732,330.0
6509.3345,335.0
6511.938,326.0
6514.543,367.0
6517.149,375.0
6519.756,402.0
6522.364,385.0
6524.9727,395.0
6527.5825,318.0
6530.1934,350.0
6532.8057,354.0
6535.419,320.0
6538.033,368.0
6540.6484,427.0
6543.2646,418.0
6545.882,382.0
6548.5,335.0
6551.1196,365.0
6553.74,337.0
6556.362,397.0
6558.9844,484.0
6561.608,452.0
6564.2324,344.0
6566.858,367.0
6569.485,350.0
6572.113,355.0
6574.7417,425.0
6577.3716,415.0
6580.0024,371.0
6582.6343,379.0
6585.267,427.0
6587.9014,374.0
6590.5366,397.0
6593.173,431.0
6595.81,367.0
6598.448,346.0
6601.0874,358.0
6603.728,403.0
6606.3696,389.0
6609.012,367.0
6611.656,446.0
6614.3003,377.0
6616.946,356.0
6619.593,378.0
6622.2407,424.0
6624.8896,398.0
6627.5396,373.0
6630.1904,357.0
6632.8423,303.0
6635.4956,361.0
6638.15,456.0
6640.805,486.0
6643.4614,414.0
6646.1187,399.0
6648.7773,348.0
6651.437,372.0
6654.0977,419.0
6656.7593,524.0
6659.422,451.0
6662.0854,402.0
6664.7505,365.0
6667.4165,329.0
6670.0835,372.0
6672.7515,392.0
6675.4204,351.0
6678.091,364.0
6680.762,399.0
6683.4346,353.0
6686.108,343.0
6688.782,346.0
6691.4575,374.0
6694.1343,409.0
6696.812,418.0
6699.4907,419.0
6702.1704,372.0
6704.851,355.0
6707.533,389.0
6710.2163,420.0
6712.9004,380.0
6715.5854,433.0
6718.2715,390.0
6720.959,383.0
6723.6475,435.0
6726.337,441.0
6729.0273,442.0
6731.7188,419.0
6734.4116,406.0
6737.1055,406.0
6739.8003,454.0
6742.496,541.0
6745.193,499.0
6747.891,434.0
6750.5903,395.0
6753.2905,386.0
6755.9917,443.0
6758.6943,578.0
6761.398,561.0
6764.1025,520.0
6766.808,468.0
6769.5146,482.0
6772.2227,440.0
6774.9316,520.0
6777.6416,537.0
6780.3525,493.0
6783.0645,533.0
6785.778,463.0
6788.492,461.0
6791.2075,475.0
6793.924,507.0
6796.6416,425.0
6799.3604,448.0
6802.08,411.0
6804.801,430.0
6807.5225,586.0
6810.2456,549.0
6812.9697,545.0
6815.695,452.0
6818.421,393.0
6821.1484,449.0
6823.877,553.0
6826.6064,606.0
6829.337,503.0
6832.069,421.0
6834.802,393.0
6837.5356,393.0
6840.2705,474.0
6843.007,655.0
6845.744,564.0
6848.4824,430.0
6851.2217,394.0
6853.9624,456.0
6856.704,512.0
6859.447,503.0
6862.1904,427.0
6864.9355,386.0
6867.6816,396.0
6870.4287,385.0
6873.177,370.0
6875.9263,385.0
6878.677,372.0
6881.428,372.0
6884.1807,413.0
6886.9346,418.0
6889.6895,387.0
6892.4453,413.0
6895.202,419.0
6897.9604,379.0
6900.7197,380.0
6903.48,424.0
6906.241,433.0
6909.004,392.0
6911.7676,455.0
6914.532,462.0
6917.298,467.0
6920.065,454.0
6922.833,435.0
6925.602,401.0
6928.372,462.0
6931.1436,442.0
6933.916,389.0
6936.6895,422.0
6939.4644,438.0
6942.24,426.0
6945.017,419.0
6947.795,455.0
6950.574,418.0
6953.3545,436.0
6956.1357,432.0
6958.918,428.0
6961.7017,442.0
6964.4863,419.0
6967.272,416.0
6970.059,382.0
6972.847,393.0
6975.636,414.0
6978.4263,459.0
6981.218,483.0
6984.0103,470.0
6986.8037,431.0
6989.5986,411.0
6992.3945,479.0
6995.1914,509.0
6997.9893,520.0
7000.7886,597.0
7003.589,505.0
7006.39,481.0
7009.193,537.0
7011.9966,446.0
7014.8013,477.0
7017.6074,586.0
7020.4146,522.0
7023.2227,575.0
7026.0317,669.0
7028.8423,601.0
7031.654,457.0
7034.4663,434.0
7037.2803,406.0
7040.095,487.0
7042.911,762.0
7045.7285,675.0
7048.547,491.0
7051.366,420.0
7054.1865,425.0
7057.0083,564.0
7059.831,873.0
7062.655,832.0
7065.48,595.0
7068.306,420.0
7071.1333,468.0
7073.962,430.0
7076.7915,440.0
7079.622,495.0
7082.454,473.0
7085.287,440.0
7088.121,425.0
7090.9565,471.0
7093.793,501.0
7096.6304,529.0
7099.469,453.0
7102.309,423.0
7105.15,504.0
7107.992,536.0
7110.8354,496.0
7113.6797,556.0
7116.5254,544.0
7119.372,486.0
7122.2197,520.0
7125.069,613.0
7127.919,614.0
7130.77,553.0
7133.6226,568.0
7136.476,543.0
7139.3306,707.0
7142.1865,729.0
7145.0435,582.0
7147.9014,569.0
7150.7607,545.0
7153.621,654.0
7156.4824,760.0
7159.345,840.0
7162.209,722.0
7165.0737,613.0
7167.94,625.0
7170.807,709.0
7173.6753,750.0
7176.545,641.0
7179.4155,645.0
7182.287,686.0
7185.16,574.0
7188.034,653.0
7190.909,687.0
7193.7856,625.0
7196.663,828.0
7199.542,925.0
7202.422,665.0
7205.3027,499.0
7208.185,463.0
7211.0684,513.0
7213.9526,986.0
7216.8384,1058.0
7219.725,668.0
7222.613,500.0
7225.502,507.0
7228.392,552.0
7231.283,1223.0
7234.176,1482.0
7237.0693,800.0
7239.9644,517.0
7242.8604,437.0
7245.7573,440.0
7248.656,449.0
7251.555,427.0
7254.4556,447.0
7257.3574,416.0
7260.2603,380.0
7263.1646,444.0
7266.07,451.0
7268.976,433.0
7271.884,432.0
7274.7925,420.0
7277.7026,405.0
7280.614,403.0
7283.526,406.0
7286.4395,436.0
7289.354,429.0
7292.2695,386.0
7295.1865,525.0
7298.1045,470.0
7301.024,406.0
7303.9443,399.0
7306.8657,368.0
7309.7886,442.0
7312.7124,595.0
7315.6377,531.0
7318.564,425.0
7321.491,377.0
7324.42,355.0
7327.3496,458.0
7330.281,602.0
7333.213,519.0
7336.146,418.0
7339.0806,413.0
7342.016,362.0
7344.953,363.0
7347.891,424.0
7350.83,406.0
7353.7705,386.0
7356.712,348.0
7359.655,368.0
7362.5986,382.0
7365.5435,327.0
7368.4897,338.0
7371.437,342.0
7374.3857,374.0
7377.3354,350.0
7380.2866,365.0
7383.239,372.0
7386.192,364.0
7389.1465,330.0
7392.102,320.0
7395.059,334.0
7398.017,365.0
7400.976,408.0
7403.9365,355.0
7406.898,327.0
7409.861,290.0
7412.8247,298.0
7415.79,381.0
7418.7563,383.0
7421.7236,346.0
7424.6924,329.0
7427.662,284.0
7430.6333,259.0
7433.6055,398.0
7436.579,355.0
7439.5537,337.0
7442.5293,316.0
7445.5063,317.0
7448.4844,298.0
7451.464,277.0
7454.4443,290.0
7457.4263,272.0
7460.409,283.0
7463.3936,283.0
7466.379,272.0
7469.365,308.0
7472.353,309.0
7475.342,271.0
7478.332,274.0
7481.323,232.0
7484.316,340.0
7487.3096,320.0
7490.3047,279.0
7493.301,282.0
7496.2983,265.0
7499.297,288.0
7502.2964,304.0
7505.2974,290.0
7508.2993,272.0
7511.3027,299.0
7514.307,264.0
7517.313,276.0
7520.32,273.0
7523.328,285.0
7526.3374,270.0
7529.348,291.0
7532.36,286.0
7535.373,246.0
7538.387,269.0
7541.4023,266.0
7544.419,302.0
7547.4365,296.0
7550.4556,286.0
7553.4756,255.0
7556.497,264.0
7559.5195,256.0
7562.5435,344.0
7565.5684,338.0
7568.5947,285.0
7571.622,277.0
7574.651,249.0
7577.6807,257.0
7580.712,266.0
7583.744,277.0
7586.778,292.0
7589.8125,237.0
7592.8486,248.0
7595.8857,236.0
7598.9243,278.0
7601.964,266.0
7605.005,216.0
7608.047,241.0
7611.0903,277.0
7614.135,277.0
7617.18,296.0
7620.227,298.0
7623.275,260.0
7626.324,231.0
7629.3745,235.0
7632.4263,244.0
7635.479,229.0
7638.533,242.0
7641.5884,246.0
7644.645,256.0
7647.7026,227.0
7650.7617,222.0
7653.8223,260.0
7656.884,248.0
7659.947,264.0
7663.0107,254.0
7666.076,237.0
7669.1426,260.0
7672.2104,282.0
7675.2793,258.0
7678.3496,301.0
7681.421,293.0
7684.4937,267.0
7687.5674,294.0
7690.6426,290.0
7693.7188,270.0
7696.7964,261.0
7699.875,268.0
7702.955,254.0
7706.036,278.0
7709.1187,284.0
7712.202,297.0
7715.287,258.0
7718.373,318.0
7721.4604,319.0
7724.549,346.0
7727.6387,283.0
7730.7295,334.0
7733.822,287.0
7736.9155,290.0
7740.0103,295.0
7743.1064,308.0
7746.2036,349.0
7749.3022,319.0
7752.402,349.0
7755.503,337.0
7758.605,324.0
7761.7085,300.0
7764.813,322.0
7767.919,321.0
7771.026,406.0
7774.1343,378.0
7777.244,317.0
7780.355,311.0
7783.4673,332.0
7786.5806,382.0
7789.6953,407.0
7792.811,398.0
7795.928,389.0
7799.0464,350.0
7802.166,322.0
7805.287,352.0
7808.409,385.0
7811.5327,415.0
7814.657,379.0
7817.783,384.0
7820.91,316.0
7824.0386,358.0
7827.168,397.0
7830.299,446.0
7833.431,354.0
7836.5645,366.0
7839.699,347.0
7842.835,372.0
7845.972,465.0
7849.1104,430.0
7852.25,392.0
7855.391,403.0
7858.533,364.0
7861.677,394.0
7864.8213,379.0
7867.9673,356.0
7871.1143,385.0
7874.2627,407.0
7877.4126,366.0
7880.5635,395.0
7883.716,434.0
7886.869,415.0
7890.024,407.0
7893.18,350.0
7896.3374,424.0
7899.496,489.0
7902.656,498.0
7905.817,399.0
7908.979,406.0
7912.1426,376.0
7915.3076,481.0
7918.4736,602.0
7921.641,572.0
7924.8096,488.0
7927.9795,433.0
7931.151,417.0
7934.323,456.0
7937.497,451.0
7940.672,476.0
7943.848,467.0
7947.026,469.0
7950.2046,530.0
7953.385,504.0
7956.566,542.0
7959.7485,494.0
7962.9326,538.0
7966.1177,597.0
7969.304,556.0
7972.4917,646.0
7975.6807,539.0
7978.871,517.0
7982.0625,638.0
7985.2554,675.0
7988.4497,712.0
7991.645,640.0
7994.842,635.0
7998.0396,642.0
8001.239,676.0
8004.4395,838.0
8007.641,834.0
8010.844,780.0
8014.0483,740.0
8017.254,840.0
8020.461,819.0
8023.669,795.0
8026.8784,821.0
8030.0894,879.0
8033.3013,926.0
8036.5146,991.0
8039.7295,1147.0
8042.9453,1023.0
8046.1626,1005.0
8049.381,1075.0
8052.6006,1087.0
8055.822,1261.0
8059.044,1372.0
8062.2676,1240.0
8065.4927,1423.0
8068.7188,1492.0
8071.9463,1396.0
8075.1753,1387.0
8078.4053,1505.0
8081.6367,1857.0
8084.869,2126.0
8088.103,1805.0
8091.3384,1641.0
8094.5747,1649.0
8097.8125,1913.0
8101.052,2617.0
8104.292,2642.0
8107.5337,2361.0
8110.777,2268.0
8114.021,1963.0
8117.2666,2486.0
8120.5137,3116.0
8123.7617,3291.0
8127.011,3408.0
8130.262,2837.0
8133.514,2620.0
8136.7676,2989.0
8140.0225,3347.0
8143.2783,4418.0
8146.5356,4266.0
8149.7944,3422.0
8153.054,4311.0
8156.3154,3843.0
8159.578,3740.0
8162.842,4256.0
8166.107,4148.0
8169.3735,6867.0
8172.641,6868.0
8175.91,4118.0
8179.1807,2126.0
8182.452,2466.0
8185.725,8968.0
8188.9995,12279.0
8192.275,5942.0
8195.553,2603.0
8198.831,1982.0
8202.11,7276.0
8205.392,18366.0
8208.674,12041.0
8211.957,4411.0
8215.242,1983.0
8218.528,1414.0
8221.815,1256.0
8225.1045,1640.0
8228.395,1962.0
8231.686,1537.0
8234.979,1071.0
8238.272,793.0
8241.567,815.0
8244.864,944.0
8248.162,938.0
8251.461,873.0
8254.762,780.0
8258.063,721.0
8261.367,674.0
8264.672,734.0
8267.978,775.0
8271.285,825.0
8274.594,748.0
8277.903,655.0
8281.215,638.0
8284.527,706.0
8287.841,801.0
8291.156,780.0
8294.473,731.0
8297.79,748.0
8301.109,739.0
8304.43,774.0
8307.751,792.0
8311.074,757.0
8314.398,872.0
8317.725,802.0
8321.052,760.0
8324.38,670.0
8327.71,734.0
8331.041,990.0
8334.373,916.0
8337.707,794.0
8341.042,742.0
8344.378,737.0
8347.716,1032.0
8351.055,1097.0
8354.3955,907.0
8357.737,895.0
8361.08,788.0
8364.425,687.0
8367.7705,567.0
8371.117,616.0
8374.466,782.0
8377.815,833.0
8381.167,667.0
8384.52,523.0
8387.873,569.0
8391.229,626.0
8394.585,631.0
8397.942,603.0
8401.302,537.0
8404.662,527.0
8408.024,622.0
8411.388,611.0
8414.752,560.0
8418.118,592.0
8421.485,514.0
8424.854,550.0
8428.224,533.0
8431.595,566.0
8434.968,595.0
8438.342,559.0
8441.717,537.0
8445.094,582.0
8448.472,687.0
8451.851,665.0
8455.231,655.0
8458.613,648.0
8461.997,630.0
8465.382,724.0
8468.768,783.0
8472.155,806.0
8475.544,793.0
8478.935,708.0
8482.326,755.0
8485.719,860.0
8489.113,966.0
8492.509,949.0
8495.906,925.0
8499.305,887.0
8502.704,1042.0
8506.105,1052.0
8509.508,1261.0
8512.911,1071.0
8516.316,1165.0
8519.723,1304.0
8523.131,1107.0
8526.54,1121.0
8529.95,1146.0
8533.362,1683.0
8536.775,2089.0
8540.19,1453.0
8543.606,911.0
8547.023,793.0
8550.442,1994.0
8553.862,2963.0
8557.284,1778.0
8560.707,1040.0
8564.131,812.0
8567.557,2078.0
8570.983,3985.0
8574.412,2547.0
8577.842,1312.0
8581.272,996.0
8584.705,695.0
8588.139,635.0
8591.574,777.0
8595.011,1073.0
8598.449,943.0
8601.889,683.0
8605.329,535.0
8608.771,509.0
8612.215,481.0
8615.66,473.0
8619.106,564.0
8622.554,517.0
8626.003,498.0
8629.453,453.0
8632.905,481.0
8636.358,498.0
8639.8125,535.0
8643.269,502.0
8646.726,489.0
8650.185,461.0
8653.645,466.0
8657.106,537.0
8660.569,548.0
8664.033,514.0
8667.499,536.0
8670.966,539.0
8674.435,590.0
8677.904,606.0
8681.375,552.0
8684.848,555.0
8688.321,534.0
8691.797,553.0
8695.273,660.0
8698.752,684.0
8702.231,585.0
8705.712,594.0
8709.194,667.0
8712.678,687.0
8716.163,827.0
8719.649,684.0
8723.138,740.0
8726.627,674.0
8730.117,736.0
8733.609,769.0
8737.103,763.0
8740.598,807.0
8744.094,737.0
8747.592,756.0
8751.091,843.0
8754.591,941.0
8758.093,897.0
8761.596,808.0
8765.101,887.0
8768.606,935.0
8772.114,1025.0
8775.623,1018.0
8779.133,1013.0
8782.645,1033.0
8786.157,897.0
8789.672,906.0
8793.1875,944.0
8796.705,1335.0
8800.224,1564.0
8803.744,1067.0
8807.266,916.0
8810.788,909.0
8814.3125,1662.0
8817.838,1898.0
8821.365,1283.0
8824.894,1018.0
8828.424,1029.0
8831.955,1738.0
8835.488,1946.0
8839.022,1445.0
8842.558,1306.0
8846.095,1010.0
8849.633,853.0
8853.173,901.0
8856.714,1340.0
8860.257,1623.0
8863.801,1211.0
8867.347,914.0
8870.894,947.0
8874.442,1348.0
8877.992,1797.0
8881.543,1469.0
8885.096,1145.0
8888.649,925.0
8892.205,937.0
8895.762,989.0
8899.32,1183.0
8902.88,1271.0
8906.441,1062.0
8910.004,921.0
8913.568,925.0
8917.134,1440.0
8920.7,1386.0
8924.269,1019.0
8927.838,864.0
8931.409,1077.0
8934.981,1534.0
8938.556,1408.0
8942.131,1145.0
8945.708,989.0
8949.286,835.0
8952.866,724.0
8956.447,787.0
8960.03,988.0
8963.614,966.0
8967.199,875.0
8970.786,731.0
8974.374,761.0
8977.964,943.0
8981.555,885.0
8985.147,730.0
8988.741,719.0
8992.337,777.0
8995.934,818.0
8999.532,759.0
9003.132,655.0
9006.733,743.0
9010.336,767.0
9013.94,768.0
9017.546,707.0
9021.153,693.0
9024.762,751.0
9028.372,792.0
9031.983,734.0
9035.597,648.0
9039.211,666.0
9042.826,828.0
9046.443,760.0
9050.062,581.0
9053.682,585.0
9057.303,739.0
9060.926,952.0
9064.55,800.0
9068.176,628.0
9071.803,553.0
9075.432,705.0
9079.062,817.0
9082.693,721.0
9086.326,555.0
9089.961,596.0
9093.597,653.0
9097.234,701.0
9100.873,570.0
9104.514,578.0
9108.155,568.0
9111.799,494.0
9115.443,489.0
9119.09,586.0
9122.737,612.0
9126.387,576.0
9130.037,498.0
9133.689,480.0
9137.343,565.0
9140.998,614.0
9144.654,636.0
9148.3125,557.0
9151.972,500.0
9155.633,468.0
9159.295,447.0
9162.959,653.0
9166.624,603.0
9170.291,537.0
9173.959,454.0
9177.629,527.0
9181.3,770.0
9184.973,699.0
9188.646,571.0
9192.322,477.0
9195.999,585.0
9199.678,700.0
9203.357,615.0
9207.039,579.0
9210.722,504.0
9214.406,372.0
9218.092,417.0
9221.779,501.0
9225.468,592.0
9229.158,551.0
9232.85,355.0
9236.543,345.0
9240.237,488.0
9243.934,669.0
9247.631,464.0
9251.33,357.0
9255.03,307.0
9258.732,283.0
9262.436,323.0
9266.141,364.0
9269.847,361.0
9273.555,295.0
9277.264,260.0
9280.975,319.0
9284.687,296.0
9288.4,285.0
9292.116,259.0
9295.833,269.0
9299.552,282.0
9303.271,290.0
9306.993,283.0
9310.716,306.0
9314.44,243.0
9318.166,250.0
9321.894,286.0
9325.622,283.0
9329.353,274.0
9333.084,263.0
9336.817,245.0
9340.552,282.0
9344.288,268.0
9348.025,264.0
9351.765,245.0
9355.505,237.0
9359.247,250.0
9362.991,257.0
9366.736,247.0
9370.483,251.0
9374.231,225.0
9377.981,284.0
9381.732,294.0
9385.485,251.0
9389.239,235.0
9392.995,231.0
9396.752,238.0
9400.511,240.0
9404.2705,243.0
9408.032,252.0
9411.796,232.0
9415.561,200.0
9419.327,229.0
9423.095,243.0
9426.864,227.0
9430.635,245.0
9434.407,220.0
9438.181,201.0
9441.956,205.0
9445.732,255.0
9449.511,294.0
9453.291,230.0
9457.072,216.0
9460.855,262.0
9464.64,248.0
9468.426,257.0
9472.213,210.0
9476.002,205.0
9479.792,212.0
9483.584,193.0
9487.377,241.0
9491.172,247.0
9494.969,233.0
9498.767,183.0
9502.566,232.0
9506.367,246.0
9510.17,248.0
9513.974,196.0
9517.779,196.0
9521.586,220.0
9525.395,212.0
9529.205,228.0
9533.017,211.0
9536.83,193.0
9540.645,195.0
9544.461,179.0
9548.278,228.0
9552.098,229.0
9555.919,211.0
9559.741,193.0
9563.565,173.0
9567.391,171.0
9571.218,183.0
9575.046,185.0
9578.876,187.0
9582.708,166.0
9586.541,195.0
9590.376,190.0
9594.212,202.0
9598.05,191.0
9601.889,164.0
9605.7295,199.0
9609.572,185.0
9613.416,194.0
9617.262,182.0
9621.108,162.0
9624.957,149.0
9628.807,173.0
9632.658,151.0
9636.512,171.0
9640.366,156.0
9644.223,160.0
9648.08,163.0
9651.939,146.0
9655.8,182.0
9659.662,134.0
9663.526,183.0
9667.392,186.0
9671.259,150.0
9675.127,160.0
9678.997,178.0
9682.869,168.0
9686.742,150.0
9690.617,161.0
9694.493,173.0
9698.371,165.0
9702.25,165.0
9706.131,149.0
9710.014,153.0
9713.897,154.0
9717.783,154.0
9721.67,147.0
9725.559,143.0
9729.449,161.0
9733.341,138.0
9737.234,144.0
9741.129,168.0
9745.025,140.0
9748.924,152.0
9752.823,131.0
9756.725,131.0
9760.627,148.0
9764.531,136.0
9768.4375,152.0
9772.345,152.0
9776.254,143.0
9780.164,169.0
9784.076,158.0
9787.99,173.0
9791.905,155.0
9795.822,169.0
9799.74,175.0
9803.66,172.0
9807.582,154.0
9811.505,157.0
9815.43,176.0
9819.355,174.0
9823.283,144.0
9827.213,163.0
9831.144,186.0
9835.076,152.0
9839.01,147.0
9842.945,175.0
9846.883,195.0
9850.821,176.0
9854.762,145.0
9858.704,160.0
9862.647,132.0
9866.593,164.0
9870.539,149.0
9874.487,128.0
9878.4375,141.0
9882.389,149.0
9886.342,166.0
9890.296,137.0
9894.252,156.0
9898.21,170.0
9902.169,175.0
9906.13,185.0
9910.093,169.0
9914.057,146.0
9918.022,135.0
9921.989,156.0
9925.958,140.0
9929.929,169.0
9933.9,160.0
9937.874,158.0
9941.85,202.0
9945.826,161.0
9949.805,171.0
9953.784,167.0
9957.766,179.0
9961.749,186.0
9965.733,182.0
9969.72,162.0
9973.708,157.0
9977.697,152.0
9981.688,164.0
9985.681,157.0
9989.675,161.0
9993.671,156.0
9997.668,153.0
10001.667,160.0
10005.668,132.0
10009.67,148.0
10013.674,159.0
10017.68,172.0
10021.687,146.0
10025.695,144.0
10029.706,148.0
10033.718,167.0
10037.731,153.0
10041.746,159.0
10045.763,149.0
10049.781,173.0
10053.801,149.0
10057.822,164.0
10061.846,148.0
10065.87,146.0
10069.896,153.0
10073.925,165.0
10077.954,166.0
10081.985,154.0
10086.019,160.0
10090.053,147.0
10094.089,163.0
10098.127,173.0
10102.166,193.0
10106.207,160.0
10110.25,159.0
10114.294,147.0
10118.34,171.0
10122.387,119.0
10126.436,140.0
10130.486,154.0
10134.538,160.0
10138.592,156.0
10142.647,150.0
10146.704,137.0
10150.763,176.0
10154.823,135.0
10158.885,153.0
10162.948,186.0
10167.014,146.0
10171.08,147.0
10175.148,156.0
10179.219,161.0
10183.29,155.0
10187.363,150.0
10191.438,139.0
10195.515,150.0
10199.593,160.0
10203.673,160.0
10207.754,171.0
10211.837,160.0
10215.922,181.0
10220.008,147.0
10224.096,161.0
10228.186,163.0
10232.276,170.0
10236.369,138.0
10240.464,138.0
10244.56,151.0
10248.657,146.0
10252.757,150.0
10256.858,165.0
10260.961,155.0
10265.065,164.0
10269.172,148.0
10273.279,169.0
10277.389,170.0
10281.5,150.0
10285.612,151.0
10289.727,164.0
10293.843,168.0
10297.96,173.0
10302.079,162.0
10306.2,152.0
10310.322,150.0
10314.446,153.0
10318.572,180.0
10322.699,148.0
10326.828,161.0
10330.959,161.0
10335.092,138.0
10339.226,174.0
10343.361,165.0
10347.499,165.0
10351.638,155.0
10355.778,164.0
10359.921,142.0
10364.064,146.0
10368.21,146.0
10372.357,156.0
10376.507,184.0
10380.657,151.0
10384.81,161.0
10388.964,165.0
10393.119,177.0
10397.276,166.0
10401.436,161.0
10405.596,159.0
10409.758,150.0
10413.922,136.0
10418.088,150.0
10422.255,131.0
10426.424,136.0
10430.595,119.0
10434.767,182.0
10438.94,164.0
10443.116,144.0
10447.294,128.0
10451.473,165.0
10455.653,157.0
10459.836,155.0
10464.02,171.0
10468.205,130.0
10472.393,136.0
10476.581,165.0
10480.771,143.0
10484.964,129.0
10489.158,150.0
10493.354,154.0
10497.551,148.0
10501.75,146.0
10505.951,150.0
10510.153,144.0
10514.357,160.0
10518.563,155.0
10522.7705,172.0
10526.9795,162.0
10531.19,145.0
10535.403,155.0
10539.617,150.0
10543.833,152.0
10548.051,138.0
10552.27,149.0
10556.49,162.0
10560.713,164.0
10564.9375,132.0
10569.163,159.0
10573.391,153.0
10577.62,148.0
10581.852,154.0
10586.084,153.0
10590.318,154.0
10594.555,181.0
10598.793,142.0
10603.032,145.0
10607.273,145.0
10611.517,142.0
10615.761,185.0
10620.007,174.0
10624.255,138.0
10628.505,161.0
10632.756,173.0
10637.009,152.0
10641.264,149.0
10645.5205,147.0
10649.778,161.0
10654.038,156.0
10658.3,152.0
10662.563,134.0
10666.828,159.0
10671.095,155.0
10675.363,141.0
10679.634,159.0
10683.905,163.0
10688.179,158.0
10692.454,147.0
10696.731,170.0
10701.01,155.0
10705.29,151.0
10709.572,172.0
10713.856,158.0
10718.142,164.0
10722.429,165.0
10726.718,165.0
10731.009,147.0
10735.301,161.0
10739.595,181.0
10743.891,166.0
10748.188,166.0
10752.487,159.0
10756.788,167.0
10761.091,164.0
10765.3955,178.0
10769.702,172.0
10774.01,158.0
10778.319,162.0
10782.631,159.0
10786.944,171.0
10791.259,165.0
10795.575,170.0
10799.894,164.0
10804.214,146.0
10808.535,157.0
10812.858,171.0
10817.184,171.0
10821.511,167.0
10825.839,153.0
10830.169,167.0
10834.501,152.0
10838.835,173.0
10843.171,158.0
10847.508,168.0
10851.847,165.0
10856.1875,155.0
10860.53,160.0
10864.874,157.0
10869.22,173.0
10873.567,193.0
10877.917,147.0
10882.269,164.0
10886.621,147.0
10890.976,183.0
10895.332,161.0
10899.69,140.0
10904.051,166.0
10908.412,183.0
10912.775,178.0
10917.141,189.0
10921.508,147.0
10925.876,159.0
10930.246,183.0
10934.618,186.0
10938.992,165.0
10943.368,169.0
10947.745,177.0
10952.124,181.0
10956.505,205.0
10960.888,162.0
10965.272,180.0
10969.658,168.0
10974.046,184.0
10978.436,156.0
10982.827,170.0
10987.221,162.0
10991.615,165.0
10996.012,189.0
11000.41,185.0
11004.811,162.0
11009.213,201.0
11013.616,160.0
11018.021,161.0
11022.429,173.0
11026.838,201.0
11031.249,189.0
11035.661,203.0
11040.075,203.0
11044.491,165.0
11048.909,202.0
11053.329,157.0
11057.75,176.0
11062.173,164.0
11066.598,161.0
11071.024,195.0
11075.453,171.0
11079.884,171.0
11084.315,167.0
11088.749,182.0
11093.185,165.0
11097.622,167.0
11102.062,181.0
11106.502,163.0
11110.944,145.0
11115.389,195.0
11119.835,194.0
11124.283,184.0
11128.733,168.0
11133.185,168.0
11137.638,198.0
11142.093,196.0
11146.55,183.0
11151.009,201.0
11155.469,200.0
11159.931,190.0
11164.395,174.0
11168.86,186.0
11173.328,176.0
11177.798,198.0
11182.269,171.0
11186.741,206.0
11191.216,178.0
11195.692,183.0
11200.171,189.0
11204.651,208.0
11209.133,208.0
11213.616,193.0
11218.102,199.0
11222.589,189.0
11227.078,235.0
11231.569,205.0
11236.062,214.0
11240.556,199.0
11245.052,225.0
11249.55,204.0
11254.05,195.0
11258.552,219.0
11263.056,237.0
11267.561,214.0
11272.067,250.0
11276.576,214.0
11281.087,238.0
11285.6,238.0
11290.114,259.0
11294.63,237.0
11299.147,237.0
11303.667,254.0
11308.188,253.0
11312.712,269.0
11317.237,273.0
11321.765,291.0
11326.293,280.0
11330.823,280.0
11335.355,278.0
11339.89,302.0
11344.426,293.0
11348.964,327.0
11353.504,314.0
11358.045,337.0
11362.588,314.0
11367.133,310.0
11371.68,312.0
11376.229,337.0
11380.779,358.0
11385.332,378.0
11389.886,365.0
11394.441,335.0
11398.999,385.0
11403.559,359.0
11408.12,357.0
11412.684,397.0
11417.249,396.0
11421.816,376.0
11426.385,402.0
11430.955,400.0
11435.527,468.0
11440.102,416.0
11444.678,438.0
11449.256,518.0
11453.836,483.0
11458.417,442.0
11463.0,484.0
11467.585,454.0
11472.172,454.0
11476.761,493.0
11481.352,513.0
11485.944,515.0
11490.539,529.0
11495.136,519.0
11499.733,557.0
11504.333,489.0
11508.935,563.0
11513.538,564.0
11518.144,545.0
11522.751,535.0
11527.36,585.0
11531.972,579.0
11536.584,575.0
11541.198,581.0
11545.814,661.0
11550.433,598.0
11555.053,543.0
11559.675,645.0
11564.299,620.0
11568.925,613.0
11573.553,618.0
11578.183,607.0
11582.813,682.0
11587.446,538.0
11592.081,667.0
11596.718,682.0
11601.356,595.0
11605.997,571.0
11610.64,688.0
11615.284,667.0
11619.931,588.0
11624.579,650.0
11629.229,665.0
11633.88,524.0
11638.533,580.0
11643.188,724.0
11647.846,569.0
11652.505,488.0
11657.166,598.0
11661.829,665.0
11666.494,498.0
11671.161,489.0
11675.83,730.0
11680.5,678.0
11685.172,503.0
11689.846,486.0
11694.521,576.0
11699.199,502.0
11703.879,379.0
11708.561,428.0
11713.244,397.0
11717.93,337.0
11722.617,354.0
11727.307,388.0
11731.998,323.0
11736.69,352.0
11741.385,305.0
11746.081,283.0
11750.779,277.0
11755.4795,248.0
11760.182,284.0
11764.886,276.0
11769.592,285.0
11774.3,255.0
11779.01,257.0
11783.722,256.0
11788.436,260.0
11793.151,253.0
11797.868,249.0
11802.587,270.0
11807.308,216.0
11812.03,262.0
11816.755,202.0
11821.481,244.0
11826.21,229.0
11830.94,219.0
11835.673,202.0
11840.407,232.0
11845.144,206.0
11849.882,205.0
11854.622,227.0
11859.364,192.0
11864.108,192.0
11868.8545,199.0
11873.602,191.0
11878.351,182.0
11883.102,221.0
11887.8545,186.0
11892.609,187.0
11897.366,152.0
11902.125,161.0
11906.886,184.0
11911.648,156.0
11916.413,171.0
11921.18,173.0
11925.948,146.0
11930.719,155.0
11935.491,149.0
11940.266,177.0
11945.042,168.0
11949.82,176.0
11954.601,179.0
11959.383,177.0
11964.167,161.0
11968.953,147.0
11973.74,167.0
11978.529,154.0
11983.32,153.0
11988.113,140.0
11992.908,146.0
