M/Z,Intensity
800.0,115.0
800.32,165.0
800.64014,68.0
800.9604,149.0
801.28076,200.0
801.60126,66.0
801.9219,72.0
802.2426,144.0
802.56354,67.0
802.8846,160.0
803.20575,159.0
803.52704,75.0
803.84845,81.0
804.17,145.0
804.49164,77.0
804.8134,71.0
805.1353,109.0
805.4574,140.0
805.7796,33.0
806.1019,107.0
806.4244,196.0
806.74695,68.0
807.06964,112.0
807.39246,144.0
807.7154,53.0
808.03845,90.0
808.3617,179.0
808.68506,53.0
809.00854,97.0
809.33215,180.0
809.6559,61.0
809.97974,79.0
810.3037,180.0
810.6278,92.0
810.9521,102.0
811.2765,150.0
811.601,58.0
811.92566,74.0
812.2504,171.0
812.5753,65.0
812.9003,61.0
813.22546,129.0
813.5508,55.0
813.8762,74.0
814.2018,130.0
814.52747,81.0
814.8533,69.0
815.1792,149.0
815.50525,96.0
815.8314,62.0
816.1578,132.0
816.48425,109.0
816.81085,82.0
817.1376,134.0
817.4644,103.0
817.7914,71.0
818.11847,142.0
818.44574,121.0
818.77313,64.0
819.10065,110.0
819.4283,98.0
819.75604,49.0
820.0839,106.0
820.412,133.0
820.7402,58.0
821.0685,122.0
821.3969,121.0
821.72546,40.0
822.05414,81.0
822.38293,120.0
822.7119,55.0
823.041,129.0
823.37024,139.0
823.6996,56.0
824.02905,134.0
824.35864,143.0
824.6884,139.0
825.0183,1501.0
825.3483,181.0
825.67847,89.0
826.0087,680.0
826.3391,159.0
826.6696,59.0
827.0003,243.0
827.3311,129.0
827.66205,55.0
827.9931,119.0
828.3243,130.0
828.65564,56.0
828.9871,81.0
829.3187,138.0
829.65045,53.0
829.9823,82.0
830.3143,141.0
830.6464,51.0
830.9787,85.0
831.3111,124.0
831.6436,58.0
831.97626,86.0
832.309,141.0
832.64197,73.0
832.97504,93.0
833.3082,122.0
833.64154,44.0
833.975,81.0
834.3086,129.0
834.64233,57.0
834.9762,74.0
835.3102,161.0
835.6443,68.0
835.9785,87.0
836.3129,141.0
836.64746,59.0
836.9821,104.0
837.3169,134.0
837.6518,49.0
837.9869,100.0
838.3221,144.0
838.6574,79.0
838.99286,305.0
839.3284,125.0
839.6642,62.0
840.00006,168.0
840.33606,158.0
840.6722,68.0
841.0084,377.0
841.34485,151.0
841.6814,52.0
842.01807,189.0
842.35486,170.0
842.6918,49.0
843.0289,147.0
843.3661,139.0
843.7034,67.0
844.0409,91.0
844.37854,147.0
844.7163,61.0
845.0542,194.0
845.3922,165.0
845.73035,73.0
846.06866,148.0
846.4071,141.0
846.74567,57.0
847.08435,144.0
847.42316,136.0
847.76215,47.0
848.10126,114.0
848.4405,109.0
848.77985,65.0
849.1194,105.0
849.45905,96.0
849.7988,44.0
850.13873,113.0
850.47876,111.0
850.819,48.0
851.1593,114.0
851.49976,90.0
851.84033,65.0
852.1811,129.0
852.522,80.0
852.863,61.0
853.2041,125.0
853.5454,93.0
853.88684,69.0
854.2284,130.0
854.57007,66.0
854.9119,249.0
855.2539,139.0
855.596,48.0
855.93823,132.0
856.2806,134.0
856.6231,56.0
856.96576,113.0
857.30853,148.0
857.6514,53.0
857.9945,97.0
858.3377,157.0
858.681,61.0
859.0245,126.0
859.3681,123.0
859.71185,61.0
860.0557,96.0
860.3997,136.0
860.7439,335.0
861.0882,581.0
861.4326,133.0
861.77716,236.0
862.1219,245.0
862.46674,110.0
862.8117,170.0
863.15686,167.0
863.50214,94.0
863.84753,88.0
864.19305,131.0
864.53876,69.0
864.8846,67.0
865.2305,130.0
865.5766,96.0
865.92285,69.0
866.2692,151.0
866.6157,66.0
866.96234,115.0
867.30914,113.0
867.65607,46.0
868.0031,116.0
868.35034,126.0
868.6977,46.0
869.04517,82.0
869.39276,112.0
869.74054,44.0
870.08844,93.0
870.43646,96.0
870.7846,60.0
871.13293,94.0
871.4814,76.0
871.82996,61.0
872.1787,90.0
872.5276,66.0
872.8766,80.0
873.2257,120.0
873.575,66.0
873.92444,86.0
874.274,147.0
874.6237,58.0
874.9736,86.0
875.32355,115.0
875.6737,60.0
876.024,88.0
876.3744,143.0
876.7249,128.0
877.0756,194.0
877.42645,141.0
877.7774,122.0
878.12854,119.0
878.4798,115.0
878.8312,101.0
879.18274,113.0
879.5344,76.0
879.8862,62.0
880.23816,149.0
880.5903,67.0
880.9425,86.0
881.29486,116.0
881.6474,65.0
882.00006,73.0
882.35284,129.0
882.7058,54.0
883.0589,108.0
883.4121,104.0
883.7655,49.0
884.119,91.0
884.47266,87.0
884.8264,55.0
885.18036,93.0
885.5344,79.0
885.8886,57.0
886.243,123.0
886.5975,63.0
886.9521,63.0
887.3069,112.0
887.6618,59.0
888.01685,72.0
888.3721,101.0
888.7274,48.0
889.0829,80.0
889.43854,134.0
889.7943,57.0
890.1502,99.0
890.5063,88.0
890.8625,63.0
891.2188,125.0
891.5753,72.0
891.93195,65.0
892.2887,144.0
892.6456,58.0
893.0027,80.0
893.35986,149.0
893.7172,57.0
894.0747,98.0
894.4323,132.0
894.7901,52.0
895.148,108.0
895.50604,75.0
895.86426,56.0
896.2226,124.0
896.58105,60.0
896.9397,58.0
897.29846,105.0
897.6574,46.0
898.0165,74.0
898.3757,127.0
898.73505,44.0
899.09454,98.0
899.45416,97.0
899.81396,62.0
900.1739,118.0
900.53394,69.0
900.89417,45.0
901.2545,112.0
901.615,56.0
901.97565,59.0
902.3364,114.0
902.6974,53.0
903.0585,87.0
903.4197,96.0
903.78107,51.0
904.1426,126.0
904.5042,103.0
904.866,53.0
905.22797,108.0
905.5901,73.0
905.95233,63.0
906.3147,142.0
906.67725,42.0
907.0399,85.0
907.4027,107.0
907.7657,36.0
908.1288,84.0
908.49207,109.0
908.85547,59.0
909.219,110.0
909.5827,61.0
909.94653,61.0
910.3105,110.0
910.6746,52.0
911.0389,70.0
911.4033,96.0
911.7679,53.0
912.13257,107.0
912.49744,83.0
912.8624,50.0
913.2276,123.0
913.5929,63.0
913.9583,81.0
914.3239,101.0
914.68964,49.0
915.05554,78.0
915.4216,106.0
915.7877,41.0
916.15405,100.0
916.5205,78.0
916.88715,68.0
917.2539,132.0
917.6208,56.0
917.98785,62.0
918.35504,130.0
918.7224,38.0
919.0899,76.0
919.4575,115.0
919.8253,39.0
920.19324,129.0
920.56134,80.0
920.92957,67.0
921.2979,110.0
921.66644,50.0
922.0351,61.0
922.40393,104.0
922.7729,47.0
923.14197,92.0
923.5112,88.0
923.8806,59.0
924.2502,121.0
924.6199,48.0
924.98975,71.0
925.35974,116.0
925.72986,43.0
926.10016,83.0
926.4706,84.0
926.8412,52.0
927.2119,122.0
927.5828,75.0
927.95386,53.0
928.325,111.0
928.69635,46.0
929.0678,82.0
929.43945,83.0
929.8112,40.0
930.18317,94.0
930.55524,74.0
930.9274,61.0
931.2998,119.0
931.6723,53.0
932.045,63.0
932.4178,117.0
932.7908,49.0
933.1639,99.0
933.5372,109.0
933.9106,51.0
934.2841,140.0
934.65784,55.0
935.0317,58.0
935.4057,106.0
935.77985,40.0
936.1542,100.0
936.5286,72.0
936.90326,55.0
937.278,145.0
937.65295,52.0
938.028,66.0
938.4032,127.0
938.77856,49.0
939.15405,112.0
939.5297,83.0
939.9055,50.0
940.2815,104.0
940.6576,50.0
941.0339,76.0
941.4103,104.0
941.78687,41.0
942.1636,86.0
942.54047,73.0
942.9175,72.0
943.2947,110.0
943.672,42.0
944.04944,83.0
944.42706,119.0
944.8048,42.0
945.18274,86.0
945.5608,78.0
945.939,58.0
946.3174,111.0
946.6959,50.0
947.0746,71.0
947.4534,119.0
947.8324,49.0
948.21155,119.0
948.5908,78.0
948.9703,61.0
949.34985,134.0
949.7296,38.0
950.1095,84.0
950.48956,83.0
950.86975,44.0
951.2501,96.0
951.6306,51.0
952.0113,66.0
952.3921,128.0
952.7731,45.0
953.1542,99.0
953.53546,93.0
953.9169,41.0
954.29846,133.0
954.6802,48.0
955.0621,67.0
955.4441,125.0
955.8263,52.0
956.2086,99.0
956.5911,75.0
956.97375,49.0
957.35657,106.0
957.7395,44.0
958.1226,63.0
958.50586,86.0
958.8893,48.0
959.2728,109.0
959.65656,39.0
960.0404,80.0
960.42444,102.0
960.8086,51.0
961.19293,89.0
961.5774,70.0
961.96204,52.0
962.3468,120.0
962.73175,45.0
963.1168,78.0
963.5021,82.0
963.88745,44.0
964.273,114.0
964.6587,44.0
965.04456,78.0
965.4306,98.0
965.8168,48.0
966.2031,94.0
966.5896,66.0
966.97626,59.0
967.36304,102.0
967.75,46.0
968.1371,93.0
968.52435,92.0
968.91174,58.0
969.2993,103.0
969.687,62.0
970.0749,79.0
970.4629,102.0
970.8511,51.0
971.23944,84.0
971.6279,72.0
972.0166,58.0
972.4054,123.0
972.7944,42.0
973.1835,100.0
973.57275,86.0
973.96216,59.0
974.35175,114.0
974.7415,43.0
975.1314,90.0
975.5215,99.0
975.9117,51.0
976.30206,122.0
976.69257,50.0
977.08325,93.0
977.47406,101.0
977.86505,46.0
978.2562,125.0
978.6475,45.0
979.039,65.0
979.4306,101.0
979.8224,67.0
980.2143,96.0
980.6064,65.0
980.99866,52.0
981.39105,111.0
981.7836,48.0
982.17633,107.0
982.5692,82.0
982.9622,67.0
983.3554,100.0
983.7488,56.0
984.1423,85.0
984.53595,77.0
984.92975,57.0
985.3237,109.0
985.71783,50.0
986.1121,99.0
986.5066,87.0
986.9012,74.0
987.29596,114.0
987.69086,60.0
988.08594,63.0
988.4812,98.0
988.8766,49.0
989.27216,105.0
989.66785,49.0
990.0637,89.0
990.4597,96.0
990.8559,54.0
991.25226,107.0
991.64874,55.0
992.0454,94.0
992.4422,110.0
992.8392,38.0
993.2363,113.0
993.6336,68.0
994.03107,74.0
994.42865,92.0
994.8264,52.0
995.22437,102.0
995.62244,72.0
996.0207,81.0
996.4191,105.0
996.8177,59.0
997.21643,98.0
997.6153,64.0
998.01434,64.0
998.4136,100.0
998.8129,38.0
999.21246,98.0
999.6121,58.0
1000.01196,66.0
1000.412,102.0
1000.81213,52.0
1001.21246,108.0
1001.613,76.0
1002.0136,82.0
1002.4144,106.0
1002.81537,55.0
1003.2165,91.0
1003.6178,76.0
1004.0192,74.0
1004.42084,131.0
1004.82263,69.0
1005.22455,116.0
1005.62665,86.0
1006.0289,88.0
1006.4313,109.0
1006.83386,69.0
1007.2366,92.0
1007.63947,52.0
1008.04254,102.0
1008.44574,91.0
1008.8491,65.0
1009.2527,110.0
1009.6564,60.0
1010.06024,95.0
1010.4643,95.0
1010.86847,51.0
1011.2728,116.0
1011.6773,58.0
1012.082,78.0
1012.4868,88.0
1012.8918,65.0
1013.29694,110.0
1013.7023,65.0
1014.1077,128.0
1014.51337,95.0
1014.9192,76.0
1015.32513,114.0
1015.73126,62.0
1016.1376,84.0
1016.544,96.0
1016.9506,66.0
1017.3574,103.0
1017.76434,56.0
1018.17145,95.0
1018.57874,80.0
1018.98615,67.0
1019.39374,108.0
1019.8015,48.0
1020.2094,83.0
1020.6175,70.0
1021.02576,58.0
1021.43414,138.0
1021.8427,74.0
1022.25146,116.0
1022.66034,84.0
1023.0694,65.0
1023.47864,109.0
1023.888,61.0
1024.2976,105.0
1024.7073,59.0
1025.1172,89.0
1025.5272,104.0
1025.9374,56.0
1026.3478,118.0
1026.7583,58.0
1027.169,83.0
1027.5798,95.0
1027.9908,95.0
1028.4021,103.0
1028.8135,65.0
1029.225,109.0
1029.6367,93.0
1030.0486,149.0
1030.4606,93.0
1030.8728,81.0
1031.2852,109.0
1031.6976,58.0
1032.1104,85.0
1032.5232,90.0
1032.9362,65.0
1033.3494,117.0
1033.7627,62.0
1034.1761,108.0
1034.5898,64.0
1035.0037,77.0
1035.4177,85.0
1035.8319,64.0
1036.2462,91.0
1036.6608,80.0
1037.0754,66.0
1037.4902,108.0
1037.9053,62.0
1038.3204,123.0
1038.7357,57.0
1039.1512,86.0
1039.5669,89.0
1039.9827,51.0
1040.3987,115.0
1040.8148,43.0
1041.2312,97.0
1041.6477,89.0
1042.0643,69.0
1042.4812,107.0
1042.8982,61.0
1043.3153,106.0
1043.7327,83.0
1044.1501,95.0
1044.5677,96.0
1044.9856,81.0
1045.4036,115.0
1045.8218,74.0
1046.2401,95.0
1046.6586,89.0
1047.0773,76.0
1047.4961,116.0
1047.915,75.0
1048.3342,128.0
1048.7535,54.0
1049.1731,84.0
1049.5928,93.0
1050.0126,174.0
1050.4326,109.0
1050.8528,100.0
1051.2731,109.0
1051.6936,69.0
1052.1143,89.0
1052.5352,93.0
1052.9562,86.0
1053.3773,121.0
1053.7987,89.0
1054.2202,94.0
1054.6418,80.0
1055.0637,86.0
1055.4857,92.0
1055.908,84.0
1056.3303,133.0
1056.7528,65.0
1057.1755,99.0
1057.5984,98.0
1058.0215,52.0
1058.4447,124.0
1058.868,57.0
1059.2916,132.0
1059.7153,68.0
1060.1392,90.0
1060.5632,146.0
1060.9874,66.0
1061.4119,115.0
1061.8364,57.0
1062.2611,118.0
1062.686,63.0
1063.1111,86.0
1063.5364,118.0
1063.9618,81.0
1064.3873,109.0
1064.8131,54.0
1065.239,100.0
1065.6652,117.0
1066.0914,202.0
1066.5178,103.0
1066.9445,162.0
1067.3712,113.0
1067.7982,92.0
1068.2253,96.0
1068.6526,88.0
1069.0801,93.0
1069.5077,95.0
1069.9355,78.0
1070.3635,126.0
1070.7916,67.0
1071.22,76.0
1071.6484,88.0
1072.0771,121.0
1072.506,120.0
1072.9349,91.0
1073.3641,119.0
1073.7935,75.0
1074.223,121.0
1074.6527,84.0
1075.0825,77.0
1075.5126,119.0
1075.9427,66.0
1076.3732,126.0
1076.8037,57.0
1077.2344,91.0
1077.6653,73.0
1078.0963,120.0
1078.5276,86.0
1078.959,104.0
1079.3906,117.0
1079.8224,74.0
1080.2543,94.0
1080.6864,75.0
1081.1187,66.0
1081.5511,102.0
1081.9838,85.0
1082.4165,96.0
1082.8495,57.0
1083.2826,113.0
1083.716,62.0
1084.1494,78.0
1084.5831,96.0
1085.017,81.0
1085.4509,101.0
1085.8851,42.0
1086.3195,127.0
1086.754,55.0
1087.1887,88.0
1087.6235,94.0
1088.0586,86.0
1088.4938,94.0
1088.9292,78.0
1089.3647,100.0
1089.8005,69.0
1090.2365,109.0
1090.6725,72.0
1091.1088,74.0
1091.5452,119.0
1091.9818,72.0
1092.4186,100.0
1092.8556,67.0
1093.2927,113.0
1093.7301,74.0
1094.1676,106.0
1094.6052,92.0
1095.0431,89.0
1095.4811,115.0
1095.9193,63.0
1096.3577,96.0
1096.7963,69.0
1097.235,89.0
1097.6738,74.0
1098.1129,76.0
1098.5521,98.0
1098.9916,64.0
1099.4312,104.0
1099.871,78.0
1100.3109,112.0
1100.751,55.0
1101.1913,98.0
1101.6317,76.0
1102.0724,61.0
1102.5132,99.0
1102.9542,52.0
1103.3954,111.0
1103.8368,61.0
1104.2783,111.0
1104.72,57.0
1105.1619,88.0
1105.6039,98.0
1106.0461,73.0
1106.4885,110.0
1106.9312,69.0
1107.3739,92.0
1107.8169,51.0
1108.26,110.0
1108.7034,77.0
1109.1469,78.0
1109.5905,87.0
1110.0343,59.0
1110.4783,103.0
1110.9225,64.0
1111.3668,90.0
1111.8114,65.0
1112.2561,94.0
1112.701,57.0
1113.1461,75.0
1113.5914,79.0
1114.0369,67.0
1114.4824,99.0
1114.9282,67.0
1115.3741,95.0
1115.8203,57.0
1116.2666,94.0
1116.7131,59.0
1117.1598,80.0
1117.6067,98.0
1118.0537,82.0
1118.501,96.0
1118.9484,69.0
1119.396,109.0
1119.8438,61.0
1120.2917,104.0
1120.7399,50.0
1121.1881,74.0
1121.6366,90.0
1122.0852,74.0
1122.534,86.0
1122.983,60.0
1123.4323,105.0
1123.8816,61.0
1124.3312,109.0
1124.7809,51.0
1125.2308,96.0
1125.6809,76.0
1126.1312,66.0
1126.5817,98.0
1127.0323,70.0
1127.4832,95.0
1127.9342,48.0
1128.3854,103.0
1128.8367,52.0
1129.2882,106.0
1129.7399,64.0
1130.1918,68.0
1130.6438,76.0
1131.0961,73.0
1131.5485,93.0
1132.0011,75.0
1132.4539,99.0
1132.9069,45.0
1133.36,114.0
1133.8134,64.0
1134.2668,100.0
1134.7206,77.0
1135.1744,87.0
1135.6285,102.0
1136.0828,82.0
1136.5372,115.0
1136.9918,58.0
1137.4467,97.0
1137.9016,64.0
1138.3568,119.0
1138.8121,51.0
1139.2677,87.0
1139.7234,73.0
1140.1793,60.0
1140.6354,74.0
1141.0917,78.0
1141.5481,90.0
1142.0048,72.0
1142.4615,99.0
1142.9186,55.0
1143.3757,94.0
1143.8331,62.0
1144.2906,85.0
1144.7484,68.0
1145.2063,93.0
1145.6644,66.0
1146.1227,77.0
1146.5812,92.0
1147.0398,70.0
1147.4987,82.0
1147.9576,57.0
1148.4169,124.0
1148.8762,73.0
1149.3358,128.0
1149.7955,64.0
1150.2555,105.0
1150.7156,97.0
1151.1759,81.0
1151.6364,84.0
1152.097,69.0
1152.5579,97.0
1153.0189,59.0
1153.4801,95.0
1153.9415,59.0
1154.4031,92.0
1154.8649,58.0
1155.3268,101.0
1155.789,65.0
1156.2512,113.0
1156.7137,66.0
1157.1764,82.0
1157.6393,79.0
1158.1023,87.0
1158.5656,98.0
1159.0289,86.0
1159.4926,106.0
1159.9563,63.0
1160.4203,104.0
1160.8844,75.0
1161.3488,96.0
1161.8134,54.0
1162.2781,84.0
1162.743,54.0
1163.2081,93.0
1163.6735,75.0
1164.1389,87.0
1164.6046,92.0
1165.0704,56.0
1165.5365,96.0
1166.0027,63.0
1166.4691,101.0
1166.9357,69.0
1167.4025,107.0
1167.8694,62.0
1168.3365,105.0
1168.8038,59.0
1169.2714,107.0
1169.739,81.0
1170.2069,73.0
1170.675,88.0
1171.1433,85.0
1171.6118,93.0
1172.0804,77.0
1172.5493,103.0
1173.0183,68.0
1173.4875,107.0
1173.9569,67.0
1174.4265,94.0
1174.8962,65.0
1175.3662,105.0
1175.8363,70.0
1176.3066,95.0
1176.7772,68.0
1177.2479,100.0
1177.7189,65.0
1178.19,92.0
1178.6613,78.0
1179.1327,67.0
1179.6044,79.0
1180.0762,78.0
1180.5482,88.0
1181.0204,63.0
1181.4928,125.0
1181.9655,65.0
1182.4382,96.0
1182.9113,66.0
1183.3844,93.0
1183.8578,63.0
1184.3313,95.0
1184.805,60.0
1185.2789,96.0
1185.753,78.0
1186.2273,73.0
1186.7018,88.0
1187.1765,91.0
1187.6514,104.0
1188.1265,85.0
1188.6017,89.0
1189.0771,70.0
1189.5527,89.0
1190.0286,49.0
1190.5045,88.0
1190.9807,68.0
1191.4572,109.0
1191.9337,74.0
1192.4105,115.0
1192.8875,58.0
1193.3646,130.0
1193.8419,72.0
1194.3195,98.0
1194.7972,59.0
1195.2751,102.0
1195.7533,66.0
1196.2316,104.0
1196.7101,69.0
1197.1887,74.0
1197.6676,99.0
1198.1467,66.0
1198.626,90.0
1199.1055,68.0
1199.5851,108.0
1200.065,70.0
1200.5449,90.0
1201.0251,62.0
1201.5056,78.0
1201.9862,56.0
1202.467,86.0
1202.948,74.0
1203.4292,91.0
1203.9105,66.0
1204.3921,115.0
1204.8739,55.0
1205.3558,105.0
1205.838,63.0
1206.3203,105.0
1206.8029,47.0
1207.2855,106.0
1207.7684,74.0
1208.2516,86.0
1208.7349,59.0
1209.2184,93.0
1209.702,78.0
1210.1859,78.0
1210.67,81.0
1211.1543,65.0
1211.6388,91.0
1212.1234,68.0
1212.6083,87.0
1213.0933,67.0
1213.5785,99.0
1214.064,71.0
1214.5496,90.0
1215.0354,67.0
1215.5214,95.0
1216.0076,63.0
1216.494,103.0
1216.9806,64.0
1217.4674,95.0
1217.9543,67.0
1218.4415,104.0
1218.929,67.0
1219.4165,92.0
1219.9043,69.0
1220.3922,87.0
1220.8804,59.0
1221.3688,119.0
1221.8573,59.0
1222.3461,98.0
1222.835,62.0
1223.3241,111.0
1223.8135,64.0
1224.303,104.0
1224.7927,68.0
1225.2826,78.0
1225.7727,78.0
1226.2631,79.0
1226.7535,77.0
1227.2443,89.0
1227.7351,85.0
1228.2262,81.0
1228.7175,88.0
1229.209,75.0
1229.7007,68.0
1230.1925,76.0
1230.6846,84.0
1231.1769,81.0
1231.6693,80.0
1232.162,105.0
1232.6549,80.0
1233.148,76.0
1233.6412,82.0
1234.1346,62.0
1234.6283,106.0
1235.1222,76.0
1235.6162,92.0
1236.1105,90.0
1236.6049,81.0
1237.0995,62.0
1237.5944,94.0
1238.0894,68.0
1238.5846,104.0
1239.0801,85.0
1239.5757,85.0
1240.0715,69.0
1240.5675,96.0
1241.0637,68.0
1241.5602,83.0
1242.0568,73.0
1242.5536,94.0
1243.0507,57.0
1243.5479,104.0
1244.0453,62.0
1244.5428,83.0
1245.0406,69.0
1245.5387,92.0
1246.0369,78.0
1246.5353,118.0
1247.0339,89.0
1247.5327,96.0
1248.0317,78.0
1248.531,108.0
1249.0304,77.0
1249.53,93.0
1250.0298,73.0
1250.5298,104.0
1251.03,59.0
1251.5304,114.0
1252.031,60.0
1252.5319,107.0
1253.0328,71.0
1253.534,82.0
1254.0355,81.0
1254.5371,89.0
1255.039,80.0
1255.541,97.0
1256.0432,59.0
1256.5457,83.0
1257.0482,91.0
1257.551,95.0
1258.0541,67.0
1258.5573,99.0
1259.0607,75.0
1259.5643,95.0
1260.0681,76.0
1260.5721,101.0
1261.0764,85.0
1261.5808,102.0
1262.0854,74.0
1262.5903,74.0
1263.0953,97.0
1263.6006,84.0
1264.1061,88.0
1264.6117,110.0
1265.1176,85.0
1265.6237,84.0
1266.1299,79.0
1266.6364,107.0
1267.1431,80.0
1267.6499,78.0
1268.157,73.0
1268.6642,65.0
1269.1716,71.0
1269.6793,63.0
1270.1871,85.0
1270.6952,87.0
1271.2035,79.0
1271.7119,107.0
1272.2206,90.0
1272.7295,85.0
1273.2385,71.0
1273.7478,80.0
1274.2573,76.0
1274.767,76.0
1275.2769,89.0
1275.787,91.0
1276.2972,98.0
1276.8077,121.0
1277.3185,96.0
1277.8295,102.0
1278.3406,83.0
1278.8519,72.0
1279.3635,131.0
1279.8752,83.0
1280.3872,105.0
1280.8994,74.0
1281.4117,92.0
1281.9243,71.0
1282.4371,98.0
1282.9501,75.0
1283.4633,107.0
1283.9767,86.0
1284.4902,113.0
1285.004,72.0
1285.5181,95.0
1286.0322,58.0
1286.5466,92.0
1287.0613,73.0
1287.576,81.0
1288.0911,75.0
1288.6063,107.0
1289.1218,77.0
1289.6375,98.0
1290.1533,95.0
1290.6694,79.0
1291.1857,89.0
1291.7021,74.0
1292.2189,90.0
1292.7357,85.0
1293.2528,79.0
1293.7701,88.0
1294.2876,98.0
1294.8053,75.0
1295.3232,85.0
1295.8414,55.0
1296.3597,89.0
1296.8783,71.0
1297.3971,96.0
1297.916,63.0
1298.4352,92.0
1298.9546,72.0
1299.4741,112.0
1299.9939,62.0
1300.5139,89.0
1301.0342,70.0
1301.5546,125.0
1302.0752,58.0
1302.5961,80.0
1303.1171,90.0
1303.6383,101.0
1304.1598,80.0
1304.6814,111.0
1305.2032,86.0
1305.7253,106.0
1306.2477,88.0
1306.7701,86.0
1307.2928,97.0
1307.8158,59.0
1308.3389,74.0
1308.8622,66.0
1309.3857,96.0
1309.9095,68.0
1310.4335,92.0
1310.9576,69.0
1311.482,91.0
1312.0066,67.0
1312.5314,96.0
1313.0564,63.0
1313.5817,82.0
1314.107,63.0
1314.6327,113.0
1315.1586,79.0
1315.6847,86.0
1316.2109,66.0
1316.7374,64.0
1317.2642,78.0
1317.791,77.0
1318.3181,82.0
1318.8455,50.0
1319.373,112.0
1319.9008,51.0
1320.4287,91.0
1320.9569,59.0
1321.4854,86.0
1322.0139,63.0
1322.5427,102.0
1323.0718,66.0
1323.601,94.0
1324.1304,69.0
1324.66,88.0
1325.19,77.0
1325.72,87.0
1326.2502,85.0
1326.7808,81.0
1327.3115,82.0
1327.8424,68.0
1328.3735,106.0
1328.9049,69.0
1329.4365,102.0
1329.9683,48.0
1330.5002,103.0
1331.0325,68.0
1331.565,101.0
1332.0975,61.0
1332.6304,111.0
1333.1635,68.0
1333.6968,90.0
1334.2302,73.0
1334.7639,77.0
1335.2979,73.0
1335.832,74.0
1336.3663,89.0
1336.9009,61.0
1337.4357,101.0
1337.9707,66.0
1338.5059,92.0
1339.0413,62.0
1339.5769,81.0
1340.1128,56.0
1340.6488,83.0
1341.185,74.0
1341.7216,85.0
1342.2583,82.0
1342.7952,81.0
1343.3323,88.0
1343.8696,58.0
1344.4072,81.0
1344.945,68.0
1345.4829,91.0
1346.0211,65.0
1346.5596,106.0
1347.0981,54.0
1347.637,95.0
1348.176,72.0
1348.7153,92.0
1349.2548,88.0
1349.7944,84.0
1350.3344,91.0
1350.8745,80.0
1351.4149,82.0
1351.9554,66.0
1352.4962,87.0
1353.0372,70.0
1353.5785,87.0
1354.1199,81.0
1354.6615,99.0
1355.2034,62.0
1355.7455,96.0
1356.2878,97.0
1356.8303,82.0
1357.373,82.0
1357.916,68.0
1358.4592,111.0
1359.0026,63.0
1359.5461,88.0
1360.09,74.0
1360.634,91.0
1361.1783,77.0
1361.7228,88.0
1362.2675,100.0
1362.8124,68.0
1363.3575,98.0
1363.9028,69.0
1364.4484,88.0
1364.9941,73.0
1365.5402,89.0
1366.0864,72.0
1366.6328,105.0
1367.1794,64.0
1367.7263,78.0
1368.2734,80.0
1368.8208,61.0
1369.3683,80.0
1369.916,58.0
1370.464,104.0
1371.0122,72.0
1371.5607,77.0
1372.1093,75.0
1372.6581,91.0
1373.2072,66.0
1373.7565,79.0
1374.306,88.0
1374.8557,79.0
1375.4056,89.0
1375.9558,79.0
1376.5062,108.0
1377.0569,69.0
1377.6077,104.0
1378.1587,63.0
1378.71,101.0
1379.2615,92.0
1379.8132,77.0
1380.3651,98.0
1380.9172,76.0
1381.4696,92.0
1382.0222,72.0
1382.5751,82.0
1383.128,79.0
1383.6813,95.0
1384.2347,86.0
1384.7885,89.0
1385.3424,101.0
1385.8965,74.0
1386.4508,97.0
1387.0054,62.0
1387.5602,89.0
1388.1152,75.0
1388.6705,101.0
1389.226,91.0
1389.7816,63.0
1390.3375,83.0
1390.8937,69.0
1391.4501,94.0
1392.0067,61.0
1392.5635,84.0
1393.1205,78.0
1393.6777,82.0
1394.2352,78.0
1394.793,86.0
1395.3508,92.0
1395.9089,66.0
1396.4673,82.0
1397.0259,64.0
1397.5847,108.0
1398.1438,74.0
1398.703,101.0
1399.2625,87.0
1399.8221,95.0
1400.3821,94.0
1400.9423,73.0
1401.5027,93.0
1402.0632,67.0
1402.624,92.0
1403.185,85.0
1403.7463,70.0
1404.3079,101.0
1404.8696,89.0
1405.4315,132.0
1405.9937,77.0
1406.556,115.0
1407.1187,76.0
1407.6815,86.0
1408.2446,89.0
1408.808,85.0
1409.3715,80.0
1409.9352,72.0
1410.4991,92.0
1411.0634,72.0
1411.6278,82.0
1412.1925,72.0
1412.7573,83.0
1413.3224,93.0
1413.8877,78.0
1414.4532,108.0
1415.019,74.0
1415.5851,114.0
1416.1514,60.0
1416.7178,100.0
1417.2844,90.0
1417.8513,65.0
1418.4185,87.0
1418.9858,62.0
1419.5535,106.0
1420.1213,82.0
1420.6893,82.0
1421.2576,79.0
1421.826,77.0
1422.3948,113.0
1422.9637,81.0
1423.533,105.0
1424.1024,70.0
1424.672,83.0
1425.2418,84.0
1425.8119,87.0
1426.3822,110.0
1426.9528,67.0
1427.5236,105.0
1428.0946,73.0
1428.6659,91.0
1429.2373,77.0
1429.809,96.0
1430.3809,97.0
1430.953,66.0
1431.5254,106.0
1432.098,84.0
1432.6709,99.0
1433.244,102.0
1433.8173,90.0
1434.3907,108.0
1434.9645,79.0
1435.5385,113.0
1436.1127,86.0
1436.6871,99.0
1437.2618,97.0
1437.8368,85.0
1438.412,115.0
1438.9873,70.0
1439.5629,101.0
1440.1387,64.0
1440.7147,106.0
1441.291,80.0
1441.8676,76.0
1442.4443,93.0
1443.0214,73.0
1443.5985,113.0
1444.1759,71.0
1444.7535,84.0
1445.3314,79.0
1445.9095,71.0
1446.4879,97.0
1447.0665,71.0
1447.6454,92.0
1448.2245,92.0
1448.8038,94.0
1449.3833,108.0
1449.963,66.0
1450.543,123.0
1451.1232,74.0
1451.7036,78.0
1452.2843,84.0
1452.8652,79.0
1453.4464,118.0
1454.0278,89.0
1454.6095,88.0
1455.1913,88.0
1455.7733,89.0
1456.3556,103.0
1456.9381,71.0
1457.5209,87.0
1458.1039,69.0
1458.6871,102.0
1459.2706,90.0
1459.8544,81.0
1460.4384,99.0
1461.0226,64.0
1461.6069,96.0
1462.1915,85.0
1462.7764,97.0
1463.3615,111.0
1463.9468,80.0
1464.5323,98.0
1465.1182,69.0
1465.7042,100.0
1466.2905,60.0
1466.8771,77.0
1467.4639,110.0
1468.0509,59.0
1468.6382,105.0
1469.2256,66.0
1469.8132,75.0
1470.4011,87.0
1470.9893,61.0
1471.5776,85.0
1472.1663,64.0
1472.7551,70.0
1473.3442,77.0
1473.9336,78.0
1474.5232,111.0
1475.113,66.0
1475.7031,110.0
1476.2935,83.0
1476.884,82.0
1477.4747,90.0
1478.0657,71.0
1478.6569,112.0
1479.2483,77.0
1479.84,99.0
1480.4319,81.0
1481.024,79.0
1481.6165,85.0
1482.2091,79.0
1482.802,87.0
1483.3951,89.0
1483.9885,59.0
1484.5822,105.0
1485.176,66.0
1485.7701,94.0
1486.3645,101.0
1486.9591,58.0
1487.5538,101.0
1488.1488,78.0
1488.744,103.0
1489.3395,77.0
1489.9352,65.0
1490.5311,94.0
1491.1273,61.0
1491.7238,80.0
1492.3204,79.0
1492.9174,66.0
1493.5145,90.0
1494.1119,78.0
1494.7096,90.0
1495.3075,84.0
1495.9056,98.0
1496.504,91.0
1497.1027,67.0
1497.7015,81.0
1498.3007,76.0
1498.9,74.0
1499.4996,75.0
1500.0995,75.0
1500.6996,95.0
1501.2998,73.0
1501.9003,79.0
1502.501,99.0
1503.1019,76.0
1503.7031,108.0
1504.3046,76.0
1504.9062,93.0
1505.5082,92.0
1506.1104,74.0
1506.7128,101.0
1507.3154,94.0
1507.9183,73.0
1508.5215,109.0
1509.1249,59.0
1509.7285,88.0
1510.3324,81.0
1510.9365,71.0
1511.5409,88.0
1512.1455,79.0
1512.7504,145.0
1513.3555,116.0
1513.9608,96.0
1514.5664,111.0
1515.1722,66.0
1515.7783,102.0
1516.3846,101.0
1516.9912,77.0
1517.598,101.0
1518.2051,78.0
1518.8124,85.0
1519.4199,91.0
1520.0277,56.0
1520.6357,86.0
1521.244,77.0
1521.8525,79.0
1522.4613,97.0
1523.0703,73.0
1523.6796,94.0
1524.2891,87.0
1524.8988,68.0
1525.5088,102.0
1526.119,73.0
1526.7295,98.0
1527.3402,98.0
1527.9512,61.0
1528.5624,94.0
1529.1738,68.0
1529.7855,84.0
1530.3975,88.0
1531.0096,66.0
1531.6221,97.0
1532.2347,90.0
1532.8477,66.0
1533.4608,85.0
1534.0742,70.0
1534.6879,94.0
1535.3018,98.0
1535.9159,80.0
1536.5303,88.0
1537.1449,62.0
1537.7598,81.0
1538.3749,94.0
1538.9902,60.0
1539.6058,87.0
1540.2217,68.0
1540.8378,85.0
1541.4541,78.0
1542.0707,71.0
1542.6875,96.0
1543.3046,70.0
1543.9219,80.0
1544.5394,103.0
1545.1572,77.0
1545.7753,88.0
1546.3936,95.0
1547.0121,92.0
1547.6309,78.0
1548.2499,60.0
1548.8691,94.0
1549.4886,92.0
1550.1084,67.0
1550.7284,66.0
1551.3486,86.0
1551.9691,51.0
1552.5898,88.0
1553.2109,74.0
1553.8323,75.0
1554.4539,74.0
1555.0757,59.0
1555.6978,95.0
1556.3201,81.0
1556.9426,76.0
1557.5654,100.0
1558.1885,69.0
1558.8118,112.0
1559.4353,85.0
1560.0591,89.0
1560.6831,91.0
1561.3074,83.0
1561.9319,77.0
1562.5566,106.0
1563.1816,65.0
1563.8069,76.0
1564.4324,98.0
1565.0581,70.0
1565.6841,76.0
1566.3103,79.0
1566.9368,79.0
1567.5636,90.0
1568.1907,55.0
1568.818,92.0
1569.4456,105.0
1570.0734,63.0
1570.7014,102.0
1571.3297,91.0
1571.9583,85.0
1572.587,78.0
1573.2161,67.0
1573.8453,73.0
1574.4749,90.0
1575.1046,50.0
1575.7346,101.0
1576.3649,71.0
1576.9954,64.0
1577.6261,82.0
1578.2572,89.0
1578.8885,87.0
1579.5201,90.0
1580.152,69.0
1580.784,92.0
1581.4164,89.0
1582.049,64.0
1582.6818,99.0
1583.3148,77.0
1583.9481,67.0
1584.5817,87.0
1585.2155,70.0
1585.8495,79.0
1586.4839,89.0
1587.1185,68.0
1587.7534,94.0
1588.3885,73.0
1589.0239,75.0
1589.6595,104.0
1590.2954,65.0
1590.9315,83.0
1591.5679,85.0
1592.2045,77.0
1592.8413,64.0
1593.4784,91.0
1594.1158,80.0
1594.7535,79.0
1595.3915,89.0
1596.0297,61.0
1596.6681,76.0
1597.3068,80.0
1597.9457,88.0
1598.5848,103.0
1599.2242,64.0
1599.8639,78.0
1600.5038,72.0
1601.144,69.0
1601.7845,86.0
1602.4253,87.0
1603.0663,78.0
1603.7075,125.0
1604.349,92.0
1604.9907,76.0
1605.6327,89.0
1606.2749,73.0
1606.9174,77.0
1607.5602,81.0
1608.2032,72.0
1608.8466,70.0
1609.4901,84.0
1610.1339,75.0
1610.778,90.0
1611.4222,80.0
1612.0668,61.0
1612.7115,79.0
1613.3567,92.0
1614.0021,91.0
1614.6477,100.0
1615.2936,71.0
1615.9397,78.0
1616.586,95.0
1617.2327,90.0
1617.8795,84.0
1618.5266,84.0
1619.1741,69.0
1619.8218,103.0
1620.4697,111.0
1621.1179,74.0
1621.7664,95.0
1622.415,83.0
1623.064,85.0
1623.7131,83.0
1624.3627,88.0
1625.0125,76.0
1625.6625,81.0
1626.3127,75.0
1626.9633,79.0
1627.614,92.0
1628.265,73.0
1628.9163,86.0
1629.5679,107.0
1630.2197,83.0
1630.8718,100.0
1631.5242,102.0
1632.1768,73.0
1632.8296,97.0
1633.4827,89.0
1634.1361,81.0
1634.7898,84.0
1635.4437,83.0
1636.0979,78.0
1636.7523,93.0
1637.407,79.0
1638.0619,56.0
1638.7172,87.0
1639.3727,84.0
1640.0284,89.0
1640.6844,115.0
1641.3407,71.0
1641.9972,74.0
1642.6539,116.0
1643.311,81.0
1643.9684,73.0
1644.626,116.0
1645.2838,84.0
1645.9419,82.0
1646.6002,107.0
1647.2589,76.0
1647.9178,91.0
1648.577,92.0
1649.2365,79.0
1649.8961,66.0
1650.556,86.0
1651.2163,60.0
1651.8768,82.0
1652.5376,74.0
1653.1986,69.0
1653.8599,66.0
1654.5214,88.0
1655.1832,62.0
1655.8453,90.0
1656.5077,97.0
1657.1703,58.0
1657.8331,98.0
1658.4962,72.0
1659.1597,78.0
1659.8234,72.0
1660.4873,86.0
1661.1515,69.0
1661.8159,84.0
1662.4806,85.0
1663.1456,71.0
1663.8109,83.0
1664.4764,85.0
1665.1422,59.0
1665.8082,88.0
1666.4746,74.0
1667.1412,64.0
1667.8081,97.0
1668.4752,81.0
1669.1426,64.0
1669.8102,77.0
1670.4781,92.0
1671.1464,51.0
1671.8148,60.0
1672.4835,85.0
1673.1525,64.0
1673.8218,91.0
1674.4913,82.0
1675.1611,70.0
1675.8312,76.0
1676.5015,85.0
1677.1721,67.0
1677.843,72.0
1678.5142,79.0
1679.1855,66.0
1679.8572,96.0
1680.5292,81.0
1681.2014,73.0
1681.8739,97.0
1682.5466,95.0
1683.2196,77.0
1683.893,90.0
1684.5665,98.0
1685.2404,71.0
1685.9144,69.0
1686.5887,95.0
1687.2634,61.0
1687.9384,60.0
1688.6135,72.0
1689.289,75.0
1689.9646,69.0
1690.6406,82.0
1691.3169,62.0
1691.9934,84.0
1692.6702,71.0
1693.3473,70.0
1694.0247,73.0
1694.7023,70.0
1695.3801,68.0
1696.0582,59.0
1696.7367,76.0
1697.4154,62.0
1698.0944,61.0
1698.7736,80.0
1699.4531,88.0
1700.1329,59.0
1700.813,78.0
1701.4933,80.0
1702.1738,58.0
1702.8547,85.0
1703.5359,86.0
1704.2173,60.0
1704.8989,72.0
1705.5809,87.0
1706.2632,73.0
1706.9457,81.0
1707.6284,83.0
1708.3115,64.0
1708.9949,70.0
1709.6785,89.0
1710.3623,70.0
1711.0465,68.0
1711.731,100.0
1712.4156,81.0
1713.1006,75.0
1713.7858,76.0
1714.4713,73.0
1715.1571,65.0
1715.8431,79.0
1716.5294,78.0
1717.2161,68.0
1717.903,70.0
1718.5901,82.0
1719.2775,76.0
1719.9652,70.0
1720.6532,71.0
1721.3414,59.0
1722.0299,71.0
1722.7188,88.0
1723.4078,60.0
1724.0972,66.0
1724.7869,82.0
1725.4768,57.0
1726.167,67.0
1726.8574,82.0
1727.5482,85.0
1728.2393,66.0
1728.9305,81.0
1729.6221,66.0
1730.314,79.0
1731.0061,71.0
1731.6985,86.0
1732.3911,75.0
1733.0841,58.0
1733.7773,62.0
1734.4708,73.0
1735.1647,64.0
1735.8588,86.0
1736.5531,76.0
1737.2477,73.0
1737.9426,85.0
1738.6378,86.0
1739.3333,76.0
1740.0289,62.0
1740.725,62.0
1741.4213,72.0
1742.1178,60.0
1742.8147,69.0
1743.5118,76.0
1744.2092,56.0
1744.9069,81.0
1745.6049,81.0
1746.3031,61.0
1747.0016,55.0
1747.7004,77.0
1748.3995,64.0
1749.0989,69.0
1749.7985,81.0
1750.4984,83.0
1751.1986,48.0
1751.899,70.0
1752.5999,74.0
1753.3009,74.0
1754.0022,74.0
1754.7039,78.0
1755.4058,56.0
1756.1079,75.0
1756.8103,79.0
1757.5131,69.0
1758.2161,62.0
1758.9193,82.0
1759.6229,90.0
1760.3268,72.0
1761.0309,61.0
1761.7354,52.0
1762.4401,70.0
1763.145,71.0
1763.8502,76.0
1764.5558,80.0
1765.2616,54.0
1765.9677,74.0
1766.6741,74.0
1767.3807,62.0
1768.0876,60.0
1768.7949,79.0
1769.5024,77.0
1770.2102,47.0
1770.9183,74.0
1771.6267,93.0
1772.3353,58.0
1773.0443,61.0
1773.7535,79.0
1774.463,74.0
1775.1729,62.0
1775.8829,61.0
1776.5933,57.0
1777.304,66.0
1778.0149,54.0
1778.7261,82.0
1779.4376,58.0
1780.1494,52.0
1780.8615,91.0
1781.5739,70.0
1782.2865,70.0
1782.9994,77.0
1783.7126,74.0
1784.4261,68.0
1785.1399,68.0
1785.854,69.0
1786.5684,92.0
1787.283,74.0
1787.9979,69.0
1788.7131,87.0
1789.4286,83.0
1790.1444,59.0
1790.8605,70.0
1791.5768,76.0
1792.2935,79.0
1793.0104,63.0
1793.7275,76.0
1794.4451,76.0
1795.1628,51.0
1795.8809,72.0
1796.5992,77.0
1797.3179,57.0
1798.0367,80.0
1798.756,78.0
1799.4755,64.0
1800.1953,63.0
1800.9154,75.0
1801.6357,80.0
1802.3564,57.0
1803.0774,66.0
1803.7986,81.0
1804.5201,62.0
1805.242,66.0
1805.964,79.0
1806.6864,97.0
1807.409,78.0
1808.1321,66.0
1808.8553,78.0
1809.5789,73.0
1810.3027,67.0
1811.0269,75.0
1811.7512,82.0
1812.476,78.0
1813.2009,66.0
1813.9261,64.0
1814.6517,80.0
1815.3776,66.0
1816.1038,67.0
1816.8302,63.0
1817.5569,77.0
1818.2839,74.0
1819.0112,79.0
1819.7389,51.0
1820.4668,72.0
1821.195,69.0
1821.9235,73.0
1822.6522,69.0
1823.3812,79.0
1824.1106,64.0
1824.8402,73.0
1825.5702,83.0
1826.3004,69.0
1827.0309,74.0
1827.7617,88.0
1828.4928,77.0
1829.2242,63.0
1829.9559,60.0
1830.6879,70.0
1831.4202,82.0
1832.1527,60.0
1832.8856,63.0
1833.6188,81.0
1834.3522,62.0
1835.0859,56.0
1835.82,66.0
1836.5543,96.0
1837.289,55.0
1838.0238,84.0
1838.759,99.0
1839.4945,68.0
1840.2303,55.0
1840.9664,106.0
1841.7028,64.0
1842.4395,68.0
1843.1764,63.0
1843.9137,72.0
1844.6512,62.0
1845.3892,56.0
1846.1273,53.0
1846.8657,69.0
1847.6045,75.0
1848.3435,65.0
1849.0829,64.0
1849.8225,79.0
1850.5624,59.0
1851.3026,70.0
1852.0431,64.0
1852.7839,76.0
1853.525,84.0
1854.2665,43.0
1855.0082,68.0
1855.7501,79.0
1856.4924,88.0
1857.235,69.0
1857.9779,77.0
1858.7211,88.0
1859.4646,63.0
1860.2084,42.0
1860.9525,58.0
1861.6969,72.0
1862.4415,77.0
1863.1865,62.0
1863.9318,63.0
1864.6774,70.0
1865.4232,70.0
1866.1694,55.0
1866.9159,77.0
1867.6627,89.0
1868.4098,84.0
1869.1571,79.0
1869.9048,70.0
1870.6527,73.0
1871.401,51.0
1872.1495,75.0
1872.8984,81.0
1873.6476,78.0
1874.3971,62.0
1875.1469,78.0
1875.8969,107.0
1876.6472,100.0
1877.3978,98.0
1878.1488,64.0
1878.9,75.0
1879.6516,65.0
1880.4034,70.0
1881.1556,49.0
1881.9081,75.0
1882.6609,69.0
1883.414,82.0
1884.1674,83.0
1884.921,208.0
1885.675,178.0
1886.4293,124.0
1887.1838,92.0
1887.9387,110.0
1888.6938,92.0
1889.4493,83.0
1890.2051,64.0
1890.9612,68.0
1891.7175,79.0
1892.4742,80.0
1893.2312,61.0
1893.9885,67.0
1894.7461,78.0
1895.504,86.0
1896.2622,62.0
1897.0208,101.0
1897.7795,104.0
1898.5387,88.0
1899.2981,67.0
1900.0579,68.0
1900.8179,79.0
1901.5782,78.0
1902.3389,69.0
1903.0999,64.0
1903.8611,81.0
1904.6227,80.0
1905.3845,67.0
1906.1467,67.0
1906.9092,74.0
1907.672,96.0
1908.435,64.0
1909.1985,73.0
1909.9622,67.0
1910.7262,58.0
1911.4905,79.0
1912.2551,58.0
1913.02,88.0
1913.7853,320.0
1914.5508,258.0
1915.3167,197.0
1916.0828,185.0
1916.8492,122.0
1917.616,89.0
1918.383,75.0
1919.1504,60.0
1919.9181,78.0
1920.686,71.0
1921.4543,66.0
1922.2229,43.0
1922.9918,64.0
1923.761,80.0
1924.5305,71.0
1925.3003,74.0
1926.0704,70.0
1926.8408,70.0
1927.6116,69.0
1928.3826,63.0
1929.1539,69.0
1929.9255,75.0
1930.6975,68.0
1931.4698,70.0
1932.2424,59.0
1933.0154,67.0
1933.7886,70.0
1934.5621,65.0
1935.3359,45.0
1936.1101,84.0
1936.8845,85.0
1937.6593,98.0
1938.4343,57.0
1939.2097,74.0
1939.9854,62.0
1940.7614,84.0
1941.5376,82.0
1942.3142,64.0
1943.0912,63.0
1943.8684,74.0
1944.646,57.0
1945.4238,60.0
1946.202,47.0
1946.9805,47.0
1947.7593,73.0
1948.5383,73.0
1949.3177,53.0
1950.0975,70.0
1950.8776,70.0
1951.658,78.0
1952.4386,63.0
1953.2196,62.0
1954.0009,67.0
1954.7825,66.0
1955.5643,74.0
1956.3466,65.0
1957.1292,59.0
1957.912,68.0
1958.6952,85.0
1959.4786,68.0
1960.2625,66.0
1961.0465,56.0
1961.8309,58.0
1962.6157,89.0
1963.4008,63.0
1964.1862,52.0
1964.9718,73.0
1965.7578,84.0
1966.5441,80.0
1967.3307,66.0
1968.1177,71.0
1968.9049,77.0
1969.6925,90.0
1970.4803,75.0
1971.2686,54.0
1972.057,65.0
1972.8458,73.0
1973.635,64.0
1974.4244,61.0
1975.2142,64.0
1976.0043,61.0
1976.7947,81.0
1977.5854,70.0
1978.3765,55.0
1979.1678,68.0
1979.9595,84.0
1980.7515,61.0
1981.5438,69.0
1982.3364,63.0
1983.1294,58.0
1983.9226,67.0
1984.7162,71.0
1985.5101,82.0
1986.3043,57.0
1987.0989,67.0
1987.8937,58.0
1988.6888,67.0
1989.4844,68.0
1990.2802,63.0
1991.0763,78.0
1991.8727,65.0
1992.6694,86.0
1993.4666,101.0
1994.2639,71.0
1995.0616,96.0
1995.8596,93.0
1996.658,85.0
1997.4567,68.0
1998.2556,53.0
1999.0549,74.0
1999.8546,60.0
2000.6545,86.0
2001.4548,73.0
2002.2554,54.0
2003.0563,65.0
2003.8575,58.0
2004.659,71.0
2005.4609,72.0
2006.2631,69.0
2007.0656,58.0
2007.8684,82.0
2008.6715,86.0
2009.475,104.0
2010.2788,78.0
2011.0829,80.0
2011.8873,130.0
2012.6921,132.0
2013.4972,90.0
2014.3026,83.0
2015.1083,71.0
2015.9143,84.0
2016.7207,76.0
2017.5273,68.0
2018.3344,60.0
2019.1417,64.0
2019.9493,68.0
2020.7573,82.0
2021.5657,63.0
2022.3743,61.0
2023.1832,61.0
2023.9926,69.0
2024.8021,65.0
2025.612,104.0
2026.4224,96.0
2027.2329,91.0
2028.0438,83.0
2028.855,102.0
2029.6665,114.0
2030.4784,86.0
2031.2905,74.0
2032.103,58.0
2032.9159,79.0
2033.729,99.0
2034.5425,71.0
2035.3563,67.0
2036.1704,56.0
2036.9849,78.0
2037.7997,80.0
2038.6147,78.0
2039.4302,60.0
2040.246,71.0
2041.062,78.0
2041.8784,66.0
2042.6952,73.0
2043.5123,85.0
2044.3297,70.0
2045.1475,64.0
2045.9656,73.0
2046.7839,85.0
2047.6027,78.0
2048.4216,76.0
2049.241,66.0
2050.0605,67.0
2050.8806,71.0
2051.701,65.0
2052.5217,84.0
2053.3428,69.0
2054.164,56.0
2054.9858,85.0
2055.8079,75.0
2056.6301,82.0
2057.453,85.0
2058.276,68.0
2059.099,55.0
2059.9229,63.0
2060.7468,81.0
2061.571,68.0
2062.3958,41.0
2063.2207,69.0
2064.046,71.0
2064.8716,84.0
2065.6975,84.0
2066.5237,83.0
2067.3503,71.0
2068.1772,65.0
2069.0046,67.0
2069.8323,67.0
2070.6602,57.0
2071.4885,53.0
2072.3171,64.0
2073.146,52.0
2073.9753,95.0
2074.805,71.0
2075.6348,57.0
2076.465,68.0
2077.2957,66.0
2078.1265,70.0
2078.9578,67.0
2079.7893,82.0
2080.6213,77.0
2081.4536,76.0
2082.2861,80.0
2083.1191,94.0
2083.9524,101.0
2084.786,108.0
2085.6199,90.0
2086.454,75.0
2087.2886,64.0
2088.1235,67.0
2088.9587,71.0
2089.7944,63.0
2090.6304,65.0
2091.4666,71.0
2092.3032,50.0
2093.1401,64.0
2093.9773,76.0
2094.815,75.0
2095.6528,73.0
2096.4912,56.0
2097.3298,69.0
2098.1687,79.0
2099.008,73.0
2099.8477,74.0
2100.6875,56.0
2101.5278,77.0
2102.3684,61.0
2103.2095,75.0
2104.0508,75.0
2104.8923,78.0
2105.7344,73.0
2106.5767,72.0
2107.4192,72.0
2108.2622,69.0
2109.1055,68.0
2109.9492,62.0
2110.7932,74.0
2111.6375,81.0
2112.4822,85.0
2113.3271,74.0
2114.1724,77.0
2115.018,70.0
2115.864,66.0
2116.7104,74.0
2117.5571,64.0
2118.404,57.0
2119.2515,59.0
2120.099,61.0
2120.9473,61.0
2121.7957,73.0
2122.6443,71.0
2123.4934,60.0
2124.3428,72.0
2125.1926,93.0
2126.0427,79.0
2126.893,91.0
2127.744,76.0
2128.595,48.0
2129.4463,59.0
2130.298,58.0
2131.1501,63.0
2132.0027,68.0
2132.8555,67.0
2133.7085,57.0
2134.562,68.0
2135.4158,56.0
2136.27,55.0
2137.1245,75.0
2137.9792,55.0
2138.8345,83.0
2139.69,73.0
2140.546,77.0
2141.402,78.0
2142.2585,111.0
2143.1155,103.0
2143.9727,101.0
2144.8303,86.0
2145.6882,62.0
2146.5464,60.0
2147.405,59.0
2148.264,68.0
2149.1233,72.0
2149.983,82.0
2150.843,69.0
2151.7034,72.0
2152.564,91.0
2153.425,55.0
2154.2864,61.0
2155.1482,57.0
2156.0103,57.0
2156.8726,72.0
2157.7354,74.0
2158.5984,83.0
2159.462,80.0
2160.3257,66.0
2161.1897,67.0
2162.0542,69.0
2162.919,70.0
2163.7842,70.0
2164.6497,60.0
2165.5156,58.0
2166.3818,70.0
2167.2483,71.0
2168.1152,95.0
2168.9824,97.0
2169.85,88.0
2170.718,72.0
2171.5864,86.0
2172.455,64.0
2173.324,64.0
2174.1934,66.0
2175.063,56.0
2175.933,81.0
2176.8035,75.0
2177.674,60.0
2178.5452,76.0
2179.4165,80.0
2180.2883,66.0
2181.1604,85.0
2182.033,76.0
2182.9058,68.0
2183.7788,71.0
2184.6523,68.0
2185.5261,64.0
2186.4004,72.0
2187.275,62.0
2188.15,72.0
2189.0251,78.0
2189.9006,63.0
2190.7766,75.0
2191.6528,72.0
2192.5295,58.0
2193.4065,64.0
2194.284,75.0
2195.1616,101.0
2196.0398,88.0
2196.9182,77.0
2197.7969,88.0
2198.676,79.0
2199.5554,75.0
2200.4353,85.0
2201.3154,74.0
2202.196,62.0
2203.077,63.0
2203.9583,62.0
2204.8398,64.0
2205.7217,83.0
2206.604,79.0
2207.4866,70.0
2208.3696,68.0
2209.253,59.0
2210.1367,81.0
2211.0208,86.0
2211.9053,83.0
2212.79,82.0
2213.675,90.0
2214.5605,67.0
2215.4463,69.0
2216.3325,84.0
2217.219,72.0
2218.106,70.0
2218.9932,61.0
2219.8809,83.0
2220.7688,74.0
2221.6572,74.0
2222.546,62.0
2223.4348,57.0
2224.3242,60.0
2225.2139,78.0
2226.104,76.0
2226.9944,77.0
2227.8853,65.0
2228.7764,67.0
2229.668,76.0
2230.5598,71.0
2231.4521,71.0
2232.3447,74.0
2233.2375,74.0
2234.1309,86.0
2235.0244,90.0
2235.9185,85.0
2236.8127,86.0
2237.7075,79.0
2238.6025,71.0
2239.498,73.0
2240.3938,83.0
2241.29,72.0
2242.1865,91.0
2243.0835,82.0
2243.9807,101.0
2244.8784,93.0
2245.7764,81.0
2246.6746,79.0
2247.5732,58.0
2248.4722,86.0
2249.3716,79.0
2250.2712,69.0
2251.1714,67.0
2252.0718,78.0
2252.9727,96.0
2253.8738,83.0
2254.7754,100.0
2255.6772,73.0
2256.5796,75.0
2257.4822,88.0
2258.3853,73.0
2259.2886,69.0
2260.1924,83.0
2261.0964,70.0
2262.001,85.0
2262.9058,85.0
2263.811,72.0
2264.7166,71.0
2265.6226,72.0
2266.5288,70.0
2267.4353,70.0
2268.3423,70.0
2269.2495,82.0
2270.1572,75.0
2271.0652,93.0
2271.9736,90.0
2272.8823,77.0
2273.7915,89.0
2274.701,84.0
2275.6108,89.0
2276.521,88.0
2277.4316,95.0
2278.3425,96.0
2279.254,89.0
2280.1655,105.0
2281.0776,94.0
2281.99,101.0
2282.9028,81.0
2283.816,82.0
2284.7295,82.0
2285.6433,86.0
2286.5576,91.0
2287.4722,76.0
2288.3872,79.0
2289.3025,78.0
2290.2183,83.0
2291.1343,68.0
2292.0508,91.0
2292.9675,84.0
2293.8848,89.0
2294.8022,96.0
2295.7202,79.0
2296.6384,83.0
2297.5571,78.0
2298.476,84.0
2299.3955,80.0
2300.3152,83.0
2301.2354,81.0
2302.1558,87.0
2303.0767,69.0
2303.9978,107.0
2304.9194,82.0
2305.8413,91.0
2306.7637,78.0
2307.6863,74.0
2308.6094,79.0
2309.5327,83.0
2310.4565,80.0
2311.3806,99.0
2312.3052,75.0
2313.23,76.0
2314.1553,89.0
2315.081,94.0
2316.007,76.0
2316.9336,94.0
2317.8604,91.0
2318.7876,84.0
2319.715,86.0
2320.643,94.0
2321.5713,93.0
2322.5,84.0
2323.429,84.0
2324.3584,95.0
2325.288,102.0
2326.2183,87.0
2327.1487,81.0
2328.0796,89.0
2329.0107,96.0
2329.9424,106.0
2330.8743,87.0
2331.8066,92.0
2332.7393,84.0
2333.6724,79.0
2334.6057,69.0
2335.5396,72.0
2336.4739,86.0
2337.4084,84.0
2338.3435,88.0
2339.2788,83.0
2340.2146,98.0
2341.1506,65.0
2342.0872,91.0
2343.024,77.0
2343.9612,92.0
2344.8987,101.0
2345.8367,95.0
2346.775,93.0
2347.7136,91.0
2348.6526,100.0
2349.592,86.0
2350.532,89.0
2351.4722,88.0
2352.4128,95.0
2353.3538,92.0
2354.2952,88.0
2355.2368,76.0
2356.179,71.0
2357.1213,87.0
2358.0642,79.0
2359.0073,83.0
2359.951,84.0
2360.895,74.0
2361.8394,99.0
2362.7842,84.0
2363.7292,81.0
2364.6748,88.0
2365.6206,85.0
2366.567,81.0
2367.5134,81.0
2368.4604,95.0
2369.4077,96.0
2370.3555,89.0
2371.3037,75.0
2372.2522,100.0
2373.2012,79.0
2374.1504,76.0
2375.1,76.0
2376.05,74.0
2377.0005,67.0
2377.9512,83.0
2378.9023,95.0
2379.854,75.0
2380.806,84.0
2381.7583,85.0
2382.711,76.0
2383.664,80.0
2384.6174,58.0
2385.5713,64.0
2386.5256,74.0
2387.4802,90.0
2388.4353,116.0
2389.3906,117.0
2390.3464,111.0
2391.3025,99.0
2392.259,82.0
2393.2158,72.0
2394.173,79.0
2395.1309,75.0
2396.0889,97.0
2397.0474,86.0
2398.006,81.0
2398.9653,66.0
2399.9248,81.0
2400.8848,64.0
2401.8452,69.0
2402.806,74.0
2403.767,83.0
2404.7285,75.0
2405.6904,91.0
2406.6526,77.0
2407.6152,80.0
2408.5784,66.0
2409.5417,84.0
2410.5056,75.0
2411.4697,73.0
2412.4343,84.0
2413.3994,64.0
2414.3647,83.0
2415.3306,80.0
2416.2966,61.0
2417.2632,59.0
2418.23,56.0
2419.1973,68.0
2420.165,75.0
2421.133,70.0
2422.1016,83.0
2423.0703,65.0
2424.0396,90.0
2425.0093,82.0
2425.9792,70.0
2426.9497,63.0
2427.9204,73.0
2428.8916,51.0
2429.863,79.0
2430.835,83.0
2431.8074,83.0
2432.78,85.0
2433.7532,95.0
2434.7266,62.0
2435.7004,71.0
2436.6748,74.0
2437.6494,82.0
2438.6245,61.0
2439.5999,73.0
2440.5757,69.0
2441.552,64.0
2442.5286,70.0
2443.5056,65.0
2444.483,78.0
2445.4607,66.0
2446.439,82.0
2447.4175,73.0
2448.3965,76.0
2449.3757,65.0
2450.3555,69.0
2451.3357,81.0
2452.3162,64.0
2453.297,77.0
2454.2783,74.0
2455.26,71.0
2456.2422,63.0
2457.2246,85.0
2458.2075,64.0
2459.191,61.0
2460.1746,62.0
2461.1587,58.0
2462.143,81.0
2463.128,74.0
2464.1133,91.0
2465.0989,91.0
2466.085,80.0
2467.0713,67.0
2468.058,72.0
2469.0454,75.0
2470.033,60.0
2471.021,77.0
2472.0095,74.0
2472.9983,65.0
2473.9875,72.0
2474.977,53.0
2475.967,75.0
2476.9575,67.0
2477.9482,62.0
2478.9395,57.0
2479.931,71.0
2480.9229,73.0
2481.9153,66.0
2482.908,81.0
2483.9011,74.0
2484.8948,83.0
2485.8887,81.0
2486.883,71.0
2487.878,78.0
2488.873,76.0
2489.8687,69.0
2490.8645,54.0
2491.8608,71.0
2492.8577,51.0
2493.8547,78.0
2494.8523,80.0
2495.8503,73.0
2496.8486,69.0
2497.8474,65.0
2498.8464,77.0
2499.846,82.0
2500.846,72.0
2501.8462,73.0
2502.847,73.0
2503.8481,73.0
2504.8496,57.0
2505.8516,82.0
2506.854,68.0
2507.8567,70.0
2508.8599,72.0
2509.8635,87.0
2510.8674,79.0
2511.8718,95.0
2512.8765,76.0
2513.8816,68.0
2514.8872,80.0
2515.893,72.0
2516.8994,74.0
2517.9062,62.0
2518.9133,66.0
2519.921,71.0
2520.929,57.0
2521.9373,62.0
2522.946,84.0
2523.9553,67.0
2524.9648,58.0
2525.9749,57.0
2526.9854,67.0
2527.996,69.0
2529.0073,61.0
2530.019,80.0
2531.031,59.0
2532.0435,68.0
2533.0562,73.0
2534.0693,75.0
2535.083,79.0
2536.097,74.0
2537.1113,78.0
2538.1262,64.0
2539.1414,71.0
2540.157,63.0
2541.173,62.0
2542.1895,78.0
2543.2063,78.0
2544.2236,71.0
2545.2412,65.0
2546.2593,76.0
2547.2778,81.0
2548.2966,99.0
2549.316,81.0
2550.3357,59.0
2551.3557,71.0
2552.3762,67.0
2553.3972,86.0
2554.4185,69.0
2555.4402,72.0
2556.4624,64.0
2557.485,69.0
2558.508,74.0
2559.5315,71.0
2560.5554,73.0
2561.5796,61.0
2562.6042,83.0
2563.6294,67.0
2564.6548,80.0
2565.6807,66.0
2566.707,82.0
2567.7336,71.0
2568.7607,73.0
2569.7883,73.0
2570.8162,70.0
2571.8445,57.0
2572.8733,76.0
2573.9023,56.0
2574.932,65.0
2575.962,76.0
2576.9922,69.0
2578.023,77.0
2579.0542,80.0
2580.086,68.0
2581.118,55.0
2582.1504,67.0
2583.1833,77.0
2584.2166,78.0
2585.2502,72.0
2586.2844,93.0
2587.3188,79.0
2588.3538,70.0
2589.3892,80.0
2590.4248,68.0
2591.461,79.0
2592.4976,88.0
2593.5347,89.0
2594.572,74.0
2595.6099,80.0
2596.6482,71.0
2597.6868,64.0
2598.7258,62.0
2599.7654,66.0
2600.8052,74.0
2601.8455,72.0
2602.8862,63.0
2603.9275,70.0
2604.969,69.0
2606.011,81.0
2607.0535,59.0
2608.0962,63.0
2609.1394,78.0
2610.183,72.0
2611.2273,98.0
2612.2717,71.0
2613.3167,67.0
2614.362,80.0
2615.4077,69.0
2616.4539,56.0
2617.5005,74.0
2618.5476,91.0
2619.595,59.0
2620.6428,89.0
2621.6912,71.0
2622.7397,57.0
2623.7888,75.0
2624.8384,75.0
2625.8884,77.0
2626.9387,80.0
2627.9895,68.0
2629.0408,73.0
2630.0923,76.0
2631.1443,71.0
2632.1968,81.0
2633.2498,91.0
2634.303,82.0
2635.3567,69.0
2636.411,87.0
2637.4653,80.0
2638.5203,83.0
2639.5757,67.0
2640.6316,71.0
2641.6877,81.0
2642.7444,95.0
2643.8015,75.0
2644.8591,76.0
2645.917,63.0
2646.9753,79.0
2648.0342,84.0
2649.0935,79.0
2650.153,91.0
2651.2131,92.0
2652.2737,89.0
2653.3345,79.0
2654.3958,75.0
2655.4575,68.0
2656.5198,75.0
2657.5823,85.0
2658.6453,82.0
2659.7087,78.0
2660.7727,74.0
2661.837,81.0
2662.9016,88.0
2663.9668,85.0
2665.0325,90.0
2666.0984,82.0
2667.1648,91.0
2668.2317,81.0
2669.299,73.0
2670.3667,82.0
2671.4348,73.0
2672.5034,68.0
2673.5725,75.0
2674.6418,98.0
2675.7117,81.0
2676.782,72.0
2677.8528,69.0
2678.9238,87.0
2679.9954,78.0
2681.0674,73.0
2682.14,95.0
2683.2126,92.0
2684.286,84.0
2685.3596,81.0
2686.4338,66.0
2687.5083,73.0
2688.5833,70.0
2689.6587,74.0
2690.7346,91.0
2691.8108,69.0
2692.8875,67.0
2693.9646,76.0
2695.0422,69.0
2696.1204,66.0
2697.1987,75.0
2698.2776,77.0
2699.357,93.0
2700.4368,96.0
2701.5168,90.0
2702.5974,76.0
2703.6785,82.0
2704.76,84.0
2705.8418,89.0
2706.924,86.0
2708.0068,87.0
2709.09,75.0
2710.1738,70.0
2711.2578,79.0
2712.3423,66.0
2713.4272,82.0
2714.5127,72.0
2715.5984,68.0
2716.6846,89.0
2717.7712,72.0
2718.8584,75.0
2719.946,93.0
2721.034,81.0
2722.1223,85.0
2723.2112,114.0
2724.3005,105.0
2725.3901,89.0
2726.4802,89.0
2727.5708,77.0
2728.6619,64.0
2729.7534,91.0
2730.8452,99.0
2731.9375,84.0
2733.0303,74.0
2734.1235,85.0
2735.2173,126.0
2736.3113,130.0
2737.4058,103.0
2738.5007,79.0
2739.5962,81.0
2740.6921,67.0
2741.7883,77.0
2742.885,77.0
2743.9822,78.0
2745.0798,87.0
2746.178,99.0
2747.2764,64.0
2748.3752,74.0
2749.4746,72.0
2750.5745,80.0
2751.6748,67.0
2752.7754,75.0
2753.8765,92.0
2754.978,82.0
2756.08,89.0
2757.1826,78.0
2758.2854,79.0
2759.3887,65.0
2760.4924,69.0
2761.5967,96.0
2762.7014,74.0
2763.8064,102.0
2764.9119,77.0
2766.0178,67.0
2767.1243,69.0
2768.2312,72.0
2769.3384,69.0
2770.446,71.0
2771.5542,71.0
2772.6628,80.0
2773.772,69.0
2774.8816,67.0
2775.9915,63.0
2777.1018,75.0
2778.2126,80.0
2779.324,70.0
2780.4358,84.0
2781.5479,86.0
2782.6604,73.0
2783.7734,72.0
2784.887,87.0
2786.001,73.0
2787.1155,80.0
2788.2302,82.0
2789.3455,60.0
2790.4612,68.0
2791.5774,64.0
2792.694,98.0
2793.8113,108.0
2794.9287,159.0
2796.0466,125.0
2797.165,157.0
2798.284,143.0
2799.4033,141.0
2800.5232,116.0
2801.6433,118.0
2802.764,129.0
2803.885,115.0
2805.0066,109.0
2806.1287,111.0
2807.2512,126.0
2808.374,125.0
2809.4973,125.0
2810.621,132.0
2811.7454,105.0
2812.87,137.0
2813.9954,126.0
2815.1208,116.0
2816.2468,122.0
2817.3733,111.0
2818.5002,121.0
2819.6277,107.0
2820.7556,117.0
2821.884,113.0
2823.0127,108.0
2824.1418,130.0
2825.2715,119.0
2826.4016,98.0
2827.5322,128.0
2828.6633,130.0
2829.7947,126.0
2830.9265,134.0
2832.0588,91.0
2833.1917,90.0
2834.325,95.0
2835.4587,119.0
2836.593,115.0
2837.7275,131.0
2838.8625,136.0
2839.998,108.0
2841.134,131.0
2842.2705,111.0
2843.4075,111.0
2844.545,133.0
2845.6829,108.0
2846.821,116.0
2847.9597,128.0
2849.0989,119.0
2850.2385,109.0
2851.3787,122.0
2852.5193,110.0
2853.6604,117.0
2854.8018,95.0
2855.9436,109.0
2857.086,143.0
2858.2288,129.0
2859.372,109.0
2860.5159,106.0
2861.6602,120.0
2862.805,119.0
2863.95,134.0
2865.0955,141.0
2866.2415,142.0
2867.388,122.0
2868.535,121.0
2869.6824,102.0
2870.8303,114.0
2871.9788,95.0
2873.1274,119.0
2874.2766,106.0
2875.4263,122.0
2876.5764,116.0
2877.727,115.0
2878.8782,103.0
2880.0298,132.0
2881.182,139.0
2882.3345,136.0
2883.4873,122.0
2884.6406,100.0
2885.7944,102.0
2886.9487,97.0
2888.1035,127.0
2889.2588,119.0
2890.4146,118.0
2891.5708,123.0
2892.7275,143.0
2893.8845,107.0
2895.042,120.0
2896.2,100.0
2897.3584,109.0
2898.5173,125.0
2899.6768,104.0
2900.8367,113.0
2901.997,111.0
2903.158,125.0
2904.3193,141.0
2905.481,206.0
2906.643,187.0
2907.8057,182.0
2908.9688,170.0
2910.1323,121.0
2911.2964,129.0
2912.461,119.0
2913.626,104.0
2914.7915,128.0
2915.9575,104.0
2917.124,96.0
2918.2908,107.0
2919.458,103.0
2920.6257,127.0
2921.794,226.0
2922.9626,301.0
2924.1318,292.0
2925.3015,235.0
2926.4717,190.0
2927.6423,136.0
2928.8135,130.0
2929.985,69.0
2931.157,110.0
2932.3293,123.0
2933.5022,113.0
2934.6755,101.0
2935.8494,116.0
2937.0237,106.0
2938.1985,129.0
2939.3738,153.0
2940.5496,136.0
2941.7258,141.0
2942.9026,130.0
2944.0798,112.0
2945.2576,131.0
2946.4358,137.0
2947.6143,111.0
2948.7932,129.0
2949.9727,110.0
2951.1526,115.0
2952.333,107.0
2953.514,100.0
2954.6953,97.0
2955.8772,102.0
2957.0596,110.0
2958.2424,109.0
2959.4258,119.0
2960.6096,129.0
2961.794,126.0
2962.9788,98.0
2964.164,101.0
2965.3496,114.0
2966.5356,109.0
2967.7222,113.0
2968.9092,99.0
2970.0967,106.0
2971.2847,98.0
2972.4731,113.0
2973.662,115.0
2974.8516,96.0
2976.0415,104.0
2977.232,115.0
2978.4229,119.0
2979.6143,108.0
2980.8062,120.0
2981.9985,89.0
2983.1914,116.0
2984.3848,115.0
2985.5786,120.0
2986.773,111.0
2987.9678,101.0
2989.1628,108.0
2990.3584,117.0
2991.5544,117.0
2992.751,101.0
2993.948,93.0
2995.1455,102.0
2996.3435,101.0
2997.542,88.0
2998.741,106.0
2999.9404,92.0
3001.1404,87.0
3002.3408,124.0
3003.5417,129.0
3004.7432,112.0
3005.945,119.0
3007.1475,120.0
3008.3503,124.0
3009.5537,120.0
3010.7576,123.0
3011.962,137.0
3013.1667,99.0
3014.372,116.0
3015.578,101.0
3016.7842,100.0
3017.991,89.0
3019.1982,96.0
3020.406,150.0
3021.6143,118.0
3022.823,142.0
3024.0322,108.0
3025.242,101.0
3026.4521,96.0
3027.6628,112.0
3028.874,114.0
3030.0857,94.0
3031.2976,115.0
3032.51,119.0
3033.723,108.0
3034.9363,108.0
3036.1501,106.0
3037.3645,112.0
3038.5793,110.0
3039.7947,114.0
3041.0105,99.0
3042.2268,119.0
3043.4436,112.0
3044.661,115.0
3045.8787,111.0
3047.097,120.0
3048.3157,107.0
3049.535,123.0
3050.7546,98.0
3051.9749,132.0
3053.1956,108.0
3054.4167,111.0
3055.6384,134.0
3056.8606,118.0
3058.0833,108.0
3059.3064,91.0
3060.53,120.0
3061.7542,110.0
3062.9788,117.0
3064.2039,117.0
3065.4294,118.0
3066.6555,124.0
3067.882,94.0
3069.1091,97.0
3070.3367,110.0
3071.5647,135.0
3072.7932,119.0
3074.0222,117.0
3075.2517,120.0
3076.4817,107.0
3077.7124,154.0
3078.9436,118.0
3080.1753,106.0
3081.4075,108.0
3082.6401,129.0
3083.8733,87.0
3085.107,84.0
3086.341,112.0
3087.5757,111.0
3088.8108,112.0
3090.0464,106.0
3091.2825,103.0
3092.519,112.0
3093.756,82.0
3094.9937,109.0
3096.2317,120.0
3097.4702,145.0
3098.7092,112.0
3099.9487,80.0
3101.1887,110.0
3102.4292,101.0
3103.6702,115.0
3104.9116,111.0
3106.1536,108.0
3107.396,111.0
3108.639,100.0
3109.8823,135.0
3111.1262,113.0
3112.3706,130.0
3113.6155,126.0
3114.8608,109.0
3116.1067,105.0
3117.353,107.0
3118.5999,132.0
3119.8474,105.0
3121.0955,87.0
3122.344,136.0
3123.593,128.0
3124.8425,107.0
3126.0925,94.0
3127.343,102.0
3128.594,109.0
3129.8455,109.0
3131.0974,100.0
3132.3499,102.0
3133.6028,109.0
3134.8562,101.0
3136.11,123.0
3137.3645,135.0
3138.6194,115.0
3139.8748,111.0
3141.1306,121.0
3142.387,117.0
3143.6438,115.0
3144.9014,111.0
3146.1594,113.0
3147.418,106.0
3148.677,102.0
3149.9365,105.0
3151.1965,124.0
3152.457,102.0
3153.718,118.0
3154.9795,114.0
3156.2415,120.0
3157.504,103.0
3158.7668,116.0
3160.0303,114.0
3161.2942,119.0
3162.5586,91.0
3163.8237,110.0
3165.0894,100.0
3166.3555,124.0
3167.622,118.0
3168.8892,123.0
3170.1567,115.0
3171.4248,106.0
3172.6934,118.0
3173.9624,109.0
3175.232,111.0
3176.502,107.0
3177.7725,144.0
3179.0435,95.0
3180.3152,112.0
3181.5874,119.0
3182.86,126.0
3184.1333,102.0
3185.407,113.0
3186.6812,109.0
3187.9558,112.0
3189.231,112.0
3190.5066,128.0
3191.7827,114.0
3193.0593,128.0
3194.3367,127.0
3195.6145,133.0
3196.8928,128.0
3198.1716,124.0
3199.451,120.0
3200.7307,117.0
3202.011,108.0
3203.2917,116.0
3204.573,146.0
3205.8547,135.0
3207.137,125.0
3208.42,117.0
3209.7034,120.0
3210.9873,104.0
3212.2717,108.0
3213.5566,137.0
3214.842,84.0
3216.128,113.0
3217.4143,126.0
3218.7012,131.0
3219.9888,113.0
3221.2769,126.0
3222.5654,127.0
3223.8545,108.0
3225.144,121.0
3226.434,120.0
3227.7246,146.0
3229.0156,108.0
3230.3071,123.0
3231.5994,119.0
3232.892,98.0
3234.1853,93.0
3235.479,120.0
3236.7732,132.0
3238.0679,119.0
3239.363,123.0
3240.6587,125.0
3241.9548,114.0
3243.2517,104.0
3244.549,107.0
3245.847,118.0
3247.1453,116.0
3248.444,108.0
3249.7434,102.0
3251.0432,108.0
3252.3438,118.0
3253.6448,138.0
3254.9463,129.0
3256.2483,113.0
3257.5508,122.0
3258.8538,130.0
3260.1572,109.0
3261.4612,97.0
3262.7659,129.0
3264.071,102.0
3265.3767,114.0
3266.6829,125.0
3267.9895,107.0
3269.2966,136.0
3270.6042,160.0
3271.9126,140.0
3273.2214,119.0
3274.5308,124.0
3275.8406,117.0
3277.151,121.0
3278.4617,111.0
3279.773,120.0
3281.085,108.0
3282.3975,110.0
3283.7104,102.0
3285.024,100.0
3286.338,113.0
3287.6523,119.0
3288.9673,125.0
3290.283,127.0
3291.599,135.0
3292.9158,122.0
3294.233,112.0
3295.5505,110.0
3296.8687,116.0
3298.1875,130.0
3299.5068,108.0
3300.8267,138.0
3302.147,104.0
3303.4678,118.0
3304.789,92.0
3306.111,123.0
3307.4336,124.0
3308.7566,137.0
3310.08,125.0
3311.404,121.0
3312.7285,113.0
3314.0537,117.0
3315.3794,109.0
3316.7056,122.0
3318.0322,98.0
3319.3594,91.0
3320.687,127.0
3322.0154,115.0
3323.3442,130.0
3324.6736,141.0
3326.0034,94.0
3327.3337,118.0
3328.6648,122.0
3329.9963,123.0
3331.3284,125.0
3332.661,123.0
3333.994,120.0
3335.3274,101.0
3336.6616,118.0
3337.9963,98.0
3339.3315,106.0
3340.6672,126.0
3342.0034,119.0
3343.3403,112.0
3344.6777,110.0
3346.0156,107.0
3347.354,105.0
3348.6929,107.0
3350.0322,113.0
3351.3723,122.0
3352.713,129.0
3354.054,136.0
3355.3955,111.0
3356.7375,118.0
3358.0803,130.0
3359.4236,124.0
3360.7673,119.0
3362.1116,108.0
3363.4563,117.0
3364.8018,115.0
3366.1477,134.0
3367.4941,143.0
3368.841,119.0
3370.1887,111.0
3371.5369,151.0
3372.8855,139.0
3374.2346,105.0
3375.5842,127.0
3376.9346,123.0
3378.2854,109.0
3379.6367,124.0
3380.9885,154.0
3382.3408,136.0
3383.6938,136.0
3385.0474,131.0
3386.4014,139.0
3387.7559,138.0
3389.1108,121.0
3390.4666,112.0
3391.8228,121.0
3393.1794,125.0
3394.5366,128.0
3395.8945,146.0
3397.253,130.0
3398.6118,127.0
3399.9712,136.0
3401.3313,140.0
3402.692,133.0
3404.053,146.0
3405.4146,134.0
3406.7766,124.0
3408.1394,112.0
3409.5027,116.0
3410.8665,116.0
3412.2307,154.0
3413.5957,155.0
3414.9612,130.0
3416.3271,159.0
3417.6936,154.0
3419.0608,145.0
3420.4285,132.0
3421.7966,125.0
3423.1653,135.0
3424.5347,153.0
3425.9045,130.0
3427.275,114.0
3428.6458,135.0
3430.017,146.0
3431.3892,131.0
3432.7617,140.0
3434.1348,147.0
3435.5083,127.0
3436.8826,109.0
3438.2573,115.0
3439.6326,107.0
3441.0083,137.0
3442.3848,127.0
3443.7617,135.0
3445.1392,114.0
3446.5173,125.0
3447.896,122.0
3449.2751,98.0
3450.6548,126.0
3452.0352,125.0
3453.416,123.0
3454.7974,139.0
3456.1792,123.0
3457.5618,162.0
3458.9448,138.0
3460.3284,108.0
3461.7124,123.0
3463.0972,138.0
3464.4824,129.0
3465.8682,122.0
3467.2544,137.0
3468.6414,138.0
3470.0288,99.0
3471.4167,119.0
3472.8054,148.0
3474.1946,156.0
3475.5842,189.0
3476.9744,110.0
3478.3652,161.0
3479.7566,135.0
3481.1484,135.0
3482.541,126.0
3483.934,107.0
3485.3276,154.0
3486.7217,133.0
3488.1165,129.0
3489.5117,126.0
3490.9075,148.0
3492.304,128.0
3493.701,145.0
3495.0984,126.0
3496.4963,154.0
3497.895,143.0
3499.2942,134.0
3500.6938,156.0
3502.0942,136.0
3503.495,148.0
3504.8965,128.0
3506.2983,146.0
3507.701,140.0
3509.104,168.0
3510.5076,160.0
3511.9119,145.0
3513.3167,159.0
3514.722,146.0
3516.128,145.0
3517.5344,117.0
3518.9414,138.0
3520.3489,143.0
3521.757,170.0
3523.1658,156.0
3524.575,155.0
3525.9849,131.0
3527.3953,136.0
3528.8062,158.0
3530.2178,177.0
3531.63,218.0
3533.0425,143.0
3534.4558,156.0
3535.8696,107.0
3537.284,125.0
3538.6987,134.0
3540.1143,151.0
3541.5303,138.0
3542.9468,113.0
3544.364,128.0
3545.7817,146.0
3547.2,146.0
3548.619,147.0
3550.0383,139.0
3551.4583,117.0
3552.879,138.0
3554.3,127.0
3555.7217,135.0
3557.144,124.0
3558.567,147.0
3559.9902,125.0
3561.4143,139.0
3562.8389,148.0
3564.264,132.0
3565.6897,148.0
3567.116,148.0
3568.5427,122.0
3569.9702,149.0
3571.3982,162.0
3572.8267,171.0
3574.2559,130.0
3575.6855,173.0
3577.1157,141.0
3578.5466,156.0
3579.978,174.0
3581.41,155.0
3582.8425,149.0
3584.2756,141.0
3585.7092,176.0
3587.1436,151.0
3588.5784,172.0
3590.014,168.0
3591.45,155.0
3592.8865,170.0
3594.3237,160.0
3595.7615,175.0
3597.1997,147.0
3598.6387,186.0
3600.0781,166.0
3601.518,176.0
3602.9587,152.0
3604.4,141.0
3605.8416,150.0
3607.284,187.0
3608.7268,212.0
3610.1704,200.0
3611.6145,146.0
3613.059,158.0
3614.5044,150.0
3615.9502,248.0
3617.3965,272.0
3618.8435,219.0
3620.291,162.0
3621.739,155.0
3623.1877,143.0
3624.637,138.0
3626.087,166.0
3627.5374,144.0
3628.9883,163.0
3630.44,144.0
3631.892,154.0
3633.3447,149.0
3634.798,151.0
3636.252,159.0
3637.7065,168.0
3639.1616,160.0
3640.6172,161.0
3642.0735,158.0
3643.5303,186.0
3644.9878,192.0
3646.4458,168.0
3647.9043,182.0
3649.3635,156.0
3650.8232,151.0
3652.2837,145.0
3653.7446,171.0
3655.206,141.0
3656.6682,142.0
3658.1309,173.0
3659.594,166.0
3661.0579,171.0
3662.5222,191.0
3663.9873,178.0
3665.453,159.0
3666.919,177.0
3668.3857,176.0
3669.853,146.0
3671.321,147.0
3672.7896,154.0
3674.2585,154.0
3675.7283,179.0
3677.1985,174.0
3678.6694,223.0
3680.1409,201.0
3681.613,184.0
3683.0857,146.0
3684.5588,160.0
3686.0327,155.0
3687.507,130.0
3688.9822,161.0
3690.4578,165.0
3691.9338,191.0
3693.4106,195.0
3694.888,201.0
3696.366,163.0
3697.8445,155.0
3699.3237,177.0
3700.8035,161.0
3702.2837,163.0
3703.7646,155.0
3705.246,153.0
3706.7283,191.0
3708.211,207.0
3709.6943,265.0
3711.1782,258.0
3712.6626,247.0
3714.1477,175.0
3715.6333,199.0
3717.1196,176.0
3718.6064,167.0
3720.094,178.0
3721.582,182.0
3723.0706,179.0
3724.5598,173.0
3726.0496,190.0
3727.54,183.0
3729.031,163.0
3730.5227,193.0
3732.015,195.0
3733.5078,300.0
3735.0012,416.0
3736.495,314.0
3737.9897,270.0
3739.4849,208.0
3740.9807,167.0
3742.477,198.0
3743.974,211.0
3745.4717,196.0
3746.97,181.0
3748.4688,196.0
3749.968,529.0
3751.468,1147.0
3752.9685,1269.0
3754.4697,677.0
3755.9714,490.0
3757.4739,287.0
3758.9768,259.0
3760.4805,194.0
3761.9846,212.0
3763.4895,177.0
3764.9949,194.0
3766.501,236.0
3768.0076,242.0
3769.515,245.0
3771.0227,215.0
3772.531,233.0
3774.04,250.0
3775.5496,221.0
3777.0598,197.0
3778.5706,208.0
3780.082,176.0
3781.594,196.0
3783.1067,283.0
3784.6199,311.0
3786.1338,264.0
3787.6482,209.0
3789.1633,193.0
3790.679,173.0
3792.1953,196.0
3793.7122,180.0
3795.2297,201.0
3796.7478,210.0
3798.2666,215.0
3799.786,224.0
3801.306,193.0
3802.8264,169.0
3804.3477,179.0
3805.8694,201.0
3807.3918,207.0
3808.9148,151.0
3810.4385,188.0
3811.9626,188.0
3813.4875,221.0
3815.013,286.0
3816.539,237.0
3818.0657,207.0
3819.593,191.0
3821.1208,153.0
3822.6494,173.0
3824.1785,164.0
3825.7083,155.0
3827.2385,160.0
3828.7695,192.0
3830.301,206.0
3831.8333,217.0
3833.366,187.0
3834.8994,168.0
3836.4333,157.0
3837.968,177.0
3839.5032,155.0
3841.039,210.0
3842.5754,182.0
3844.1125,191.0
3845.6501,202.0
3847.1885,236.0
3848.7273,262.0
3850.2668,302.0
3851.807,252.0
3853.3477,199.0
3854.889,190.0
3856.431,166.0
3857.9734,202.0
3859.5166,198.0
3861.0603,206.0
3862.6047,193.0
3864.1497,171.0
3865.6953,207.0
3867.2417,210.0
3868.7886,231.0
3870.3362,178.0
3871.8843,169.0
3873.433,177.0
3874.9824,216.0
3876.5325,180.0
3878.083,192.0
3879.6343,199.0
3881.186,213.0
3882.7385,216.0
3884.2915,229.0
3885.8452,209.0
3887.3997,230.0
3888.9546,198.0
3890.5103,189.0
3892.0664,185.0
3893.6233,193.0
3895.1807,188.0
3896.7388,218.0
3898.2974,198.0
3899.8567,246.0
3901.4167,234.0
3902.9773,234.0
3904.5386,212.0
3906.1003,218.0
3907.6628,188.0
3909.2258,183.0
3910.7896,189.0
3912.3538,141.0
3913.9187,196.0
3915.4844,201.0
3917.0505,233.0
3918.6174,189.0
3920.1848,196.0
3921.753,170.0
3923.3215,198.0
3924.8909,189.0
3926.461,171.0
3928.0315,148.0
3929.6028,155.0
3931.1746,177.0
3932.747,176.0
3934.32,196.0
3935.8938,164.0
3937.4683,169.0
3939.0432,190.0
3940.619,208.0
3942.195,198.0
3943.772,184.0
3945.3494,170.0
3946.9275,161.0
3948.5063,190.0
3950.0857,199.0
3951.6658,210.0
3953.2463,160.0
3954.8276,157.0
3956.4097,172.0
3957.9922,182.0
3959.5754,189.0
3961.1592,202.0
3962.7437,177.0
3964.3289,160.0
3965.9146,150.0
3967.501,171.0
3969.088,168.0
3970.6755,182.0
3972.264,153.0
3973.8528,166.0
3975.4424,161.0
3977.0325,171.0
3978.6233,166.0
3980.2148,177.0
3981.807,150.0
3983.3997,178.0
3984.993,193.0
3986.587,175.0
3988.1816,166.0
3989.7769,180.0
3991.3728,141.0
3992.9692,183.0
3994.5664,199.0
3996.1643,169.0
3997.7627,171.0
3999.3618,172.0
4000.9617,198.0
4002.562,206.0
4004.163,203.0
4005.7646,198.0
4007.367,169.0
4008.97,165.0
4010.5735,200.0
4012.1777,205.0
4013.7827,197.0
4015.3882,199.0
4016.9944,191.0
4018.601,197.0
4020.2085,194.0
4021.8167,216.0
4023.4253,198.0
4025.0347,201.0
4026.6448,215.0
4028.2554,230.0
4029.8667,253.0
4031.4788,214.0
4033.0913,237.0
4034.7046,207.0
4036.3184,224.0
4037.9329,251.0
4039.548,253.0
4041.1638,257.0
4042.7803,264.0
4044.3975,239.0
4046.0151,293.0
4047.6335,260.0
4049.2527,232.0
4050.8723,354.0
4052.4927,349.0
4054.1138,326.0
4055.7354,298.0
4057.3577,272.0
4058.9807,356.0
4060.6042,492.0
4062.2285,368.0
4063.8535,352.0
4065.479,278.0
4067.1052,310.0
4068.7322,353.0
4070.3596,401.0
4071.9878,454.0
4073.6167,405.0
4075.246,363.0
4076.8762,375.0
4078.507,331.0
4080.1384,417.0
4081.7705,518.0
4083.4033,411.0
4085.0366,544.0
4086.6707,720.0
4088.3054,556.0
4089.9407,456.0
4091.5767,332.0
4093.2134,831.0
4094.8506,1381.0
4096.489,806.0
4098.1274,388.0
4099.7666,309.0
4101.4067,865.0
4103.0474,2606.0
4104.6885,2067.0
4106.3306,760.0
4107.973,369.0
4109.616,258.0
4111.2603,268.0
4112.905,248.0
4114.55,301.0
4116.196,328.0
4117.8423,260.0
4119.4893,200.0
4121.137,216.0
4122.7856,213.0
4124.4346,202.0
4126.0845,199.0
4127.735,191.0
4129.3857,185.0
4131.0376,180.0
4132.69,195.0
4134.343,200.0
4135.9966,197.0
4137.651,186.0
4139.306,178.0
4140.962,199.0
4142.618,186.0
4144.2754,182.0
4145.933,215.0
4147.5913,181.0
4149.2505,208.0
4150.91,219.0
4152.5703,206.0
4154.2314,211.0
4155.893,210.0
4157.5557,209.0
4159.2188,201.0
4160.8823,201.0
4162.547,182.0
4164.212,201.0
4165.8774,220.0
4167.544,222.0
4169.211,214.0
4170.8784,182.0
4172.547,220.0
4174.216,266.0
4175.8857,288.0
4177.556,257.0
4179.227,240.0
4180.899,216.0
4182.5713,235.0
4184.244,215.0
4185.918,188.0
4187.5923,220.0
4189.267,257.0
4190.943,220.0
4192.619,205.0
4194.2964,236.0
4195.974,235.0
4197.6523,259.0
4199.3315,245.0
4201.011,196.0
4202.6914,201.0
4204.3726,217.0
4206.054,218.0
4207.737,197.0
4209.42,189.0
4211.1035,181.0
4212.788,211.0
4214.473,168.0
4216.1587,212.0
4217.845,211.0
4219.532,171.0
4221.22,205.0
4222.9087,215.0
4224.5977,196.0
4226.2876,216.0
4227.978,243.0
4229.6694,201.0
4231.3613,228.0
4233.0537,213.0
4234.747,223.0
4236.441,211.0
4238.1353,214.0
4239.8306,216.0
4241.5264,182.0
4243.223,202.0
4244.9204,197.0
4246.618,246.0
4248.317,217.0
4250.016,240.0
4251.7163,241.0
4253.417,236.0
4255.118,245.0
4256.8203,243.0
4258.523,241.0
4260.2266,244.0
4261.9307,243.0
4263.6353,265.0
4265.341,224.0
4267.047,288.0
4268.754,310.0
4270.4614,276.0
4272.1694,235.0
4273.8784,237.0
4275.588,335.0
4277.2983,459.0
4279.0093,339.0
4280.7207,250.0
4282.433,210.0
4284.146,358.0
4285.86,640.0
4287.574,512.0
4289.289,330.0
4291.005,241.0
4292.721,222.0
4294.4385,204.0
4296.1562,208.0
4297.8745,280.0
4299.5938,319.0
4301.3135,218.0
4303.034,199.0
4304.7554,214.0
4306.477,211.0
4308.1997,206.0
4309.923,193.0
4311.647,205.0
4313.3716,206.0
4315.097,211.0
4316.823,201.0
4318.55,187.0
4320.2773,194.0
4322.0054,171.0
4323.7344,192.0
4325.464,224.0
4327.194,182.0
4328.925,240.0
4330.6562,194.0
4332.3887,206.0
4334.1216,224.0
4335.8555,195.0
4337.59,221.0
4339.3247,199.0
4341.0605,194.0
4342.797,172.0
4344.534,181.0
4346.272,193.0
4348.0103,200.0
4349.7495,178.0
4351.4893,190.0
4353.23,191.0
4354.971,221.0
4356.7134,249.0
4358.456,253.0
4360.199,212.0
4361.9434,211.0
4363.688,180.0
4365.4336,204.0
4367.1797,220.0
4368.927,206.0
4370.6743,207.0
4372.4224,206.0
4374.1714,205.0
4375.921,236.0
4377.6714,180.0
4379.4224,203.0
4381.1743,222.0
4382.927,198.0
4384.6797,203.0
4386.4336,218.0
4388.188,214.0
4389.9434,237.0
4391.699,225.0
4393.456,213.0
4395.2134,217.0
4396.9717,203.0
4398.7305,212.0
4400.4897,244.0
4402.25,215.0
4404.0107,208.0
4405.7725,248.0
4407.5347,262.0
4409.298,291.0
4411.0615,235.0
4412.826,203.0
4414.5913,211.0
4416.357,299.0
4418.1235,369.0
4419.8906,292.0
4421.6587,238.0
4423.4272,230.0
4425.197,237.0
4426.967,203.0
4428.738,233.0
4430.5093,260.0
4432.2812,270.0
4434.054,252.0
4435.8276,218.0
4437.602,290.0
4439.377,361.0
4441.153,297.0
4442.929,234.0
4444.7065,224.0
4446.4844,205.0
4448.263,230.0
4450.0425,238.0
4451.8223,262.0
4453.603,246.0
4455.3843,219.0
4457.1665,214.0
4458.949,265.0
4460.733,261.0
4462.517,219.0
4464.3022,241.0
4466.088,240.0
4467.8745,360.0
4469.6616,324.0
4471.4497,283.0
4473.2383,228.0
4475.0273,267.0
4476.8174,223.0
4478.608,223.0
4480.3994,242.0
4482.1914,263.0
4483.9844,248.0
4485.778,194.0
4487.5723,237.0
4489.367,237.0
4491.163,253.0
4492.9595,230.0
4494.757,206.0
4496.5547,234.0
4498.3535,270.0
4500.153,248.0
4501.953,258.0
4503.754,255.0
4505.555,237.0
4507.3574,194.0
4509.16,222.0
4510.964,222.0
4512.768,257.0
4514.573,280.0
4516.379,238.0
4518.1855,228.0
4519.9927,241.0
4521.801,258.0
4523.6094,253.0
4525.419,216.0
4527.229,235.0
4529.04,234.0
4530.8516,346.0
4532.664,290.0
4534.477,236.0
4536.291,221.0
4538.1055,229.0
4539.921,236.0
4541.737,214.0
4543.5537,230.0
4545.371,192.0
4547.1895,189.0
4549.0083,191.0
4550.828,200.0
4552.6484,210.0
4554.4697,201.0
4556.2915,201.0
4558.1143,222.0
4559.9375,175.0
4561.7617,227.0
4563.5864,210.0
4565.4116,188.0
4567.238,203.0
4569.0645,201.0
4570.892,211.0
4572.72,209.0
4574.5493,185.0
4576.379,212.0
4578.2095,207.0
4580.0405,206.0
4581.8726,197.0
4583.705,249.0
4585.5386,210.0
4587.3726,201.0
4589.2075,200.0
4591.043,248.0
4592.8794,249.0
4594.7163,214.0
4596.554,208.0
4598.3926,203.0
4600.232,233.0
4602.0723,242.0
4603.913,207.0
4605.755,199.0
4607.597,200.0
4609.4404,169.0
4611.284,225.0
4613.129,239.0
4614.974,222.0
4616.8203,196.0
4618.667,191.0
4620.5146,223.0
4622.363,233.0
4624.212,244.0
4626.0615,208.0
4627.912,215.0
4629.763,218.0
4631.615,191.0
4633.468,207.0
4635.3213,228.0
4637.1753,186.0
4639.0303,179.0
4640.8857,207.0
4642.742,228.0
4644.599,208.0
4646.457,173.0
4648.3154,205.0
4650.175,199.0
4652.0347,213.0
4653.8955,207.0
4655.757,166.0
4657.619,201.0
4659.4824,194.0
4661.346,208.0
4663.211,190.0
4665.076,219.0
4666.9424,199.0
4668.809,238.0
4670.677,218.0
4672.545,207.0
4674.414,205.0
4676.2837,200.0
4678.1543,261.0
4680.0254,229.0
4681.8975,224.0
4683.77,212.0
4685.6436,226.0
4687.5176,219.0
4689.3926,199.0
4691.2686,233.0
4693.145,212.0
4695.0225,250.0
4696.9004,246.0
4698.7793,214.0
4700.6587,200.0
4702.539,209.0
4704.42,198.0
4706.302,224.0
4708.184,222.0
4710.0674,257.0
4711.951,272.0
4713.836,197.0
4715.7217,210.0
4717.608,195.0
4719.495,216.0
4721.383,211.0
4723.2715,205.0
4725.1606,224.0
4727.051,212.0
4728.9414,251.0
4730.833,232.0
4732.725,205.0
4734.618,218.0
4736.512,199.0
4738.4067,194.0
4740.3022,208.0
4742.198,211.0
4744.095,205.0
4745.9927,238.0
4747.891,205.0
4749.79,192.0
4751.69,190.0
4753.591,187.0
4755.492,185.0
4757.3945,195.0
4759.2974,201.0
4761.201,190.0
4763.1055,205.0
4765.0107,170.0
4766.9165,198.0
4768.823,196.0
4770.731,207.0
4772.639,187.0
4774.5483,194.0
4776.458,176.0
4778.3687,177.0
4780.28,190.0
4782.192,191.0
4784.105,212.0
4786.0186,170.0
4787.933,177.0
4789.848,179.0
4791.764,182.0
4793.6807,227.0
4795.598,201.0
4797.5166,199.0
4799.4355,188.0
4801.3555,181.0
4803.276,168.0
4805.1973,177.0
4807.119,190.0
4809.042,197.0
4810.966,181.0
4812.89,212.0
4814.8154,178.0
4816.741,189.0
4818.668,168.0
4820.595,203.0
4822.5234,173.0
4824.4526,199.0
4826.3823,162.0
4828.313,175.0
4830.244,192.0
4832.1763,189.0
4834.1094,172.0
4836.043,192.0
4837.9775,181.0
4839.9126,199.0
4841.8486,172.0
4843.785,193.0
4845.7227,199.0
4847.661,160.0
4849.6,191.0
4851.54,200.0
4853.4805,194.0
4855.422,189.0
4857.3643,188.0
4859.307,191.0
4861.251,191.0
4863.1953,185.0
4865.1406,217.0
4867.087,192.0
4869.0337,185.0
4870.9814,203.0
4872.9297,173.0
4874.879,198.0
4876.829,182.0
4878.78,173.0
4880.7314,190.0
4882.6836,189.0
4884.6367,210.0
4886.5903,197.0
4888.545,185.0
4890.5005,186.0
4892.4565,183.0
4894.4136,195.0
4896.3716,156.0
4898.33,203.0
4900.2896,185.0
4902.2495,190.0
4904.2104,200.0
4906.1724,185.0
4908.135,206.0
4910.098,186.0
4912.062,191.0
4914.027,185.0
4915.9927,183.0
4917.959,202.0
4919.9263,174.0
4921.894,201.0
4923.863,184.0
4925.8325,223.0
4927.8027,195.0
4929.774,186.0
4931.7456,191.0
4933.7183,186.0
4935.692,206.0
4937.666,217.0
4939.641,190.0
4941.617,187.0
4943.5938,163.0
4945.5713,214.0
4947.5493,204.0
4949.5283,203.0
4951.5083,201.0
4953.489,187.0
4955.47,208.0
4957.4526,196.0
4959.4355,230.0
4961.4194,206.0
4963.404,195.0
4965.389,223.0
4967.3755,221.0
4969.3623,165.0
4971.35,181.0
4973.339,211.0
4975.328,202.0
4977.3184,193.0
4979.309,219.0
4981.301,220.0
4983.2935,222.0
4985.2866,202.0
4987.281,238.0
4989.276,204.0
4991.2715,223.0
4993.268,214.0
4995.265,192.0
4997.263,220.0
4999.262,216.0
5001.2617,212.0
5003.262,191.0
5005.2637,201.0
5007.2656,212.0
5009.2686,222.0
5011.2725,198.0
5013.277,218.0
5015.282,215.0
5017.2886,206.0
5019.2954,232.0
5021.303,208.0
5023.3115,207.0
5025.321,209.0
5027.331,200.0
5029.342,221.0
5031.3535,234.0
5033.366,212.0
5035.3794,234.0
5037.3936,223.0
5039.4087,199.0
5041.4243,221.0
5043.441,211.0
5045.4585,200.0
5047.4766,248.0
5049.4956,222.0
5051.5156,213.0
5053.536,242.0
5055.5576,192.0
5057.58,221.0
5059.603,215.0
5061.627,212.0
5063.6514,200.0
5065.677,208.0
5067.703,233.0
5069.73,235.0
5071.758,209.0
5073.7866,197.0
5075.816,218.0
5077.846,217.0
5079.8774,211.0
5081.909,196.0
5083.942,194.0
5085.9756,199.0
5088.01,224.0
5090.045,190.0
5092.081,223.0
5094.1177,203.0
5096.1553,206.0
5098.194,214.0
5100.233,214.0
5102.273,222.0
5104.314,228.0
5106.3555,209.0
5108.398,229.0
5110.4414,223.0
5112.4854,231.0
5114.5303,226.0
5116.576,203.0
5118.6226,222.0
5120.67,218.0
5122.7183,207.0
5124.7676,203.0
5126.8174,218.0
5128.868,226.0
5130.92,250.0
5132.972,207.0
5135.0254,207.0
5137.0796,216.0
5139.1343,222.0
5141.19,215.0
5143.2466,199.0
5145.3037,257.0
5147.362,274.0
5149.421,213.0
5151.4805,230.0
5153.541,212.0
5155.6025,210.0
5157.6646,203.0
5159.7275,229.0
5161.7915,232.0
5163.8564,215.0
5165.922,216.0
5167.9883,203.0
5170.0557,199.0
5172.1235,214.0
5174.1924,230.0
5176.262,208.0
5178.3325,242.0
5180.404,224.0
5182.476,204.0
5184.549,204.0
5186.6226,227.0
5188.6973,209.0
5190.773,225.0
5192.849,224.0
5194.9263,201.0
5197.0044,191.0
5199.083,188.0
5201.1626,256.0
5203.243,255.0
5205.324,270.0
5207.4062,226.0
5209.4893,206.0
5211.573,219.0
5213.6577,226.0
5215.743,211.0
5217.8296,235.0
5219.9165,245.0
5222.0044,271.0
5224.0933,233.0
5226.183,219.0
5228.2734,235.0
5230.3647,243.0
5232.457,190.0
5234.55,231.0
5236.6436,221.0
5238.7383,202.0
5240.834,214.0
5242.93,251.0
5245.0273,253.0
5247.1255,231.0
5249.224,220.0
5251.3237,233.0
5253.4243,223.0
5255.526,241.0
5257.628,206.0
5259.731,231.0
5261.835,234.0
5263.9395,227.0
5266.045,217.0
5268.1514,227.0
5270.259,207.0
5272.3667,212.0
5274.4756,240.0
5276.5854,210.0
5278.6963,235.0
5280.8076,184.0
5282.92,232.0
5285.033,255.0
5287.147,251.0
5289.2617,237.0
5291.3774,212.0
5293.494,222.0
5295.6113,205.0
5297.7295,209.0
5299.8486,274.0
5301.9688,270.0
5304.0894,245.0
5306.211,242.0
5308.3335,189.0
5310.457,208.0
5312.581,206.0
5314.706,227.0
5316.832,289.0
5318.959,312.0
5321.0864,269.0
5323.215,257.0
5325.344,211.0
5327.4746,246.0
5329.6055,228.0
5331.7373,240.0
5333.87,217.0
5336.004,214.0
5338.138,200.0
5340.2734,242.0
5342.4097,203.0
5344.547,237.0
5346.6846,231.0
5348.823,237.0
5350.963,210.0
5353.1035,220.0
5355.2446,222.0
5357.3867,264.0
5359.53,242.0
5361.674,242.0
5363.8184,224.0
5365.964,239.0
5368.1104,237.0
5370.258,226.0
5372.406,260.0
5374.5547,248.0
5376.7046,246.0
5378.8555,248.0
5381.007,234.0
5383.159,256.0
5385.3125,223.0
5387.467,238.0
5389.6216,280.0
5391.7773,256.0
5393.934,295.0
5396.092,251.0
5398.25,276.0
5400.409,230.0
5402.5693,238.0
5404.7305,222.0
5406.8926,250.0
5409.055,294.0
5411.2188,307.0
5413.3833,266.0
5415.549,290.0
5417.715,255.0
5419.882,201.0
5422.05,238.0
5424.2188,234.0
5426.3887,252.0
5428.559,263.0
5430.7305,217.0
5432.903,254.0
5435.076,212.0
5437.25,213.0
5439.425,268.0
5441.6006,267.0
5443.7773,259.0
5445.955,294.0
5448.1333,246.0
5450.3125,232.0
5452.4927,234.0
5454.674,257.0
5456.8555,265.0
5459.038,248.0
5461.2217,235.0
5463.4062,234.0
5465.592,242.0
5467.778,208.0
5469.965,263.0
5472.153,264.0
5474.342,247.0
5476.5317,253.0
5478.722,236.0
5480.9136,264.0
5483.106,253.0
5485.2993,258.0
5487.4937,280.0
5489.6885,282.0
5491.8843,263.0
5494.081,249.0
5496.279,243.0
5498.4775,225.0
5500.677,247.0
5502.877,264.0
5505.078,274.0
5507.2803,270.0
5509.4834,286.0
5511.687,249.0
5513.8916,250.0
5516.097,235.0
5518.3037,275.0
5520.511,269.0
5522.719,284.0
5524.928,251.0
5527.138,228.0
5529.349,248.0
5531.561,239.0
5533.7734,231.0
5535.987,255.0
5538.201,288.0
5540.4165,279.0
5542.633,254.0
5544.85,257.0
5547.068,275.0
5549.2866,247.0
5551.5063,253.0
5553.727,264.0
5555.9487,274.0
5558.171,259.0
5560.394,259.0
5562.618,260.0
5564.8433,279.0
5567.0693,267.0
5569.2964,273.0
5571.524,268.0
5573.7524,236.0
5575.982,235.0
5578.2124,247.0
5580.444,230.0
5582.676,285.0
5584.9087,263.0
5587.1426,248.0
5589.3774,218.0
5591.6133,221.0
5593.85,239.0
5596.0874,222.0
5598.3257,236.0
5600.565,279.0
5602.805,251.0
5605.0464,234.0
5607.2886,247.0
5609.5312,241.0
5611.775,244.0
5614.0195,230.0
5616.265,274.0
5618.5117,224.0
5620.7593,200.0
5623.008,229.0
5625.257,228.0
5627.507,252.0
5629.758,247.0
5632.01,221.0
5634.2627,247.0
5636.5166,204.0
5638.771,217.0
5641.0264,245.0
5643.2827,251.0
5645.54,283.0
5647.7983,242.0
5650.0576,242.0
5652.318,236.0
5654.5786,245.0
5656.8403,231.0
5659.103,224.0
5661.3667,224.0
5663.6313,247.0
5665.897,240.0
5668.1636,231.0
5670.4307,239.0
5672.6987,256.0
5674.968,244.0
5677.238,235.0
5679.509,259.0
5681.781,270.0
5684.0537,242.0
5686.327,259.0
5688.6016,230.0
5690.877,245.0
5693.1533,236.0
5695.4307,280.0
5697.709,245.0
5699.9883,297.0
5702.268,264.0
5704.549,287.0
5706.8306,280.0
5709.1133,261.0
5711.397,270.0
5713.6816,255.0
5715.9673,287.0
5718.254,263.0
5720.541,286.0
5722.829,275.0
5725.118,275.0
5727.408,286.0
5729.699,295.0
5731.991,308.0
5734.284,268.0
5736.578,301.0
5738.8726,284.0
5741.168,291.0
5743.4644,275.0
5745.7617,267.0
5748.06,281.0
5750.3594,274.0
5752.6597,300.0
5754.961,317.0
5757.2627,285.0
5759.5654,309.0
5761.869,296.0
5764.174,286.0
5766.4795,287.0
5768.786,238.0
5771.0938,309.0
5773.4023,302.0
5775.712,311.0
5778.022,307.0
5780.333,293.0
5782.645,292.0
5784.958,306.0
5787.272,297.0
5789.587,315.0
5791.903,311.0
5794.2197,311.0
5796.5376,311.0
5798.8564,295.0
5801.176,347.0
5803.496,315.0
5805.8174,340.0
5808.1396,353.0
5810.463,323.0
5812.787,329.0
5815.1123,349.0
5817.4385,337.0
5819.7656,322.0
5822.0938,406.0
5824.4224,373.0
5826.752,309.0
5829.0825,371.0
5831.414,411.0
5833.7466,340.0
5836.08,351.0
5838.4146,392.0
5840.75,424.0
5843.0864,385.0
5845.424,367.0
5847.762,398.0
5850.101,393.0
5852.441,338.0
5854.7817,355.0
5857.1235,306.0
5859.4663,345.0
5861.81,289.0
5864.155,345.0
5866.5005,347.0
5868.847,319.0
5871.195,328.0
5873.5435,362.0
5875.893,357.0
5878.2437,297.0
5880.5947,312.0
5882.947,284.0
5885.3,358.0
5887.654,337.0
5890.009,364.0
5892.3647,342.0
5894.7217,343.0
5897.0796,352.0
5899.4385,364.0
5901.7983,381.0
5904.159,389.0
5906.521,372.0
5908.884,371.0
5911.2476,415.0
5913.612,385.0
5915.977,374.0
5918.3433,352.0
5920.7104,343.0
5923.0786,375.0
5925.4478,408.0
5927.818,416.0
5930.189,379.0
5932.561,415.0
5934.934,380.0
5937.308,380.0
5939.683,357.0
5942.059,413.0
5944.436,410.0
5946.814,424.0
5949.193,417.0
5951.5728,389.0
5953.9536,371.0
5956.335,404.0
5958.7173,439.0
5961.1006,415.0
5963.485,422.0
5965.87,385.0
5968.2563,407.0
5970.6436,431.0
5973.0317,433.0
5975.421,405.0
5977.811,470.0
5980.202,417.0
5982.594,382.0
5984.9873,399.0
5987.3813,409.0
5989.7764,390.0
5992.1724,413.0
5994.5693,450.0
5996.9673,395.0
5999.366,367.0
6001.766,490.0
6004.167,501.0
6006.569,468.0
6008.9717,431.0
6011.3755,530.0
6013.7803,462.0
6016.1855,414.0
6018.592,453.0
6020.999,483.0
6023.407,366.0
6025.8164,366.0
6028.2266,424.0
6030.6377,409.0
6033.05,368.0
6035.463,428.0
6037.877,429.0
6040.292,376.0
6042.708,369.0
6045.125,466.0
6047.543,444.0
6049.962,422.0
6052.382,351.0
6054.8027,351.0
6057.2246,343.0
6059.6475,369.0
6062.0713,459.0
6064.496,483.0
6066.922,452.0
6069.3486,382.0
6071.7764,381.0
6074.205,359.0
6076.635,363.0
6079.0654,387.0
6081.497,372.0
6083.9297,358.0
6086.3633,435.0
6088.798,397.0
6091.2334,371.0
6093.67,368.0
6096.1074,387.0
6098.546,392.0
6100.9854,435.0
6103.426,383.0
6105.867,402.0
6108.3096,425.0
6110.753,395.0
6113.1973,407.0
6115.6426,465.0
6118.089,487.0
6120.536,475.0
6122.9844,389.0
6125.4336,400.0
6127.884,432.0
6130.335,495.0
6132.787,529.0
6135.24,487.0
6137.6943,463.0
6140.1494,472.0
6142.6055,448.0
6145.0625,518.0
6147.5205,536.0
6149.9795,635.0
6152.4395,596.0
6154.9004,549.0
6157.3623,620.0
6159.825,631.0
6162.289,533.0
6164.754,480.0
6167.2197,474.0
6169.6865,483.0
6172.1543,559.0
6174.623,782.0
6177.093,838.0
6179.5635,645.0
6182.035,529.0
6184.508,551.0
6186.9814,483.0
6189.456,594.0
6191.9316,869.0
6194.408,987.0
6196.8857,737.0
6199.3643,642.0
6201.844,566.0
6204.325,574.0
6206.807,491.0
6209.29,501.0
6211.774,473.0
6214.259,541.0
6216.7446,669.0
6219.2314,635.0
6221.719,550.0
6224.208,460.0
6226.6978,464.0
6229.1885,565.0
6231.68,709.0
6234.173,744.0
6236.6665,628.0
6239.161,545.0
6241.6567,516.0
6244.1533,480.0
6246.651,641.0
6249.1494,741.0
6251.649,603.0
6254.1494,586.0
6256.651,717.0
6259.1533,639.0
6261.6567,526.0
6264.1616,492.0
6266.6675,463.0
6269.1743,427.0
6271.682,676.0
6274.191,1090.0
6276.7007,825.0
6279.2114,587.0
6281.723,479.0
6284.236,433.0
6286.7495,433.0
6289.264,980.0
6291.78,1425.0
6294.2964,1145.0
6296.814,597.0
6299.3325,452.0
6301.852,455.0
6304.3726,383.0
6306.8945,412.0
6309.4175,447.0
6311.9414,421.0
6314.4663,460.0
6316.992,416.0
6319.519,378.0
6322.047,357.0
6324.5757,370.0
6327.1055,386.0
6329.636,419.0
6332.168,396.0
6334.7007,405.0
6337.2344,407.0
6339.769,374.0
6342.305,364.0
6344.8423,417.0
6347.3804,410.0
6349.9194,401.0
6352.4595,395.0
6355.0005,364.0
6357.5425,383.0
6360.0854,424.0
6362.6294,399.0
6365.1743,424.0
6367.72,422.0
6370.267,448.0
6372.8154,400.0
6375.3647,421.0
6377.915,419.0
6380.4663,405.0
6383.0186,434.0
6385.572,415.0
6388.126,433.0
6390.681,443.0
6393.2373,404.0
6395.7944,385.0
6398.3525,405.0
6400.912,405.0
6403.4727,483.0
6406.034,479.0
6408.5967,430.0
6411.16,410.0
6413.7246,414.0
6416.29,408.0
6418.8564,420.0
6421.424,415.0
6423.992,416.0
6426.562,403.0
6429.133,453.0
6431.7046,462.0
6434.2773,471.0
6436.851,428.0
6439.426,450.0
6442.0015,438.0
6444.578,465.0
6447.156,485.0
6449.735,444.0
6452.315,474.0
6454.896,378.0
6457.478,426.0
6460.061,396.0
6462.645,402.0
6465.23,397.0
6467.816,423.0
6470.403,440.0
6472.991,395.0
6475.5806,406.0
6478.171,446.0
6480.762,467.0
6483.3545,448.0
6485.9478,442.0
6488.542,493.0
6491.137,452.0
6493.734,470.0
6496.3315,464.0
6498.93,437.0
6501.53,446.0
6504.1304,447.0
6506.732,492.0
6509.3345,465.0
6511.938,471.0
6514.543,490.0
6517.149,464.0
6519.756,462.0
6522.364,506.0
6524.9727,520.0
6527.5825,492.0
6530.1934,537.0
6532.8057,467.0
6535.419,457.0
6538.033,481.0
6540.6484,603.0
6543.2646,553.0
6545.882,517.0
6548.5,554.0
6551.1196,548.0
6553.74,489.0
6556.362,576.0
6558.9844,641.0
6561.608,589.0
6564.2324,524.0
6566.858,490.0
6569.485,499.0
6572.113,499.0
6574.7417,579.0
6577.3716,548.0
6580.0024,547.0
6582.6343,508.0
6585.267,547.0
6587.9014,520.0
6590.5366,573.0
6593.173,572.0
6595.81,607.0
6598.448,555.0
6601.0874,491.0
6603.728,494.0
6606.3696,484.0
6609.012,491.0
6611.656,567.0
6614.3003,525.0
6616.946,519.0
6619.593,499.0
6622.2407,605.0
6624.8896,509.0
6627.5396,519.0
6630.1904,537.0
6632.8423,497.0
6635.4956,507.0
6638.15,587.0
6640.805,658.0
6643.4614,568.0
6646.1187,535.0
6648.7773,507.0
6651.437,482.0
6654.0977,542.0
6656.7593,591.0
6659.422,601.0
6662.0854,511.0
6664.7505,550.0
6667.4165,472.0
6670.0835,462.0
6672.7515,460.0
6675.4204,514.0
6678.091,483.0
6680.762,509.0
6683.4346,518.0
6686.108,453.0
6688.782,450.0
6691.4575,451.0
6694.1343,539.0
6696.812,545.0
6699.4907,553.0
6702.1704,505.0
6704.851,493.0
6707.533,509.0
6710.2163,551.0
6712.9004,538.0
6715.5854,554.0
6718.2715,539.0
6720.959,554.0
6723.6475,592.0
6726.337,565.0
6729.0273,551.0
6731.7188,502.0
6734.4116,500.0
6737.1055,514.0
6739.8003,645.0
6742.496,651.0
6745.193,635.0
6747.891,527.0
6750.5903,524.0
6753.2905,567.0
6755.9917,593.0
6758.6943,747.0
6761.398,637.0
6764.1025,644.0
6766.808,673.0
6769.5146,572.0
6772.2227,558.0
6774.9316,582.0
6777.6416,678.0
6780.3525,712.0
6783.0645,687.0
6785.778,680.0
6788.492,601.0
6791.2075,638.0
6793.924,619.0
6796.6416,571.0
6799.3604,641.0
6802.08,600.0
6804.801,619.0
6807.5225,797.0
6810.2456,794.0
6812.9697,659.0
6815.695,567.0
6818.421,592.0
6821.1484,700.0
6823.877,1008.0
6826.6064,978.0
6829.337,731.0
6832.069,526.0
6834.802,503.0
6837.5356,537.0
6840.2705,670.0
6843.007,910.0
6845.744,727.0
6848.4824,559.0
6851.2217,507.0
6853.9624,592.0
6856.704,715.0
6859.447,689.0
6862.1904,580.0
6864.9355,522.0
6867.6816,489.0
6870.4287,533.0
6873.177,522.0
6875.9263,508.0
6878.677,477.0
6881.428,462.0
6884.1807,510.0
6886.9346,519.0
6889.6895,503.0
6892.4453,446.0
6895.202,470.0
6897.9604,496.0
6900.7197,480.0
6903.48,510.0
6906.241,559.0
6909.004,489.0
6911.7676,564.0
6914.532,609.0
6917.298,536.0
6920.065,622.0
6922.833,557.0
6925.602,477.0
6928.372,586.0
6931.1436,542.0
6933.916,514.0
6936.6895,505.0
6939.4644,532.0
6942.24,466.0
6945.017,548.0
6947.795,618.0
6950.574,590.0
6953.3545,574.0
6956.1357,607.0
6958.918,575.0
6961.7017,578.0
6964.4863,550.0
6967.272,522.0
6970.059,576.0
6972.847,617.0
6975.636,621.0
6978.4263,651.0
6981.218,623.0
6984.0103,646.0
6986.8037,604.0
6989.5986,631.0
6992.3945,645.0
6995.1914,680.0
6997.9893,736.0
7000.7886,843.0
7003.589,659.0
7006.39,667.0
7009.193,677.0
7011.9966,656.0
7014.8013,687.0
7017.6074,769.0
7020.4146,778.0
7023.2227,807.0
7026.0317,910.0
7028.8423,823.0
7031.654,627.0
7034.4663,511.0
7037.2803,530.0
7040.095,791.0
7042.911,1088.0
7045.7285,894.0
7048.547,658.0
7051.366,611.0
7054.1865,557.0
7057.0083,771.0
7059.831,1414.0
7062.655,1374.0
7065.48,843.0
7068.306,637.0
7071.1333,572.0
7073.962,561.0
7076.7915,597.0
7079.622,611.0
7082.454,600.0
7085.287,638.0
7088.121,616.0
7090.9565,603.0
7093.793,586.0
7096.6304,719.0
7099.469,658.0
7102.309,617.0
7105.15,662.0
7107.992,659.0
7110.8354,702.0
7113.6797,733.0
7116.5254,725.0
7119.372,654.0
7122.2197,751.0
7125.069,871.0
7127.919,812.0
7130.77,766.0
7133.6226,658.0
7136.476,723.0
7139.3306,910.0
7142.1865,979.0
7145.0435,890.0
7147.9014,769.0
7150.7607,729.0
7153.621,857.0
7156.4824,1193.0
7159.345,1264.0
7162.209,961.0
7165.0737,823.0
7167.94,928.0
7170.807,1058.0
7173.6753,1026.0
7176.545,883.0
7179.4155,914.0
7182.287,959.0
7185.16,850.0
7188.034,901.0
7190.909,986.0
7193.7856,810.0
7196.663,1126.0
7199.542,1294.0
7202.422,971.0
7205.3027,762.0
7208.185,526.0
7211.0684,741.0
7213.9526,1458.0
7216.8384,1559.0
7219.725,953.0
7222.613,621.0
7225.502,617.0
7228.392,829.0
7231.283,2019.0
7234.176,2305.0
7237.0693,1249.0
7239.9644,743.0
7242.8604,613.0
7245.7573,540.0
7248.656,547.0
7251.555,612.0
7254.4556,597.0
7257.3574,554.0
7260.2603,553.0
7263.1646,535.0
7266.07,511.0
7268.976,584.0
7271.884,549.0
7274.7925,510.0
7277.7026,509.0
7280.614,556.0
7283.526,590.0
7286.4395,628.0
7289.354,583.0
7292.2695,531.0
7295.1865,682.0
7298.1045,611.0
7301.024,578.0
7303.9443,519.0
7306.8657,496.0
7309.7886,603.0
7312.7124,857.0
7315.6377,787.0
7318.564,529.0
7321.491,486.0
7324.42,436.0
7327.3496,630.0
7330.281,929.0
7333.213,847.0
7336.146,608.0
7339.0806,518.0
7342.016,481.0
7344.953,535.0
7347.891,642.0
7350.83,571.0
7353.7705,513.0
7356.712,537.0
7359.655,507.0
7362.5986,490.0
7365.5435,488.0
7368.4897,457.0
7371.437,531.0
7374.3857,562.0
7377.3354,550.0
7380.2866,542.0
7383.239,557.0
7386.192,552.0
7389.1465,510.0
7392.102,503.0
7395.059,410.0
7398.017,510.0
7400.976,609.0
7403.9365,609.0
7406.898,531.0
7409.861,448.0
7412.8247,456.0
7415.79,565.0
7418.7563,568.0
7421.7236,530.0
7424.6924,503.0
7427.662,473.0
7430.6333,454.0
7433.6055,569.0
7436.579,585.0
7439.5537,535.0
7442.5293,541.0
7445.5063,435.0
7448.4844,424.0
7451.464,419.0
7454.4443,458.0
7457.4263,395.0
7460.409,349.0
7463.3936,377.0
7466.379,429.0
7469.365,468.0
7472.353,417.0
7475.342,360.0
7478.332,309.0
7481.323,405.0
7484.316,533.0
7487.3096,577.0
7490.3047,476.0
7493.301,364.0
7496.2983,378.0
7499.297,395.0
7502.2964,434.0
7505.2974,392.0
7508.2993,366.0
7511.3027,335.0
7514.307,369.0
7517.313,366.0
7520.32,403.0
7523.328,370.0
7526.3374,377.0
7529.348,408.0
7532.36,391.0
7535.373,352.0
7538.387,364.0
7541.4023,305.0
7544.419,419.0
7547.4365,492.0
7550.4556,384.0
7553.4756,345.0
7556.497,334.0
7559.5195,367.0
7562.5435,442.0
7565.5684,473.0
7568.5947,368.0
7571.622,344.0
7574.651,343.0
7577.6807,320.0
7580.712,363.0
7583.744,387.0
7586.778,367.0
7589.8125,309.0
7592.8486,316.0
7595.8857,343.0
7598.9243,383.0
7601.964,347.0
7605.005,337.0
7608.047,299.0
7611.0903,313.0
7614.135,357.0
7617.18,454.0
7620.227,384.0
7623.275,324.0
7626.324,357.0
7629.3745,284.0
7632.4263,325.0
7635.479,338.0
7638.533,361.0
7641.5884,323.0
7644.645,316.0
7647.7026,309.0
7650.7617,325.0
7653.8223,329.0
7656.884,354.0
7659.947,354.0
7663.0107,332.0
7666.076,332.0
7669.1426,347.0
7672.2104,348.0
7675.2793,352.0
7678.3496,343.0
7681.421,356.0
7684.4937,364.0
7687.5674,344.0
7690.6426,386.0
7693.7188,367.0
7696.7964,363.0
7699.875,342.0
7702.955,371.0
7706.036,416.0
7709.1187,383.0
7712.202,412.0
7715.287,368.0
7718.373,395.0
7721.4604,379.0
7724.549,403.0
7727.6387,444.0
7730.7295,466.0
7733.822,417.0
7736.9155,440.0
7740.0103,439.0
7743.1064,455.0
7746.2036,485.0
7749.3022,460.0
7752.402,455.0
7755.503,502.0
7758.605,434.0
7761.7085,410.0
7764.813,384.0
7767.919,476.0
7771.026,533.0
7774.1343,550.0
7777.244,478.0
7780.355,423.0
7783.4673,465.0
7786.5806,582.0
7789.6953,628.0
7792.811,600.0
7795.928,547.0
7799.0464,486.0
7802.166,471.0
7805.287,487.0
7808.409,548.0
7811.5327,588.0
7814.657,527.0
7817.783,475.0
7820.91,470.0
7824.0386,466.0
7827.168,586.0
7830.299,646.0
7833.431,528.0
7836.5645,488.0
7839.699,492.0
7842.835,534.0
7845.972,654.0
7849.1104,674.0
7852.25,560.0
7855.391,542.0
7858.533,550.0
7861.677,506.0
7864.8213,535.0
7867.9673,540.0
7871.1143,513.0
7874.2627,559.0
7877.4126,576.0
7880.5635,624.0
7883.716,679.0
7886.869,604.0
7890.024,563.0
7893.18,530.0
7896.3374,590.0
7899.496,741.0
7902.656,742.0
7905.817,620.0
7908.979,626.0
7912.1426,627.0
7915.3076,765.0
7918.4736,979.0
7921.641,856.0
7924.8096,690.0
7927.9795,730.0
7931.151,687.0
7934.323,647.0
7937.497,720.0
7940.672,758.0
7943.848,799.0
7947.026,744.0
7950.2046,741.0
7953.385,815.0
7956.566,864.0
7959.7485,850.0
7962.9326,838.0
7966.1177,841.0
7969.304,1002.0
7972.4917,1013.0
7975.6807,951.0
7978.871,927.0
7982.0625,980.0
7985.2554,1146.0
7988.4497,1234.0
7991.645,1151.0
7994.842,1105.0
7998.0396,1088.0
8001.239,1228.0
8004.4395,1529.0
8007.641,1449.0
8010.844,1447.0
8014.0483,1306.0
8017.254,1321.0
8020.461,1354.0
8023.669,1460.0
8026.8784,1443.0
8030.0894,1363.0
8033.3013,1611.0
8036.5146,1715.0
8039.7295,1981.0
8042.9453,1873.0
8046.1626,1672.0
8049.381,1722.0
8052.6006,2052.0
8055.822,2437.0
8059.044,2498.0
8062.2676,2177.0
8065.4927,2405.0
8068.7188,2581.0
8071.9463,2626.0
8075.1753,2964.0
8078.4053,2904.0
8081.6367,3380.0
8084.869,3725.0
8088.103,3339.0
8091.3384,2748.0
8094.5747,2608.0
8097.8125,3562.0
8101.052,5178.0
8104.292,4866.0
8107.5337,4136.0
8110.777,3640.0
8114.021,3327.0
8117.2666,5431.0
8120.5137,6922.0
8123.7617,5948.0
8127.011,5660.0
8130.262,4653.0
8133.514,4502.0
8136.7676,4996.0
8140.0225,5671.0
8143.2783,7809.0
8146.5356,7459.0
8149.7944,5593.0
8153.054,6703.0
8156.3154,6240.0
8159.578,6820.0
8162.842,8345.0
8166.107,7610.0
8169.3735,11772.0
8172.641,11979.0
8175.91,6822.0
8179.1807,3640.0
8182.452,4053.0
8185.725,16951.0
8188.9995,23714.0
8192.275,11004.0
8195.553,4201.0
8198.831,3244.0
8202.11,16032.0
8205.392,43506.0
8208.674,26865.0
8211.957,8666.0
8215.242,3462.0
8218.528,2406.0
8221.815,2043.0
8225.1045,2358.0
8228.395,2969.0
8231.686,2326.0
8234.979,1488.0
8238.272,1173.0
8241.567,1214.0
8244.864,1348.0
8248.162,1398.0
8251.461,1203.0
8254.762,1015.0
8258.063,1035.0
8261.367,1147.0
8264.672,1159.0
8267.978,1128.0
8271.285,1171.0
8274.594,1064.0
8277.903,991.0
8281.215,954.0
8284.527,940.0
8287.841,1170.0
8291.156,1156.0
8294.473,1049.0
8297.79,971.0
8301.109,1020.0
8304.43,1134.0
8307.751,1261.0
8311.074,1205.0
8314.398,1278.0
8317.725,1242.0
8321.052,1110.0
8324.38,1049.0
8327.71,1110.0
8331.041,1559.0
8334.373,1442.0
8337.707,1113.0
8341.042,1059.0
8344.378,1069.0
8347.716,1625.0
8351.055,1744.0
8354.3955,1326.0
8357.737,1399.0
8361.08,1213.0
8364.425,929.0
8367.7705,906.0
8371.117,873.0
8374.466,1298.0
8377.815,1494.0
8381.167,1043.0
8384.52,699.0
8387.873,787.0
8391.229,1110.0
8394.585,1482.0
8397.942,1117.0
8401.302,827.0
8404.662,740.0
8408.024,840.0
8411.388,818.0
8414.752,745.0
8418.118,724.0
8421.485,660.0
8424.854,625.0
8428.224,604.0
8431.595,741.0
8434.968,722.0
8438.342,731.0
8441.717,714.0
8445.094,704.0
8448.472,790.0
8451.851,753.0
8455.231,735.0
8458.613,816.0
8461.997,835.0
8465.382,934.0
8468.768,927.0
8472.155,936.0
8475.544,993.0
8478.935,906.0
8482.326,863.0
8485.719,1061.0
8489.113,1137.0
8492.509,1323.0
8495.906,1112.0
8499.305,1055.0
8502.704,1198.0
8506.105,1331.0
8509.508,1665.0
8512.911,1379.0
8516.316,1447.0
8519.723,1602.0
8523.131,1423.0
8526.54,1661.0
8529.95,1627.0
8533.362,2198.0
8536.775,2734.0
8540.19,1888.0
8543.606,1253.0
8547.023,1056.0
8550.442,2679.0
8553.862,4261.0
8557.284,2445.0
8560.707,1370.0
8564.131,1106.0
8567.557,3344.0
8570.983,6548.0
8574.412,4080.0
8577.842,1939.0
8581.272,1319.0
8584.705,921.0
8588.139,756.0
8591.574,912.0
8595.011,1352.0
8598.449,1377.0
8601.889,829.0
8605.329,649.0
8608.771,632.0
8612.215,588.0
8615.66,647.0
8619.106,592.0
8622.554,576.0
8626.003,573.0
8629.453,554.0
8632.905,568.0
8636.358,605.0
8639.8125,645.0
8643.269,605.0
8646.726,590.0
8650.185,563.0
8653.645,571.0
8657.106,588.0
8660.569,626.0
8664.033,641.0
8667.499,686.0
8670.966,705.0
8674.435,710.0
8677.904,675.0
8681.375,807.0
8684.848,683.0
8688.321,633.0
8691.797,664.0
8695.273,843.0
8698.752,844.0
8702.231,765.0
8705.712,784.0
8709.194,825.0
8712.678,930.0
8716.163,1045.0
8719.649,895.0
8723.138,954.0
8726.627,890.0
8730.117,935.0
8733.609,964.0
8737.103,1018.0
8740.598,955.0
8744.094,930.0
8747.592,999.0
8751.091,1049.0
8754.591,1167.0
8758.093,1219.0
8761.596,1074.0
8765.101,1070.0
8768.606,1239.0
8772.114,1478.0
8775.623,1359.0
8779.133,1253.0
8782.645,1400.0
8786.157,1286.0
8789.672,1361.0
8793.1875,1375.0
8796.705,1857.0
8800.224,2083.0
8803.744,1529.0
8807.266,1165.0
8810.788,1257.0
8814.3125,2517.0
8817.838,2858.0
8821.365,1753.0
8824.894,1342.0
8828.424,1439.0
8831.955,2858.0
8835.488,3149.0
8839.022,2240.0
8842.558,1748.0
8846.095,1402.0
8849.633,1182.0
8853.173,1227.0
8856.714,1801.0
8860.257,2289.0
8863.801,1687.0
8867.347,1287.0
8870.894,1267.0
8874.442,2074.0
8877.992,2895.0
8881.543,2243.0
8885.096,1610.0
8888.649,1336.0
8892.205,1294.0
8895.762,1306.0
8899.32,1663.0
8902.88,1827.0
8906.441,1406.0
8910.004,1115.0
8913.568,1279.0
8917.134,2054.0
8920.7,1997.0
8924.269,1455.0
8927.838,1287.0
8931.409,1461.0
8934.981,2505.0
8938.556,2192.0
8942.131,1597.0
8945.708,1436.0
8949.286,1161.0
8952.866,1020.0
8956.447,1047.0
8960.03,1424.0
8963.614,1354.0
8967.199,1068.0
8970.786,1051.0
8974.374,1067.0
8977.964,1201.0
8981.555,1148.0
8985.147,1041.0
8988.741,964.0
8992.337,1061.0
8995.934,1129.0
8999.532,1062.0
9003.132,978.0
9006.733,1038.0
9010.336,1128.0
9013.94,996.0
9017.546,943.0
9021.153,991.0
9024.762,1139.0
9028.372,1166.0
9031.983,1022.0
9035.597,833.0
9039.211,936.0
9042.826,1216.0
9046.443,1181.0
9050.062,881.0
9053.682,736.0
9057.303,1007.0
9060.926,1551.0
9064.55,1346.0
9068.176,892.0
9071.803,729.0
9075.432,941.0
9079.062,1204.0
9082.693,970.0
9086.326,750.0
9089.961,740.0
9093.597,805.0
9097.234,994.0
9100.873,793.0
9104.514,780.0
9108.155,702.0
9111.799,603.0
9115.443,639.0
9119.09,727.0
9122.737,890.0
9126.387,725.0
9130.037,675.0
9133.689,646.0
9137.343,767.0
9140.998,880.0
9144.654,838.0
9148.3125,725.0
9151.972,677.0
9155.633,641.0
9159.295,630.0
9162.959,905.0
9166.624,967.0
9170.291,713.0
9173.959,565.0
9177.629,667.0
9181.3,1175.0
9184.973,1123.0
9188.646,767.0
9192.322,556.0
9195.999,826.0
9199.678,1188.0
9203.357,898.0
9207.039,783.0
9210.722,655.0
9214.406,465.0
9218.092,461.0
9221.779,608.0
9225.468,844.0
9229.158,647.0
9232.85,500.0
9236.543,427.0
9240.237,671.0
9243.934,876.0
9247.631,681.0
9251.33,525.0
9255.03,406.0
9258.732,357.0
9262.436,346.0
9266.141,453.0
9269.847,405.0
9273.555,356.0
9277.264,326.0
9280.975,378.0
9284.687,376.0
9288.4,362.0
9292.116,338.0
9295.833,311.0
9299.552,326.0
9303.271,335.0
9306.993,300.0
9310.716,334.0
9314.44,344.0
9318.166,310.0
9321.894,292.0
9325.622,321.0
9329.353,325.0
9333.084,304.0
9336.817,272.0
9340.552,280.0
9344.288,339.0
9348.025,305.0
9351.765,289.0
9355.505,279.0
9359.247,288.0
9362.991,304.0
9366.736,264.0
9370.483,307.0
9374.231,294.0
9377.981,313.0
9381.732,266.0
9385.485,272.0
9389.239,294.0
9392.995,268.0
9396.752,299.0
9400.511,269.0
9404.2705,236.0
9408.032,274.0
9411.796,254.0
9415.561,262.0
9419.327,267.0
9423.095,252.0
9426.864,273.0
9430.635,291.0
9434.407,252.0
9438.181,258.0
9441.956,302.0
9445.732,327.0
9449.511,253.0
9453.291,241.0
9457.072,238.0
9460.855,323.0
9464.64,255.0
9468.426,264.0
9472.213,263.0
9476.002,220.0
9479.792,192.0
9483.584,237.0
9487.377,282.0
9491.172,288.0
9494.969,236.0
9498.767,230.0
9502.566,272.0
9506.367,284.0
9510.17,284.0
9513.974,232.0
9517.779,228.0
9521.586,190.0
9525.395,209.0
9529.205,233.0
9533.017,232.0
9536.83,232.0
9540.645,189.0
9544.461,212.0
9548.278,276.0
9552.098,289.0
9555.919,213.0
9559.741,192.0
9563.565,213.0
9567.391,212.0
9571.218,215.0
9575.046,217.0
9578.876,193.0
9582.708,172.0
9586.541,178.0
9590.376,213.0
9594.212,204.0
9598.05,175.0
9601.889,156.0
9605.7295,186.0
9609.572,197.0
9613.416,191.0
9617.262,195.0
9621.108,168.0
9624.957,194.0
9628.807,165.0
9632.658,197.0
9636.512,184.0
9640.366,195.0
9644.223,182.0
9648.08,192.0
9651.939,197.0
9655.8,161.0
9659.662,170.0
9663.526,173.0
9667.392,158.0
9671.259,191.0
9675.127,195.0
9678.997,226.0
9682.869,183.0
9686.742,161.0
9690.617,161.0
9694.493,164.0
9698.371,153.0
9702.25,196.0
9706.131,175.0
9710.014,188.0
9713.897,160.0
9717.783,164.0
9721.67,158.0
9725.559,163.0
9729.449,158.0
9733.341,150.0
9737.234,147.0
9741.129,137.0
9745.025,142.0
9748.924,162.0
9752.823,166.0
9756.725,147.0
9760.627,180.0
9764.531,160.0
9768.4375,156.0
9772.345,150.0
9776.254,156.0
9780.164,163.0
9784.076,152.0
9787.99,174.0
9791.905,152.0
9795.822,168.0
9799.74,190.0
9803.66,169.0
9807.582,171.0
9811.505,181.0
9815.43,158.0
9819.355,169.0
9823.283,163.0
9827.213,199.0
9831.144,193.0
9835.076,165.0
9839.01,161.0
9842.945,174.0
9846.883,204.0
9850.821,182.0
9854.762,192.0
9858.704,165.0
9862.647,141.0
9866.593,147.0
9870.539,160.0
9874.487,150.0
9878.4375,139.0
9882.389,167.0
9886.342,164.0
9890.296,177.0
9894.252,140.0
9898.21,149.0
9902.169,148.0
9906.13,125.0
9910.093,156.0
9914.057,167.0
9918.022,154.0
9921.989,161.0
9925.958,157.0
9929.929,149.0
9933.9,128.0
9937.874,156.0
9941.85,162.0
9945.826,136.0
9949.805,141.0
9953.784,188.0
9957.766,159.0
9961.749,142.0
9965.733,146.0
9969.72,164.0
9973.708,146.0
9977.697,151.0
9981.688,117.0
9985.681,146.0
9989.675,143.0
9993.671,147.0
9997.668,158.0
10001.667,159.0
10005.668,157.0
10009.67,140.0
10013.674,130.0
10017.68,139.0
10021.687,171.0
10025.695,166.0
10029.706,144.0
10033.718,147.0
10037.731,172.0
10041.746,154.0
10045.763,154.0
10049.781,131.0
10053.801,161.0
10057.822,149.0
10061.846,149.0
10065.87,140.0
10069.896,127.0
10073.925,160.0
10077.954,152.0
10081.985,158.0
10086.019,167.0
10090.053,142.0
10094.089,140.0
10098.127,143.0
10102.166,161.0
10106.207,157.0
10110.25,130.0
10114.294,157.0
10118.34,169.0
10122.387,158.0
10126.436,160.0
10130.486,152.0
10134.538,166.0
10138.592,179.0
10142.647,178.0
10146.704,134.0
10150.763,159.0
10154.823,156.0
10158.885,168.0
10162.948,170.0
10167.014,183.0
10171.08,163.0
10175.148,162.0
10179.219,172.0
10183.29,183.0
10187.363,169.0
10191.438,164.0
10195.515,174.0
10199.593,169.0
10203.673,155.0
10207.754,157.0
10211.837,156.0
10215.922,169.0
10220.008,170.0
10224.096,165.0
10228.186,143.0
10232.276,164.0
10236.369,139.0
10240.464,150.0
10244.56,179.0
10248.657,157.0
10252.757,138.0
10256.858,180.0
10260.961,157.0
10265.065,157.0
10269.172,158.0
10273.279,168.0
10277.389,151.0
10281.5,178.0
10285.612,166.0
10289.727,155.0
10293.843,155.0
10297.96,159.0
10302.079,175.0
10306.2,166.0
10310.322,163.0
10314.446,151.0
10318.572,165.0
10322.699,178.0
10326.828,152.0
10330.959,163.0
10335.092,182.0
10339.226,158.0
10343.361,175.0
10347.499,159.0
10351.638,157.0
10355.778,185.0
10359.921,177.0
10364.064,169.0
10368.21,158.0
10372.357,154.0
10376.507,159.0
10380.657,155.0
10384.81,181.0
10388.964,142.0
10393.119,178.0
10397.276,149.0
10401.436,176.0
10405.596,155.0
10409.758,181.0
10413.922,162.0
10418.088,178.0
10422.255,176.0
10426.424,161.0
10430.595,152.0
10434.767,164.0
10438.94,144.0
10443.116,177.0
10447.294,162.0
10451.473,159.0
10455.653,173.0
10459.836,170.0
10464.02,183.0
10468.205,161.0
10472.393,167.0
10476.581,158.0
10480.771,155.0
10484.964,190.0
10489.158,176.0
10493.354,146.0
10497.551,166.0
10501.75,161.0
10505.951,174.0
10510.153,182.0
10514.357,168.0
10518.563,171.0
10522.7705,169.0
10526.9795,169.0
10531.19,150.0
10535.403,179.0
10539.617,169.0
10543.833,172.0
10548.051,174.0
10552.27,153.0
10556.49,183.0
10560.713,162.0
10564.9375,136.0
10569.163,175.0
10573.391,151.0
10577.62,191.0
10581.852,178.0
10586.084,179.0
10590.318,156.0
10594.555,186.0
10598.793,152.0
10603.032,170.0
10607.273,184.0
10611.517,185.0
10615.761,185.0
10620.007,175.0
10624.255,183.0
10628.505,156.0
10632.756,167.0
10637.009,171.0
10641.264,164.0
10645.5205,169.0
10649.778,168.0
10654.038,181.0
10658.3,182.0
10662.563,167.0
10666.828,150.0
10671.095,177.0
10675.363,167.0
10679.634,162.0
10683.905,190.0
10688.179,196.0
10692.454,182.0
10696.731,192.0
10701.01,167.0
10705.29,173.0
10709.572,156.0
10713.856,162.0
10718.142,187.0
10722.429,211.0
10726.718,166.0
10731.009,168.0
10735.301,192.0
10739.595,203.0
10743.891,220.0
10748.188,219.0
10752.487,178.0
10756.788,208.0
10761.091,205.0
10765.3955,197.0
10769.702,194.0
10774.01,166.0
10778.319,177.0
10782.631,182.0
10786.944,194.0
10791.259,176.0
10795.575,195.0
10799.894,166.0
10804.214,189.0
10808.535,168.0
10812.858,189.0
10817.184,168.0
10821.511,190.0
10825.839,162.0
10830.169,191.0
10834.501,169.0
10838.835,203.0
10843.171,181.0
10847.508,197.0
10851.847,184.0
10856.1875,206.0
10860.53,167.0
10864.874,174.0
10869.22,205.0
10873.567,166.0
10877.917,145.0
10882.269,191.0
10886.621,198.0
10890.976,179.0
10895.332,193.0
10899.69,160.0
10904.051,189.0
10908.412,196.0
10912.775,212.0
10917.141,191.0
10921.508,208.0
10925.876,198.0
10930.246,179.0
10934.618,184.0
10938.992,195.0
10943.368,202.0
10947.745,206.0
10952.124,189.0
10956.505,188.0
10960.888,182.0
10965.272,173.0
10969.658,185.0
10974.046,194.0
10978.436,210.0
10982.827,209.0
10987.221,176.0
10991.615,221.0
10996.012,213.0
11000.41,213.0
11004.811,219.0
11009.213,165.0
11013.616,207.0
11018.021,227.0
11022.429,204.0
11026.838,178.0
11031.249,195.0
11035.661,168.0
11040.075,213.0
11044.491,196.0
11048.909,221.0
11053.329,209.0
11057.75,230.0
11062.173,243.0
11066.598,227.0
11071.024,171.0
11075.453,233.0
11079.884,203.0
11084.315,220.0
11088.749,222.0
11093.185,203.0
11097.622,247.0
11102.062,224.0
11106.502,217.0
11110.944,200.0
11115.389,211.0
11119.835,195.0
11124.283,221.0
11128.733,208.0
11133.185,243.0
11137.638,208.0
11142.093,227.0
11146.55,247.0
11151.009,225.0
11155.469,229.0
11159.931,240.0
11164.395,220.0
11168.86,233.0
11173.328,248.0
11177.798,238.0
11182.269,242.0
11186.741,210.0
11191.216,252.0
11195.692,252.0
11200.171,239.0
11204.651,260.0
11209.133,213.0
11213.616,256.0
11218.102,272.0
11222.589,237.0
11227.078,250.0
11231.569,238.0
11236.062,263.0
11240.556,239.0
11245.052,275.0
11249.55,271.0
11254.05,282.0
11258.552,243.0
11263.056,251.0
11267.561,264.0
11272.067,254.0
11276.576,270.0
11281.087,245.0
11285.6,279.0
11290.114,308.0
11294.63,283.0
11299.147,288.0
11303.667,270.0
11308.188,304.0
11312.712,345.0
11317.237,329.0
11321.765,328.0
11326.293,289.0
11330.823,324.0
11335.355,352.0
11339.89,372.0
11344.426,370.0
11348.964,389.0
11353.504,359.0
11358.045,359.0
11362.588,382.0
11367.133,419.0
11371.68,414.0
11376.229,397.0
11380.779,461.0
11385.332,417.0
11389.886,432.0
11394.441,410.0
11398.999,462.0
11403.559,474.0
11408.12,477.0
11412.684,508.0
11417.249,452.0
11421.816,534.0
11426.385,547.0
11430.955,550.0
11435.527,525.0
11440.102,560.0
11444.678,597.0
11449.256,618.0
11453.836,604.0
11458.417,633.0
11463.0,657.0
11467.585,665.0
11472.172,686.0
11476.761,665.0
11481.352,721.0
11485.944,690.0
11490.539,728.0
11495.136,786.0
11499.733,767.0
11504.333,745.0
11508.935,778.0
11513.538,826.0
11518.144,847.0
11522.751,822.0
11527.36,854.0
11531.972,833.0
11536.584,802.0
11541.198,789.0
11545.814,969.0
11550.433,895.0
11555.053,861.0
11559.675,969.0
11564.299,947.0
11568.925,877.0
11573.553,899.0
11578.183,1048.0
11582.813,962.0
11587.446,866.0
11592.081,980.0
11596.718,1087.0
11601.356,956.0
11605.997,912.0
11610.64,1091.0
11615.284,1089.0
11619.931,848.0
11624.579,986.0
11629.229,1072.0
11633.88,881.0
11638.533,959.0
11643.188,1271.0
11647.846,999.0
11652.505,734.0
11657.166,1042.0
11661.829,1257.0
11666.494,822.0
11671.161,734.0
11675.83,1372.0
11680.5,1432.0
11685.172,834.0
11689.846,732.0
11694.521,795.0
11699.199,720.0
11703.879,579.0
11708.561,577.0
11713.244,558.0
11717.93,449.0
11722.617,479.0
11727.307,453.0
11731.998,445.0
11736.69,455.0
11741.385,432.0
11746.081,397.0
11750.779,351.0
11755.4795,386.0
11760.182,379.0
11764.886,346.0
11769.592,363.0
11774.3,343.0
11779.01,370.0
11783.722,344.0
11788.436,377.0
11793.151,354.0
11797.868,357.0
11802.587,367.0
11807.308,383.0
11812.03,310.0
11816.755,351.0
11821.481,385.0
11826.21,340.0
11830.94,300.0
11835.673,320.0
11840.407,347.0
11845.144,297.0
11849.882,318.0
11854.622,278.0
11859.364,220.0
11864.108,290.0
11868.8545,289.0
11873.602,235.0
11878.351,240.0
11883.102,254.0
11887.8545,257.0
11892.609,228.0
11897.366,220.0
11902.125,242.0
11906.886,224.0
11911.648,212.0
11916.413,224.0
11921.18,208.0
11925.948,221.0
11930.719,203.0
11935.491,205.0
11940.266,206.0
11945.042,200.0
11949.82,206.0
11954.601,248.0
11959.383,214.0
11964.167,222.0
11968.953,234.0
11973.74,196.0
11978.529,192.0
11983.32,197.0
11988.113,211.0
11992.908,194.0
