M/Z,Intensity
800.0,142.0
800.32,149.0
800.64014,58.0
800.9604,171.0
801.28076,279.0
801.60126,78.0
801.9219,108.0
802.2426,178.0
802.56354,85.0
802.8846,226.0
803.20575,178.0
803.52704,55.0
803.84845,87.0
804.17,181.0
804.49164,84.0
804.8134,57.0
805.1353,165.0
805.4574,109.0
805.7796,56.0
806.1019,146.0
806.4244,220.0
806.74695,50.0
807.06964,161.0
807.39246,179.0
807.7154,47.0
808.03845,118.0
808.3617,220.0
808.68506,57.0
809.00854,116.0
809.33215,178.0
809.6559,55.0
809.97974,101.0
810.3037,194.0
810.6278,103.0
810.9521,121.0
811.2765,209.0
811.601,75.0
811.92566,91.0
812.2504,168.0
812.5753,74.0
812.9003,94.0
813.22546,171.0
813.5508,103.0
813.8762,78.0
814.2018,154.0
814.52747,91.0
814.8533,83.0
815.1792,161.0
815.50525,84.0
815.8314,57.0
816.1578,146.0
816.48425,95.0
816.81085,116.0
817.1376,222.0
817.4644,109.0
817.7914,80.0
818.11847,173.0
818.44574,119.0
818.77313,61.0
819.10065,161.0
819.4283,106.0
819.75604,43.0
820.0839,129.0
820.412,117.0
820.7402,43.0
821.0685,151.0
821.3969,143.0
821.72546,61.0
822.05414,127.0
822.38293,134.0
822.7119,58.0
823.041,217.0
823.37024,137.0
823.6996,53.0
824.02905,183.0
824.35864,159.0
824.6884,202.0
825.0183,2317.0
825.3483,218.0
825.67847,112.0
826.0087,1036.0
826.3391,177.0
826.6696,75.0
827.0003,412.0
827.3311,145.0
827.66205,58.0
827.9931,147.0
828.3243,151.0
828.65564,58.0
828.9871,109.0
829.3187,170.0
829.65045,53.0
829.9823,93.0
830.3143,173.0
830.6464,49.0
830.9787,117.0
831.3111,156.0
831.6436,53.0
831.97626,111.0
832.309,144.0
832.64197,60.0
832.97504,130.0
833.3082,159.0
833.64154,59.0
833.975,110.0
834.3086,197.0
834.64233,93.0
834.9762,129.0
835.3102,184.0
835.6443,85.0
835.9785,137.0
836.3129,139.0
836.64746,62.0
836.9821,180.0
837.3169,150.0
837.6518,50.0
837.9869,142.0
838.3221,158.0
838.6574,70.0
838.99286,507.0
839.3284,134.0
839.6642,86.0
840.00006,256.0
840.33606,178.0
840.6722,87.0
841.0084,542.0
841.34485,156.0
841.6814,65.0
842.01807,252.0
842.35486,151.0
842.6918,54.0
843.0289,238.0
843.3661,145.0
843.7034,63.0
844.0409,151.0
844.37854,148.0
844.7163,77.0
845.0542,294.0
845.3922,219.0
845.73035,80.0
846.06866,230.0
846.4071,176.0
846.74567,68.0
847.08435,187.0
847.42316,109.0
847.76215,69.0
848.10126,160.0
848.4405,105.0
848.77985,61.0
849.1194,145.0
849.45905,126.0
849.7988,63.0
850.13873,139.0
850.47876,121.0
850.819,56.0
851.1593,160.0
851.49976,87.0
851.84033,64.0
852.1811,152.0
852.522,99.0
852.863,81.0
853.2041,126.0
853.5454,85.0
853.88684,77.0
854.2284,151.0
854.57007,69.0
854.9119,473.0
855.2539,169.0
855.596,66.0
855.93823,257.0
856.2806,162.0
856.6231,68.0
856.96576,233.0
857.30853,166.0
857.6514,58.0
857.9945,148.0
858.3377,136.0
858.681,62.0
859.0245,179.0
859.3681,146.0
859.71185,71.0
860.0557,139.0
860.3997,141.0
860.7439,456.0
861.0882,908.0
861.4326,166.0
861.77716,348.0
862.1219,397.0
862.46674,126.0
862.8117,187.0
863.15686,187.0
863.50214,108.0
863.84753,114.0
864.19305,134.0
864.53876,83.0
864.8846,111.0
865.2305,170.0
865.5766,74.0
865.92285,90.0
866.2692,170.0
866.6157,53.0
866.96234,161.0
867.30914,155.0
867.65607,68.0
868.0031,120.0
868.35034,137.0
868.6977,50.0
869.04517,122.0
869.39276,108.0
869.74054,49.0
870.08844,119.0
870.43646,115.0
870.7846,68.0
871.13293,127.0
871.4814,81.0
871.82996,66.0
872.1787,136.0
872.5276,88.0
872.8766,144.0
873.2257,144.0
873.575,73.0
873.92444,124.0
874.274,169.0
874.6237,53.0
874.9736,108.0
875.32355,132.0
875.6737,56.0
876.024,141.0
876.3744,179.0
876.7249,173.0
877.0756,250.0
877.42645,158.0
877.7774,152.0
878.12854,169.0
878.4798,108.0
878.8312,129.0
879.18274,154.0
879.5344,66.0
879.8862,105.0
880.23816,197.0
880.5903,79.0
880.9425,119.0
881.29486,161.0
881.6474,55.0
882.00006,106.0
882.35284,148.0
882.7058,76.0
883.0589,129.0
883.4121,151.0
883.7655,74.0
884.119,127.0
884.47266,186.0
884.8264,54.0
885.18036,131.0
885.5344,103.0
885.8886,70.0
886.243,126.0
886.5975,73.0
886.9521,73.0
887.3069,137.0
887.6618,50.0
888.01685,91.0
888.3721,136.0
888.7274,84.0
889.0829,117.0
889.43854,155.0
889.7943,55.0
890.1502,130.0
890.5063,134.0
890.8625,62.0
891.2188,143.0
891.5753,87.0
891.93195,88.0
892.2887,181.0
892.6456,65.0
893.0027,132.0
893.35986,135.0
893.7172,64.0
894.0747,119.0
894.4323,121.0
894.7901,72.0
895.148,121.0
895.50604,102.0
895.86426,66.0
896.2226,139.0
896.58105,57.0
896.9397,72.0
897.29846,138.0
897.6574,61.0
898.0165,100.0
898.3757,138.0
898.73505,71.0
899.09454,104.0
899.45416,136.0
899.81396,54.0
900.1739,145.0
900.53394,79.0
900.89417,54.0
901.2545,145.0
901.615,61.0
901.97565,104.0
902.3364,152.0
902.6974,46.0
903.0585,113.0
903.4197,101.0
903.78107,49.0
904.1426,131.0
904.5042,144.0
904.866,70.0
905.22797,167.0
905.5901,78.0
905.95233,75.0
906.3147,171.0
906.67725,50.0
907.0399,104.0
907.4027,150.0
907.7657,39.0
908.1288,122.0
908.49207,92.0
908.85547,67.0
909.219,114.0
909.5827,67.0
909.94653,58.0
910.3105,129.0
910.6746,50.0
911.0389,100.0
911.4033,121.0
911.7679,49.0
912.13257,108.0
912.49744,102.0
912.8624,49.0
913.2276,146.0
913.5929,68.0
913.9583,90.0
914.3239,138.0
914.68964,64.0
915.05554,87.0
915.4216,118.0
915.7877,45.0
916.15405,99.0
916.5205,105.0
916.88715,66.0
917.2539,124.0
917.6208,61.0
917.98785,72.0
918.35504,153.0
918.7224,48.0
919.0899,118.0
919.4575,119.0
919.8253,54.0
920.19324,188.0
920.56134,75.0
920.92957,79.0
921.2979,160.0
921.66644,54.0
922.0351,96.0
922.40393,138.0
922.7729,53.0
923.14197,114.0
923.5112,101.0
923.8806,72.0
924.2502,132.0
924.6199,56.0
924.98975,73.0
925.35974,119.0
925.72986,49.0
926.10016,119.0
926.4706,94.0
926.8412,66.0
927.2119,128.0
927.5828,52.0
927.95386,74.0
928.325,115.0
928.69635,51.0
929.0678,118.0
929.43945,133.0
929.8112,67.0
930.18317,124.0
930.55524,98.0
930.9274,61.0
931.2998,135.0
931.6723,63.0
932.045,88.0
932.4178,121.0
932.7908,50.0
933.1639,121.0
933.5372,103.0
933.9106,71.0
934.2841,130.0
934.65784,50.0
935.0317,97.0
935.4057,114.0
935.77985,41.0
936.1542,128.0
936.5286,77.0
936.90326,65.0
937.278,129.0
937.65295,52.0
938.028,88.0
938.4032,101.0
938.77856,44.0
939.15405,113.0
939.5297,80.0
939.9055,65.0
940.2815,136.0
940.6576,58.0
941.0339,102.0
941.4103,103.0
941.78687,44.0
942.1636,116.0
942.54047,74.0
942.9175,73.0
943.2947,121.0
943.672,45.0
944.04944,109.0
944.42706,115.0
944.8048,70.0
945.18274,124.0
945.5608,70.0
945.939,74.0
946.3174,118.0
946.6959,57.0
947.0746,97.0
947.4534,107.0
947.8324,43.0
948.21155,164.0
948.5908,59.0
948.9703,75.0
949.34985,131.0
949.7296,50.0
950.1095,120.0
950.48956,98.0
950.86975,59.0
951.2501,138.0
951.6306,68.0
952.0113,83.0
952.3921,135.0
952.7731,46.0
953.1542,92.0
953.53546,67.0
953.9169,58.0
954.29846,112.0
954.6802,55.0
955.0621,100.0
955.4441,113.0
955.8263,51.0
956.2086,101.0
956.5911,78.0
956.97375,76.0
957.35657,105.0
957.7395,48.0
958.1226,115.0
958.50586,83.0
958.8893,49.0
959.2728,130.0
959.65656,52.0
960.0404,86.0
960.42444,93.0
960.8086,54.0
961.19293,115.0
961.5774,69.0
961.96204,93.0
962.3468,116.0
962.73175,46.0
963.1168,104.0
963.5021,90.0
963.88745,84.0
964.273,117.0
964.6587,55.0
965.04456,83.0
965.4306,97.0
965.8168,60.0
966.2031,116.0
966.5896,63.0
966.97626,65.0
967.36304,115.0
967.75,45.0
968.1371,105.0
968.52435,101.0
968.91174,71.0
969.2993,119.0
969.687,53.0
970.0749,151.0
970.4629,128.0
970.8511,82.0
971.23944,111.0
971.6279,69.0
972.0166,80.0
972.4054,118.0
972.7944,50.0
973.1835,102.0
973.57275,88.0
973.96216,50.0
974.35175,111.0
974.7415,62.0
975.1314,100.0
975.5215,83.0
975.9117,65.0
976.30206,106.0
976.69257,54.0
977.08325,96.0
977.47406,118.0
977.86505,60.0
978.2562,106.0
978.6475,69.0
979.039,76.0
979.4306,99.0
979.8224,68.0
980.2143,122.0
980.6064,70.0
980.99866,80.0
981.39105,127.0
981.7836,53.0
982.17633,119.0
982.5692,78.0
982.9622,79.0
983.3554,107.0
983.7488,52.0
984.1423,95.0
984.53595,82.0
984.92975,81.0
985.3237,110.0
985.71783,56.0
986.1121,104.0
986.5066,81.0
986.9012,72.0
987.29596,102.0
987.69086,41.0
988.08594,105.0
988.4812,94.0
988.8766,66.0
989.27216,133.0
989.66785,58.0
990.0637,97.0
990.4597,84.0
990.8559,67.0
991.25226,112.0
991.64874,66.0
992.0454,114.0
992.4422,105.0
992.8392,63.0
993.2363,118.0
993.6336,74.0
994.03107,89.0
994.42865,104.0
994.8264,71.0
995.22437,103.0
995.62244,55.0
996.0207,85.0
996.4191,112.0
996.8177,59.0
997.21643,125.0
997.6153,69.0
998.01434,79.0
998.4136,131.0
998.8129,42.0
999.21246,109.0
999.6121,63.0
1000.01196,104.0
1000.412,100.0
1000.81213,53.0
1001.21246,118.0
1001.613,68.0
1002.0136,97.0
1002.4144,124.0
1002.81537,85.0
1003.2165,107.0
1003.6178,60.0
1004.0192,78.0
1004.42084,108.0
1004.82263,61.0
1005.22455,124.0
1005.62665,71.0
1006.0289,146.0
1006.4313,103.0
1006.83386,72.0
1007.2366,109.0
1007.63947,76.0
1008.04254,152.0
1008.44574,111.0
1008.8491,72.0
1009.2527,126.0
1009.6564,67.0
1010.06024,111.0
1010.4643,92.0
1010.86847,74.0
1011.2728,120.0
1011.6773,56.0
1012.082,109.0
1012.4868,85.0
1012.8918,56.0
1013.29694,102.0
1013.7023,64.0
1014.1077,169.0
1014.51337,76.0
1014.9192,105.0
1015.32513,102.0
1015.73126,62.0
1016.1376,111.0
1016.544,75.0
1016.9506,80.0
1017.3574,116.0
1017.76434,58.0
1018.17145,103.0
1018.57874,85.0
1018.98615,64.0
1019.39374,133.0
1019.8015,67.0
1020.2094,122.0
1020.6175,78.0
1021.02576,68.0
1021.43414,144.0
1021.8427,63.0
1022.25146,130.0
1022.66034,61.0
1023.0694,90.0
1023.47864,132.0
1023.888,63.0
1024.2976,119.0
1024.7073,78.0
1025.1172,92.0
1025.5272,113.0
1025.9374,81.0
1026.3478,105.0
1026.7583,53.0
1027.169,93.0
1027.5798,97.0
1027.9908,130.0
1028.4021,102.0
1028.8135,60.0
1029.225,119.0
1029.6367,77.0
1030.0486,242.0
1030.4606,116.0
1030.8728,131.0
1031.2852,112.0
1031.6976,71.0
1032.1104,112.0
1032.5232,81.0
1032.9362,81.0
1033.3494,104.0
1033.7627,66.0
1034.1761,100.0
1034.5898,77.0
1035.0037,102.0
1035.4177,92.0
1035.8319,71.0
1036.2462,119.0
1036.6608,68.0
1037.0754,80.0
1037.4902,122.0
1037.9053,65.0
1038.3204,132.0
1038.7357,56.0
1039.1512,86.0
1039.5669,88.0
1039.9827,72.0
1040.3987,199.0
1040.8148,39.0
1041.2312,153.0
1041.6477,85.0
1042.0643,81.0
1042.4812,98.0
1042.8982,58.0
1043.3153,134.0
1043.7327,96.0
1044.1501,133.0
1044.5677,92.0
1044.9856,101.0
1045.4036,109.0
1045.8218,85.0
1046.2401,115.0
1046.6586,65.0
1047.0773,93.0
1047.4961,106.0
1047.915,70.0
1048.3342,109.0
1048.7535,48.0
1049.1731,97.0
1049.5928,78.0
1050.0126,238.0
1050.4326,107.0
1050.8528,195.0
1051.2731,130.0
1051.6936,81.0
1052.1143,137.0
1052.5352,87.0
1052.9562,89.0
1053.3773,103.0
1053.7987,121.0
1054.2202,104.0
1054.6418,68.0
1055.0637,106.0
1055.4857,85.0
1055.908,85.0
1056.3303,116.0
1056.7528,67.0
1057.1755,105.0
1057.5984,84.0
1058.0215,81.0
1058.4447,89.0
1058.868,43.0
1059.2916,106.0
1059.7153,84.0
1060.1392,143.0
1060.5632,192.0
1060.9874,92.0
1061.4119,203.0
1061.8364,71.0
1062.2611,122.0
1062.686,61.0
1063.1111,77.0
1063.5364,104.0
1063.9618,77.0
1064.3873,103.0
1064.8131,61.0
1065.239,110.0
1065.6652,185.0
1066.0914,360.0
1066.5178,112.0
1066.9445,274.0
1067.3712,117.0
1067.7982,147.0
1068.2253,124.0
1068.6526,75.0
1069.0801,127.0
1069.5077,98.0
1069.9355,80.0
1070.3635,111.0
1070.7916,63.0
1071.22,111.0
1071.6484,102.0
1072.0771,153.0
1072.506,95.0
1072.9349,104.0
1073.3641,134.0
1073.7935,93.0
1074.223,114.0
1074.6527,51.0
1075.0825,98.0
1075.5126,105.0
1075.9427,75.0
1076.3732,95.0
1076.8037,41.0
1077.2344,89.0
1077.6653,73.0
1078.0963,119.0
1078.5276,78.0
1078.959,82.0
1079.3906,96.0
1079.8224,63.0
1080.2543,102.0
1080.6864,54.0
1081.1187,85.0
1081.5511,75.0
1081.9838,124.0
1082.4165,89.0
1082.8495,93.0
1083.2826,109.0
1083.716,70.0
1084.1494,98.0
1084.5831,68.0
1085.017,73.0
1085.4509,91.0
1085.8851,61.0
1086.3195,101.0
1086.754,69.0
1087.1887,95.0
1087.6235,89.0
1088.0586,115.0
1088.4938,86.0
1088.9292,79.0
1089.3647,90.0
1089.8005,78.0
1090.2365,133.0
1090.6725,81.0
1091.1088,99.0
1091.5452,117.0
1091.9818,65.0
1092.4186,102.0
1092.8556,56.0
1093.2927,114.0
1093.7301,65.0
1094.1676,105.0
1094.6052,78.0
1095.0431,96.0
1095.4811,114.0
1095.9193,71.0
1096.3577,125.0
1096.7963,52.0
1097.235,96.0
1097.6738,58.0
1098.1129,87.0
1098.5521,76.0
1098.9916,76.0
1099.4312,97.0
1099.871,79.0
1100.3109,98.0
1100.751,62.0
1101.1913,91.0
1101.6317,65.0
1102.0724,59.0
1102.5132,108.0
1102.9542,72.0
1103.3954,113.0
1103.8368,97.0
1104.2783,107.0
1104.72,79.0
1105.1619,103.0
1105.6039,87.0
1106.0461,76.0
1106.4885,114.0
1106.9312,58.0
1107.3739,117.0
1107.8169,67.0
1108.26,110.0
1108.7034,64.0
1109.1469,92.0
1109.5905,87.0
1110.0343,83.0
1110.4783,103.0
1110.9225,87.0
1111.3668,80.0
1111.8114,68.0
1112.2561,92.0
1112.701,59.0
1113.1461,83.0
1113.5914,95.0
1114.0369,57.0
1114.4824,97.0
1114.9282,54.0
1115.3741,104.0
1115.8203,66.0
1116.2666,87.0
1116.7131,66.0
1117.1598,82.0
1117.6067,69.0
1118.0537,76.0
1118.501,106.0
1118.9484,65.0
1119.396,95.0
1119.8438,72.0
1120.2917,98.0
1120.7399,66.0
1121.1881,90.0
1121.6366,82.0
1122.0852,70.0
1122.534,92.0
1122.983,70.0
1123.4323,95.0
1123.8816,63.0
1124.3312,120.0
1124.7809,49.0
1125.2308,72.0
1125.6809,58.0
1126.1312,81.0
1126.5817,93.0
1127.0323,67.0
1127.4832,92.0
1127.9342,60.0
1128.3854,88.0
1128.8367,45.0
1129.2882,103.0
1129.7399,77.0
1130.1918,77.0
1130.6438,80.0
1131.0961,81.0
1131.5485,103.0
1132.0011,65.0
1132.4539,108.0
1132.9069,63.0
1133.36,117.0
1133.8134,62.0
1134.2668,107.0
1134.7206,60.0
1135.1744,77.0
1135.6285,73.0
1136.0828,87.0
1136.5372,77.0
1136.9918,79.0
1137.4467,86.0
1137.9016,62.0
1138.3568,118.0
1138.8121,55.0
1139.2677,105.0
1139.7234,55.0
1140.1793,95.0
1140.6354,71.0
1141.0917,69.0
1141.5481,104.0
1142.0048,63.0
1142.4615,81.0
1142.9186,61.0
1143.3757,84.0
1143.8331,63.0
1144.2906,110.0
1144.7484,58.0
1145.2063,94.0
1145.6644,79.0
1146.1227,95.0
1146.5812,92.0
1147.0398,69.0
1147.4987,89.0
1147.9576,61.0
1148.4169,154.0
1148.8762,63.0
1149.3358,156.0
1149.7955,45.0
1150.2555,102.0
1150.7156,67.0
1151.1759,81.0
1151.6364,82.0
1152.097,73.0
1152.5579,103.0
1153.0189,80.0
1153.4801,86.0
1153.9415,54.0
1154.4031,90.0
1154.8649,41.0
1155.3268,115.0
1155.789,59.0
1156.2512,104.0
1156.7137,59.0
1157.1764,79.0
1157.6393,91.0
1158.1023,70.0
1158.5656,108.0
1159.0289,62.0
1159.4926,107.0
1159.9563,51.0
1160.4203,116.0
1160.8844,56.0
1161.3488,94.0
1161.8134,60.0
1162.2781,92.0
1162.743,51.0
1163.2081,92.0
1163.6735,65.0
1164.1389,87.0
1164.6046,78.0
1165.0704,72.0
1165.5365,79.0
1166.0027,50.0
1166.4691,100.0
1166.9357,64.0
1167.4025,90.0
1167.8694,61.0
1168.3365,115.0
1168.8038,62.0
1169.2714,88.0
1169.739,75.0
1170.2069,97.0
1170.675,78.0
1171.1433,81.0
1171.6118,82.0
1172.0804,72.0
1172.5493,95.0
1173.0183,74.0
1173.4875,120.0
1173.9569,62.0
1174.4265,138.0
1174.8962,63.0
1175.3662,99.0
1175.8363,45.0
1176.3066,106.0
1176.7772,69.0
1177.2479,112.0
1177.7189,78.0
1178.19,80.0
1178.6613,66.0
1179.1327,88.0
1179.6044,89.0
1180.0762,67.0
1180.5482,113.0
1181.0204,82.0
1181.4928,93.0
1181.9655,61.0
1182.4382,95.0
1182.9113,62.0
1183.3844,109.0
1183.8578,69.0
1184.3313,91.0
1184.805,51.0
1185.2789,84.0
1185.753,83.0
1186.2273,86.0
1186.7018,80.0
1187.1765,65.0
1187.6514,71.0
1188.1265,76.0
1188.6017,82.0
1189.0771,70.0
1189.5527,74.0
1190.0286,74.0
1190.5045,93.0
1190.9807,58.0
1191.4572,101.0
1191.9337,47.0
1192.4105,133.0
1192.8875,77.0
1193.3646,129.0
1193.8419,60.0
1194.3195,91.0
1194.7972,53.0
1195.2751,81.0
1195.7533,62.0
1196.2316,99.0
1196.7101,69.0
1197.1887,91.0
1197.6676,88.0
1198.1467,95.0
1198.626,84.0
1199.1055,89.0
1199.5851,93.0
1200.065,69.0
1200.5449,104.0
1201.0251,61.0
1201.5056,95.0
1201.9862,61.0
1202.467,100.0
1202.948,86.0
1203.4292,87.0
1203.9105,73.0
1204.3921,104.0
1204.8739,57.0
1205.3558,110.0
1205.838,67.0
1206.3203,101.0
1206.8029,63.0
1207.2855,96.0
1207.7684,55.0
1208.2516,117.0
1208.7349,69.0
1209.2184,86.0
1209.702,63.0
1210.1859,97.0
1210.67,74.0
1211.1543,84.0
1211.6388,90.0
1212.1234,73.0
1212.6083,81.0
1213.0933,77.0
1213.5785,94.0
1214.064,55.0
1214.5496,91.0
1215.0354,84.0
1215.5214,107.0
1216.0076,63.0
1216.494,86.0
1216.9806,69.0
1217.4674,89.0
1217.9543,56.0
1218.4415,81.0
1218.929,77.0
1219.4165,98.0
1219.9043,64.0
1220.3922,81.0
1220.8804,63.0
1221.3688,88.0
1221.8573,56.0
1222.3461,97.0
1222.835,58.0
1223.3241,93.0
1223.8135,67.0
1224.303,90.0
1224.7927,51.0
1225.2826,115.0
1225.7727,66.0
1226.2631,90.0
1226.7535,59.0
1227.2443,84.0
1227.7351,81.0
1228.2262,104.0
1228.7175,86.0
1229.209,85.0
1229.7007,102.0
1230.1925,92.0
1230.6846,83.0
1231.1769,99.0
1231.6693,70.0
1232.162,76.0
1232.6549,92.0
1233.148,86.0
1233.6412,70.0
1234.1346,85.0
1234.6283,83.0
1235.1222,84.0
1235.6162,106.0
1236.1105,73.0
1236.6049,79.0
1237.0995,84.0
1237.5944,84.0
1238.0894,67.0
1238.5846,83.0
1239.0801,83.0
1239.5757,83.0
1240.0715,76.0
1240.5675,88.0
1241.0637,89.0
1241.5602,80.0
1242.0568,72.0
1242.5536,107.0
1243.0507,82.0
1243.5479,99.0
1244.0453,72.0
1244.5428,92.0
1245.0406,76.0
1245.5387,83.0
1246.0369,84.0
1246.5353,140.0
1247.0339,91.0
1247.5327,123.0
1248.0317,62.0
1248.531,103.0
1249.0304,98.0
1249.53,94.0
1250.0298,82.0
1250.5298,102.0
1251.03,70.0
1251.5304,91.0
1252.031,49.0
1252.5319,89.0
1253.0328,53.0
1253.534,76.0
1254.0355,68.0
1254.5371,89.0
1255.039,121.0
1255.541,85.0
1256.0432,97.0
1256.5457,77.0
1257.0482,80.0
1257.551,101.0
1258.0541,68.0
1258.5573,101.0
1259.0607,84.0
1259.5643,78.0
1260.0681,67.0
1260.5721,109.0
1261.0764,133.0
1261.5808,107.0
1262.0854,95.0
1262.5903,94.0
1263.0953,116.0
1263.6006,135.0
1264.1061,82.0
1264.6117,113.0
1265.1176,91.0
1265.6237,92.0
1266.1299,83.0
1266.6364,91.0
1267.1431,77.0
1267.6499,82.0
1268.157,89.0
1268.6642,70.0
1269.1716,95.0
1269.6793,111.0
1270.1871,86.0
1270.6952,117.0
1271.2035,87.0
1271.7119,90.0
1272.2206,91.0
1272.7295,89.0
1273.2385,96.0
1273.7478,82.0
1274.2573,80.0
1274.767,85.0
1275.2769,75.0
1275.787,71.0
1276.2972,96.0
1276.8077,151.0
1277.3185,107.0
1277.8295,134.0
1278.3406,100.0
1278.8519,120.0
1279.3635,89.0
1279.8752,87.0
1280.3872,88.0
1280.8994,73.0
1281.4117,98.0
1281.9243,80.0
1282.4371,132.0
1282.9501,112.0
1283.4633,104.0
1283.9767,55.0
1284.4902,129.0
1285.004,73.0
1285.5181,105.0
1286.0322,75.0
1286.5466,112.0
1287.0613,77.0
1287.576,94.0
1288.0911,77.0
1288.6063,102.0
1289.1218,85.0
1289.6375,91.0
1290.1533,76.0
1290.6694,102.0
1291.1857,92.0
1291.7021,82.0
1292.2189,95.0
1292.7357,91.0
1293.2528,93.0
1293.7701,100.0
1294.2876,90.0
1294.8053,71.0
1295.3232,102.0
1295.8414,61.0
1296.3597,79.0
1296.8783,85.0
1297.3971,99.0
1297.916,67.0
1298.4352,99.0
1298.9546,61.0
1299.4741,98.0
1299.9939,72.0
1300.5139,106.0
1301.0342,59.0
1301.5546,140.0
1302.0752,74.0
1302.5961,140.0
1303.1171,71.0
1303.6383,102.0
1304.1598,78.0
1304.6814,91.0
1305.2032,99.0
1305.7253,84.0
1306.2477,82.0
1306.7701,75.0
1307.2928,86.0
1307.8158,71.0
1308.3389,81.0
1308.8622,75.0
1309.3857,86.0
1309.9095,52.0
1310.4335,88.0
1310.9576,77.0
1311.482,89.0
1312.0066,72.0
1312.5314,89.0
1313.0564,73.0
1313.5817,89.0
1314.107,67.0
1314.6327,80.0
1315.1586,70.0
1315.6847,69.0
1316.2109,88.0
1316.7374,75.0
1317.2642,93.0
1317.791,63.0
1318.3181,97.0
1318.8455,57.0
1319.373,102.0
1319.9008,40.0
1320.4287,88.0
1320.9569,66.0
1321.4854,104.0
1322.0139,69.0
1322.5427,117.0
1323.0718,70.0
1323.601,98.0
1324.1304,81.0
1324.66,124.0
1325.19,80.0
1325.72,81.0
1326.2502,76.0
1326.7808,74.0
1327.3115,82.0
1327.8424,67.0
1328.3735,98.0
1328.9049,58.0
1329.4365,107.0
1329.9683,56.0
1330.5002,85.0
1331.0325,70.0
1331.565,110.0
1332.0975,60.0
1332.6304,158.0
1333.1635,121.0
1333.6968,116.0
1334.2302,89.0
1334.7639,69.0
1335.2979,95.0
1335.832,63.0
1336.3663,104.0
1336.9009,58.0
1337.4357,93.0
1337.9707,68.0
1338.5059,78.0
1339.0413,49.0
1339.5769,96.0
1340.1128,62.0
1340.6488,90.0
1341.185,83.0
1341.7216,103.0
1342.2583,99.0
1342.7952,76.0
1343.3323,106.0
1343.8696,77.0
1344.4072,107.0
1344.945,57.0
1345.4829,97.0
1346.0211,64.0
1346.5596,92.0
1347.0981,59.0
1347.637,76.0
1348.176,55.0
1348.7153,74.0
1349.2548,102.0
1349.7944,93.0
1350.3344,86.0
1350.8745,66.0
1351.4149,83.0
1351.9554,49.0
1352.4962,99.0
1353.0372,43.0
1353.5785,85.0
1354.1199,66.0
1354.6615,77.0
1355.2034,69.0
1355.7455,108.0
1356.2878,83.0
1356.8303,64.0
1357.373,87.0
1357.916,51.0
1358.4592,94.0
1359.0026,64.0
1359.5461,96.0
1360.09,63.0
1360.634,96.0
1361.1783,73.0
1361.7228,68.0
1362.2675,83.0
1362.8124,70.0
1363.3575,87.0
1363.9028,53.0
1364.4484,89.0
1364.9941,50.0
1365.5402,89.0
1366.0864,64.0
1366.6328,172.0
1367.1794,87.0
1367.7263,128.0
1368.2734,86.0
1368.8208,81.0
1369.3683,78.0
1369.916,64.0
1370.464,94.0
1371.0122,54.0
1371.5607,82.0
1372.1093,54.0
1372.6581,83.0
1373.2072,78.0
1373.7565,71.0
1374.306,88.0
1374.8557,57.0
1375.4056,113.0
1375.9558,72.0
1376.5062,112.0
1377.0569,59.0
1377.6077,85.0
1378.1587,71.0
1378.71,99.0
1379.2615,89.0
1379.8132,71.0
1380.3651,84.0
1380.9172,58.0
1381.4696,71.0
1382.0222,61.0
1382.5751,80.0
1383.128,77.0
1383.6813,310.0
1384.2347,130.0
1384.7885,238.0
1385.3424,129.0
1385.8965,86.0
1386.4508,89.0
1387.0054,80.0
1387.5602,98.0
1388.1152,59.0
1388.6705,95.0
1389.226,63.0
1389.7816,82.0
1390.3375,92.0
1390.8937,77.0
1391.4501,83.0
1392.0067,52.0
1392.5635,97.0
1393.1205,62.0
1393.6777,83.0
1394.2352,59.0
1394.793,58.0
1395.3508,89.0
1395.9089,50.0
1396.4673,102.0
1397.0259,77.0
1397.5847,108.0
1398.1438,76.0
1398.703,101.0
1399.2625,86.0
1399.8221,70.0
1400.3821,82.0
1400.9423,65.0
1401.5027,87.0
1402.0632,59.0
1402.624,100.0
1403.185,71.0
1403.7463,69.0
1404.3079,89.0
1404.8696,63.0
1405.4315,111.0
1405.9937,72.0
1406.556,73.0
1407.1187,78.0
1407.6815,78.0
1408.2446,86.0
1408.808,68.0
1409.3715,77.0
1409.9352,52.0
1410.4991,80.0
1411.0634,58.0
1411.6278,92.0
1412.1925,62.0
1412.7573,100.0
1413.3224,96.0
1413.8877,58.0
1414.4532,90.0
1415.019,53.0
1415.5851,86.0
1416.1514,66.0
1416.7178,85.0
1417.2844,93.0
1417.8513,70.0
1418.4185,71.0
1418.9858,56.0
1419.5535,88.0
1420.1213,77.0
1420.6893,81.0
1421.2576,61.0
1421.826,57.0
1422.3948,88.0
1422.9637,51.0
1423.533,102.0
1424.1024,70.0
1424.672,94.0
1425.2418,86.0
1425.8119,79.0
1426.3822,95.0
1426.9528,49.0
1427.5236,91.0
1428.0946,65.0
1428.6659,81.0
1429.2373,96.0
1429.809,60.0
1430.3809,93.0
1430.953,64.0
1431.5254,96.0
1432.098,70.0
1432.6709,95.0
1433.244,82.0
1433.8173,87.0
1434.3907,91.0
1434.9645,74.0
1435.5385,92.0
1436.1127,69.0
1436.6871,85.0
1437.2618,99.0
1437.8368,69.0
1438.412,105.0
1438.9873,58.0
1439.5629,85.0
1440.1387,66.0
1440.7147,75.0
1441.291,86.0
1441.8676,63.0
1442.4443,89.0
1443.0214,63.0
1443.5985,71.0
1444.1759,72.0
1444.7535,71.0
1445.3314,94.0
1445.9095,64.0
1446.4879,79.0
1447.0665,79.0
1447.6454,89.0
1448.2245,73.0
1448.8038,70.0
1449.3833,84.0
1449.963,60.0
1450.543,86.0
1451.1232,73.0
1451.7036,93.0
1452.2843,67.0
1452.8652,76.0
1453.4464,97.0
1454.0278,89.0
1454.6095,105.0
1455.1913,94.0
1455.7733,116.0
1456.3556,117.0
1456.9381,63.0
1457.5209,93.0
1458.1039,62.0
1458.6871,79.0
1459.2706,77.0
1459.8544,94.0
1460.4384,100.0
1461.0226,71.0
1461.6069,112.0
1462.1915,86.0
1462.7764,107.0
1463.3615,93.0
1463.9468,64.0
1464.5323,105.0
1465.1182,63.0
1465.7042,90.0
1466.2905,89.0
1466.8771,86.0
1467.4639,82.0
1468.0509,68.0
1468.6382,95.0
1469.2256,78.0
1469.8132,78.0
1470.4011,84.0
1470.9893,70.0
1471.5776,77.0
1472.1663,70.0
1472.7551,68.0
1473.3442,93.0
1473.9336,58.0
1474.5232,130.0
1475.113,86.0
1475.7031,103.0
1476.2935,92.0
1476.884,80.0
1477.4747,84.0
1478.0657,73.0
1478.6569,85.0
1479.2483,79.0
1479.84,77.0
1480.4319,80.0
1481.024,54.0
1481.6165,99.0
1482.2091,90.0
1482.802,85.0
1483.3951,80.0
1483.9885,86.0
1484.5822,84.0
1485.176,81.0
1485.7701,100.0
1486.3645,72.0
1486.9591,67.0
1487.5538,102.0
1488.1488,67.0
1488.744,81.0
1489.3395,86.0
1489.9352,73.0
1490.5311,95.0
1491.1273,66.0
1491.7238,88.0
1492.3204,61.0
1492.9174,57.0
1493.5145,68.0
1494.1119,76.0
1494.7096,81.0
1495.3075,81.0
1495.9056,77.0
1496.504,92.0
1497.1027,74.0
1497.7015,86.0
1498.3007,74.0
1498.9,67.0
1499.4996,89.0
1500.0995,57.0
1500.6996,80.0
1501.2998,73.0
1501.9003,65.0
1502.501,80.0
1503.1019,64.0
1503.7031,87.0
1504.3046,76.0
1504.9062,72.0
1505.5082,81.0
1506.1104,73.0
1506.7128,98.0
1507.3154,99.0
1507.9183,63.0
1508.5215,102.0
1509.1249,70.0
1509.7285,82.0
1510.3324,74.0
1510.9365,84.0
1511.5409,81.0
1512.1455,79.0
1512.7504,176.0
1513.3555,108.0
1513.9608,106.0
1514.5664,124.0
1515.1722,74.0
1515.7783,111.0
1516.3846,71.0
1516.9912,66.0
1517.598,75.0
1518.2051,87.0
1518.8124,82.0
1519.4199,87.0
1520.0277,66.0
1520.6357,96.0
1521.244,64.0
1521.8525,66.0
1522.4613,82.0
1523.0703,46.0
1523.6796,93.0
1524.2891,82.0
1524.8988,83.0
1525.5088,101.0
1526.119,66.0
1526.7295,91.0
1527.3402,63.0
1527.9512,60.0
1528.5624,104.0
1529.1738,53.0
1529.7855,76.0
1530.3975,76.0
1531.0096,68.0
1531.6221,69.0
1532.2347,61.0
1532.8477,56.0
1533.4608,72.0
1534.0742,55.0
1534.6879,94.0
1535.3018,68.0
1535.9159,78.0
1536.5303,86.0
1537.1449,69.0
1537.7598,70.0
1538.3749,85.0
1538.9902,67.0
1539.6058,84.0
1540.2217,76.0
1540.8378,83.0
1541.4541,94.0
1542.0707,69.0
1542.6875,87.0
1543.3046,73.0
1543.9219,66.0
1544.5394,85.0
1545.1572,54.0
1545.7753,106.0
1546.3936,87.0
1547.0121,63.0
1547.6309,79.0
1548.2499,73.0
1548.8691,64.0
1549.4886,78.0
1550.1084,61.0
1550.7284,79.0
1551.3486,91.0
1551.9691,60.0
1552.5898,79.0
1553.2109,62.0
1553.8323,85.0
1554.4539,105.0
1555.0757,61.0
1555.6978,108.0
1556.3201,77.0
1556.9426,76.0
1557.5654,85.0
1558.1885,50.0
1558.8118,81.0
1559.4353,88.0
1560.0591,64.0
1560.6831,70.0
1561.3074,75.0
1561.9319,87.0
1562.5566,92.0
1563.1816,66.0
1563.8069,69.0
1564.4324,75.0
1565.0581,55.0
1565.6841,72.0
1566.3103,84.0
1566.9368,58.0
1567.5636,84.0
1568.1907,63.0
1568.818,84.0
1569.4456,95.0
1570.0734,69.0
1570.7014,89.0
1571.3297,86.0
1571.9583,57.0
1572.587,131.0
1573.2161,71.0
1573.8453,86.0
1574.4749,82.0
1575.1046,55.0
1575.7346,80.0
1576.3649,72.0
1576.9954,68.0
1577.6261,81.0
1578.2572,82.0
1578.8885,74.0
1579.5201,102.0
1580.152,59.0
1580.784,68.0
1581.4164,84.0
1582.049,58.0
1582.6818,100.0
1583.3148,76.0
1583.9481,50.0
1584.5817,66.0
1585.2155,66.0
1585.8495,79.0
1586.4839,94.0
1587.1185,43.0
1587.7534,92.0
1588.3885,91.0
1589.0239,61.0
1589.6595,77.0
1590.2954,38.0
1590.9315,57.0
1591.5679,78.0
1592.2045,49.0
1592.8413,60.0
1593.4784,81.0
1594.1158,63.0
1594.7535,84.0
1595.3915,86.0
1596.0297,64.0
1596.6681,86.0
1597.3068,70.0
1597.9457,77.0
1598.5848,89.0
1599.2242,74.0
1599.8639,85.0
1600.5038,65.0
1601.144,46.0
1601.7845,83.0
1602.4253,92.0
1603.0663,73.0
1603.7075,83.0
1604.349,84.0
1604.9907,57.0
1605.6327,91.0
1606.2749,68.0
1606.9174,71.0
1607.5602,72.0
1608.2032,64.0
1608.8466,68.0
1609.4901,73.0
1610.1339,59.0
1610.778,69.0
1611.4222,72.0
1612.0668,50.0
1612.7115,87.0
1613.3567,90.0
1614.0021,63.0
1614.6477,87.0
1615.2936,71.0
1615.9397,62.0
1616.586,86.0
1617.2327,64.0
1617.8795,69.0
1618.5266,84.0
1619.1741,71.0
1619.8218,66.0
1620.4697,66.0
1621.1179,67.0
1621.7664,77.0
1622.415,67.0
1623.064,53.0
1623.7131,94.0
1624.3627,94.0
1625.0125,75.0
1625.6625,98.0
1626.3127,86.0
1626.9633,67.0
1627.614,75.0
1628.265,54.0
1628.9163,79.0
1629.5679,68.0
1630.2197,69.0
1630.8718,90.0
1631.5242,100.0
1632.1768,55.0
1632.8296,95.0
1633.4827,68.0
1634.1361,54.0
1634.7898,83.0
1635.4437,88.0
1636.0979,53.0
1636.7523,80.0
1637.407,89.0
1638.0619,63.0
1638.7172,71.0
1639.3727,96.0
1640.0284,70.0
1640.6844,99.0
1641.3407,76.0
1641.9972,74.0
1642.6539,84.0
1643.311,71.0
1643.9684,73.0
1644.626,131.0
1645.2838,94.0
1645.9419,82.0
1646.6002,94.0
1647.2589,74.0
1647.9178,91.0
1648.577,76.0
1649.2365,60.0
1649.8961,65.0
1650.556,71.0
1651.2163,66.0
1651.8768,76.0
1652.5376,63.0
1653.1986,46.0
1653.8599,52.0
1654.5214,51.0
1655.1832,59.0
1655.8453,66.0
1656.5077,74.0
1657.1703,59.0
1657.8331,81.0
1658.4962,79.0
1659.1597,73.0
1659.8234,70.0
1660.4873,78.0
1661.1515,75.0
1661.8159,80.0
1662.4806,75.0
1663.1456,62.0
1663.8109,75.0
1664.4764,82.0
1665.1422,69.0
1665.8082,75.0
1666.4746,97.0
1667.1412,60.0
1667.8081,93.0
1668.4752,89.0
1669.1426,62.0
1669.8102,76.0
1670.4781,80.0
1671.1464,63.0
1671.8148,59.0
1672.4835,81.0
1673.1525,57.0
1673.8218,57.0
1674.4913,84.0
1675.1611,56.0
1675.8312,83.0
1676.5015,81.0
1677.1721,62.0
1677.843,77.0
1678.5142,69.0
1679.1855,61.0
1679.8572,90.0
1680.5292,77.0
1681.2014,44.0
1681.8739,70.0
1682.5466,83.0
1683.2196,70.0
1683.893,75.0
1684.5665,80.0
1685.2404,69.0
1685.9144,88.0
1686.5887,103.0
1687.2634,87.0
1687.9384,66.0
1688.6135,85.0
1689.289,66.0
1689.9646,88.0
1690.6406,74.0
1691.3169,70.0
1691.9934,68.0
1692.6702,75.0
1693.3473,72.0
1694.0247,68.0
1694.7023,74.0
1695.3801,71.0
1696.0582,67.0
1696.7367,75.0
1697.4154,73.0
1698.0944,55.0
1698.7736,67.0
1699.4531,112.0
1700.1329,51.0
1700.813,85.0
1701.4933,95.0
1702.1738,51.0
1702.8547,85.0
1703.5359,61.0
1704.2173,64.0
1704.8989,59.0
1705.5809,78.0
1706.2632,81.0
1706.9457,76.0
1707.6284,76.0
1708.3115,76.0
1708.9949,74.0
1709.6785,79.0
1710.3623,77.0
1711.0465,57.0
1711.731,90.0
1712.4156,62.0
1713.1006,65.0
1713.7858,75.0
1714.4713,62.0
1715.1571,68.0
1715.8431,84.0
1716.5294,70.0
1717.2161,56.0
1717.903,59.0
1718.5901,74.0
1719.2775,52.0
1719.9652,54.0
1720.6532,83.0
1721.3414,83.0
1722.0299,61.0
1722.7188,89.0
1723.4078,78.0
1724.0972,67.0
1724.7869,75.0
1725.4768,87.0
1726.167,70.0
1726.8574,74.0
1727.5482,93.0
1728.2393,68.0
1728.9305,88.0
1729.6221,68.0
1730.314,58.0
1731.0061,62.0
1731.6985,66.0
1732.3911,69.0
1733.0841,57.0
1733.7773,68.0
1734.4708,73.0
1735.1647,72.0
1735.8588,73.0
1736.5531,73.0
1737.2477,49.0
1737.9426,73.0
1738.6378,81.0
1739.3333,67.0
1740.0289,55.0
1740.725,84.0
1741.4213,90.0
1742.1178,52.0
1742.8147,94.0
1743.5118,77.0
1744.2092,51.0
1744.9069,69.0
1745.6049,75.0
1746.3031,71.0
1747.0016,63.0
1747.7004,78.0
1748.3995,73.0
1749.0989,82.0
1749.7985,94.0
1750.4984,85.0
1751.1986,50.0
1751.899,76.0
1752.5999,79.0
1753.3009,68.0
1754.0022,68.0
1754.7039,59.0
1755.4058,88.0
1756.1079,52.0
1756.8103,87.0
1757.5131,81.0
1758.2161,74.0
1758.9193,73.0
1759.6229,85.0
1760.3268,66.0
1761.0309,71.0
1761.7354,85.0
1762.4401,67.0
1763.145,60.0
1763.8502,84.0
1764.5558,98.0
1765.2616,77.0
1765.9677,72.0
1766.6741,97.0
1767.3807,92.0
1768.0876,73.0
1768.7949,77.0
1769.5024,69.0
1770.2102,56.0
1770.9183,65.0
1771.6267,100.0
1772.3353,75.0
1773.0443,67.0
1773.7535,75.0
1774.463,71.0
1775.1729,71.0
1775.8829,55.0
1776.5933,73.0
1777.304,67.0
1778.0149,60.0
1778.7261,73.0
1779.4376,65.0
1780.1494,57.0
1780.8615,84.0
1781.5739,80.0
1782.2865,77.0
1782.9994,70.0
1783.7126,85.0
1784.4261,81.0
1785.1399,54.0
1785.854,89.0
1786.5684,65.0
1787.283,51.0
1787.9979,76.0
1788.7131,76.0
1789.4286,60.0
1790.1444,62.0
1790.8605,65.0
1791.5768,87.0
1792.2935,63.0
1793.0104,53.0
1793.7275,83.0
1794.4451,87.0
1795.1628,64.0
1795.8809,72.0
1796.5992,80.0
1797.3179,73.0
1798.0367,55.0
1798.756,75.0
1799.4755,88.0
1800.1953,62.0
1800.9154,61.0
1801.6357,63.0
1802.3564,66.0
1803.0774,50.0
1803.7986,70.0
1804.5201,73.0
1805.242,61.0
1805.964,109.0
1806.6864,110.0
1807.409,86.0
1808.1321,83.0
1808.8553,70.0
1809.5789,85.0
1810.3027,64.0
1811.0269,75.0
1811.7512,94.0
1812.476,83.0
1813.2009,53.0
1813.9261,62.0
1814.6517,94.0
1815.3776,86.0
1816.1038,68.0
1816.8302,79.0
1817.5569,73.0
1818.2839,66.0
1819.0112,74.0
1819.7389,76.0
1820.4668,58.0
1821.195,53.0
1821.9235,79.0
1822.6522,65.0
1823.3812,67.0
1824.1106,53.0
1824.8402,82.0
1825.5702,86.0
1826.3004,65.0
1827.0309,80.0
1827.7617,93.0
1828.4928,70.0
1829.2242,70.0
1829.9559,81.0
1830.6879,76.0
1831.4202,58.0
1832.1527,79.0
1832.8856,73.0
1833.6188,69.0
1834.3522,60.0
1835.0859,53.0
1835.82,70.0
1836.5543,86.0
1837.289,73.0
1838.0238,81.0
1838.759,91.0
1839.4945,80.0
1840.2303,63.0
1840.9664,78.0
1841.7028,82.0
1842.4395,83.0
1843.1764,72.0
1843.9137,54.0
1844.6512,93.0
1845.3892,72.0
1846.1273,68.0
1846.8657,61.0
1847.6045,78.0
1848.3435,53.0
1849.0829,66.0
1849.8225,65.0
1850.5624,100.0
1851.3026,67.0
1852.0431,77.0
1852.7839,70.0
1853.525,81.0
1854.2665,58.0
1855.0082,66.0
1855.7501,85.0
1856.4924,93.0
1857.235,62.0
1857.9779,74.0
1858.7211,99.0
1859.4646,90.0
1860.2084,71.0
1860.9525,67.0
1861.6969,66.0
1862.4415,70.0
1863.1865,62.0
1863.9318,73.0
1864.6774,82.0
1865.4232,66.0
1866.1694,68.0
1866.9159,71.0
1867.6627,88.0
1868.4098,92.0
1869.1571,67.0
1869.9048,72.0
1870.6527,66.0
1871.401,79.0
1872.1495,76.0
1872.8984,96.0
1873.6476,87.0
1874.3971,57.0
1875.1469,64.0
1875.8969,100.0
1876.6472,88.0
1877.3978,84.0
1878.1488,66.0
1878.9,89.0
1879.6516,64.0
1880.4034,76.0
1881.1556,62.0
1881.9081,88.0
1882.6609,81.0
1883.414,79.0
1884.1674,75.0
1884.921,119.0
1885.675,124.0
1886.4293,105.0
1887.1838,67.0
1887.9387,81.0
1888.6938,83.0
1889.4493,76.0
1890.2051,60.0
1890.9612,54.0
1891.7175,80.0
1892.4742,70.0
1893.2312,64.0
1893.9885,65.0
1894.7461,73.0
1895.504,87.0
1896.2622,63.0
1897.0208,81.0
1897.7795,90.0
1898.5387,83.0
1899.2981,65.0
1900.0579,93.0
1900.8179,91.0
1901.5782,70.0
1902.3389,77.0
1903.0999,65.0
1903.8611,93.0
1904.6227,93.0
1905.3845,71.0
1906.1467,81.0
1906.9092,70.0
1907.672,73.0
1908.435,49.0
1909.1985,70.0
1909.9622,65.0
1910.7262,82.0
1911.4905,89.0
1912.2551,79.0
1913.02,90.0
1913.7853,209.0
1914.5508,165.0
1915.3167,126.0
1916.0828,149.0
1916.8492,98.0
1917.616,85.0
1918.383,71.0
1919.1504,66.0
1919.9181,91.0
1920.686,82.0
1921.4543,95.0
1922.2229,64.0
1922.9918,71.0
1923.761,85.0
1924.5305,67.0
1925.3003,57.0
1926.0704,74.0
1926.8408,77.0
1927.6116,72.0
1928.3826,74.0
1929.1539,56.0
1929.9255,88.0
1930.6975,68.0
1931.4698,79.0
1932.2424,60.0
1933.0154,79.0
1933.7886,65.0
1934.5621,68.0
1935.3359,49.0
1936.1101,57.0
1936.8845,63.0
1937.6593,101.0
1938.4343,98.0
1939.2097,74.0
1939.9854,90.0
1940.7614,98.0
1941.5376,72.0
1942.3142,48.0
1943.0912,69.0
1943.8684,65.0
1944.646,70.0
1945.4238,70.0
1946.202,63.0
1946.9805,63.0
1947.7593,70.0
1948.5383,88.0
1949.3177,69.0
1950.0975,71.0
1950.8776,76.0
1951.658,77.0
1952.4386,73.0
1953.2196,75.0
1954.0009,77.0
1954.7825,75.0
1955.5643,70.0
1956.3466,73.0
1957.1292,71.0
1957.912,79.0
1958.6952,83.0
1959.4786,59.0
1960.2625,55.0
1961.0465,77.0
1961.8309,74.0
1962.6157,62.0
1963.4008,57.0
1964.1862,67.0
1964.9718,78.0
1965.7578,71.0
1966.5441,69.0
1967.3307,52.0
1968.1177,76.0
1968.9049,74.0
1969.6925,76.0
1970.4803,65.0
1971.2686,71.0
1972.057,62.0
1972.8458,83.0
1973.635,77.0
1974.4244,71.0
1975.2142,58.0
1976.0043,68.0
1976.7947,58.0
1977.5854,98.0
1978.3765,74.0
1979.1678,70.0
1979.9595,75.0
1980.7515,82.0
1981.5438,69.0
1982.3364,66.0
1983.1294,49.0
1983.9226,80.0
1984.7162,70.0
1985.5101,70.0
1986.3043,82.0
1987.0989,71.0
1987.8937,70.0
1988.6888,71.0
1989.4844,70.0
1990.2802,53.0
1991.0763,72.0
1991.8727,65.0
1992.6694,82.0
1993.4666,82.0
1994.2639,75.0
1995.0616,72.0
1995.8596,90.0
1996.658,69.0
1997.4567,71.0
1998.2556,59.0
1999.0549,70.0
1999.8546,79.0
2000.6545,68.0
2001.4548,50.0
2002.2554,62.0
2003.0563,57.0
2003.8575,72.0
2004.659,77.0
2005.4609,61.0
2006.2631,60.0
2007.0656,70.0
2007.8684,67.0
2008.6715,83.0
2009.475,85.0
2010.2788,80.0
2011.0829,83.0
2011.8873,115.0
2012.6921,102.0
2013.4972,94.0
2014.3026,65.0
2015.1083,65.0
2015.9143,82.0
2016.7207,80.0
2017.5273,72.0
2018.3344,63.0
2019.1417,62.0
2019.9493,61.0
2020.7573,70.0
2021.5657,89.0
2022.3743,72.0
2023.1832,51.0
2023.9926,66.0
2024.8021,71.0
2025.612,61.0
2026.4224,77.0
2027.2329,72.0
2028.0438,75.0
2028.855,89.0
2029.6665,75.0
2030.4784,65.0
2031.2905,66.0
2032.103,71.0
2032.9159,71.0
2033.729,70.0
2034.5425,73.0
2035.3563,78.0
2036.1704,73.0
2036.9849,65.0
2037.7997,88.0
2038.6147,66.0
2039.4302,75.0
2040.246,82.0
2041.062,55.0
2041.8784,73.0
2042.6952,84.0
2043.5123,89.0
2044.3297,66.0
2045.1475,67.0
2045.9656,69.0
2046.7839,63.0
2047.6027,73.0
2048.4216,61.0
2049.241,57.0
2050.0605,62.0
2050.8806,65.0
2051.701,69.0
2052.5217,85.0
2053.3428,84.0
2054.164,62.0
2054.9858,58.0
2055.8079,86.0
2056.6301,68.0
2057.453,73.0
2058.276,58.0
2059.099,63.0
2059.9229,68.0
2060.7468,72.0
2061.571,70.0
2062.3958,55.0
2063.2207,80.0
2064.046,61.0
2064.8716,74.0
2065.6975,87.0
2066.5237,62.0
2067.3503,81.0
2068.1772,64.0
2069.0046,73.0
2069.8323,70.0
2070.6602,72.0
2071.4885,70.0
2072.3171,78.0
2073.146,72.0
2073.9753,87.0
2074.805,87.0
2075.6348,76.0
2076.465,70.0
2077.2957,56.0
2078.1265,67.0
2078.9578,70.0
2079.7893,73.0
2080.6213,88.0
2081.4536,71.0
2082.2861,61.0
2083.1191,65.0
2083.9524,104.0
2084.786,83.0
2085.6199,81.0
2086.454,84.0
2087.2886,74.0
2088.1235,71.0
2088.9587,61.0
2089.7944,70.0
2090.6304,73.0
2091.4666,68.0
2092.3032,76.0
2093.1401,78.0
2093.9773,78.0
2094.815,67.0
2095.6528,68.0
2096.4912,59.0
2097.3298,66.0
2098.1687,84.0
2099.008,71.0
2099.8477,71.0
2100.6875,65.0
2101.5278,67.0
2102.3684,58.0
2103.2095,70.0
2104.0508,74.0
2104.8923,72.0
2105.7344,82.0
2106.5767,80.0
2107.4192,64.0
2108.2622,66.0
2109.1055,71.0
2109.9492,67.0
2110.7932,69.0
2111.6375,75.0
2112.4822,88.0
2113.3271,69.0
2114.1724,73.0
2115.018,83.0
2115.864,87.0
2116.7104,75.0
2117.5571,71.0
2118.404,53.0
2119.2515,56.0
2120.099,73.0
2120.9473,77.0
2121.7957,64.0
2122.6443,81.0
2123.4934,60.0
2124.3428,71.0
2125.1926,77.0
2126.0427,62.0
2126.893,84.0
2127.744,66.0
2128.595,65.0
2129.4463,71.0
2130.298,54.0
2131.1501,61.0
2132.0027,63.0
2132.8555,75.0
2133.7085,88.0
2134.562,89.0
2135.4158,75.0
2136.27,66.0
2137.1245,94.0
2137.9792,81.0
2138.8345,88.0
2139.69,85.0
2140.546,98.0
2141.402,75.0
2142.2585,92.0
2143.1155,81.0
2143.9727,84.0
2144.8303,69.0
2145.6882,75.0
2146.5464,73.0
2147.405,81.0
2148.264,69.0
2149.1233,88.0
2149.983,78.0
2150.843,86.0
2151.7034,76.0
2152.564,70.0
2153.425,78.0
2154.2864,67.0
2155.1482,70.0
2156.0103,77.0
2156.8726,75.0
2157.7354,83.0
2158.5984,63.0
2159.462,84.0
2160.3257,96.0
2161.1897,87.0
2162.0542,89.0
2162.919,89.0
2163.7842,92.0
2164.6497,67.0
2165.5156,70.0
2166.3818,79.0
2167.2483,68.0
2168.1152,91.0
2168.9824,72.0
2169.85,83.0
2170.718,87.0
2171.5864,87.0
2172.455,75.0
2173.324,73.0
2174.1934,59.0
2175.063,79.0
2175.933,72.0
2176.8035,102.0
2177.674,77.0
2178.5452,108.0
2179.4165,74.0
2180.2883,81.0
2181.1604,92.0
2182.033,89.0
2182.9058,78.0
2183.7788,66.0
2184.6523,78.0
2185.5261,84.0
2186.4004,58.0
2187.275,66.0
2188.15,66.0
2189.0251,88.0
2189.9006,75.0
2190.7766,100.0
2191.6528,78.0
2192.5295,78.0
2193.4065,78.0
2194.284,66.0
2195.1616,92.0
2196.0398,78.0
2196.9182,80.0
2197.7969,74.0
2198.676,87.0
2199.5554,92.0
2200.4353,79.0
2201.3154,71.0
2202.196,87.0
2203.077,79.0
2203.9583,84.0
2204.8398,83.0
2205.7217,92.0
2206.604,83.0
2207.4866,83.0
2208.3696,75.0
2209.253,72.0
2210.1367,68.0
2211.0208,83.0
2211.9053,79.0
2212.79,91.0
2213.675,63.0
2214.5605,88.0
2215.4463,95.0
2216.3325,86.0
2217.219,93.0
2218.106,107.0
2218.9932,92.0
2219.8809,97.0
2220.7688,79.0
2221.6572,77.0
2222.546,85.0
2223.4348,93.0
2224.3242,90.0
2225.2139,71.0
2226.104,98.0
2226.9944,92.0
2227.8853,83.0
2228.7764,74.0
2229.668,92.0
2230.5598,71.0
2231.4521,81.0
2232.3447,90.0
2233.2375,82.0
2234.1309,100.0
2235.0244,96.0
2235.9185,86.0
2236.8127,103.0
2237.7075,78.0
2238.6025,80.0
2239.498,80.0
2240.3938,80.0
2241.29,86.0
2242.1865,83.0
2243.0835,77.0
2243.9807,85.0
2244.8784,82.0
2245.7764,93.0
2246.6746,86.0
2247.5732,96.0
2248.4722,94.0
2249.3716,75.0
2250.2712,99.0
2251.1714,101.0
2252.0718,81.0
2252.9727,100.0
2253.8738,78.0
2254.7754,93.0
2255.6772,86.0
2256.5796,108.0
2257.4822,116.0
2258.3853,94.0
2259.2886,109.0
2260.1924,106.0
2261.0964,120.0
2262.001,96.0
2262.9058,85.0
2263.811,78.0
2264.7166,79.0
2265.6226,100.0
2266.5288,96.0
2267.4353,65.0
2268.3423,89.0
2269.2495,98.0
2270.1572,76.0
2271.0652,98.0
2271.9736,78.0
2272.8823,97.0
2273.7915,91.0
2274.701,113.0
2275.6108,153.0
2276.521,160.0
2277.4316,136.0
2278.3425,132.0
2279.254,128.0
2280.1655,98.0
2281.0776,114.0
2281.99,107.0
2282.9028,89.0
2283.816,102.0
2284.7295,94.0
2285.6433,88.0
2286.5576,95.0
2287.4722,93.0
2288.3872,127.0
2289.3025,76.0
2290.2183,103.0
2291.1343,94.0
2292.0508,88.0
2292.9675,121.0
2293.8848,141.0
2294.8022,117.0
2295.7202,108.0
2296.6384,109.0
2297.5571,97.0
2298.476,84.0
2299.3955,104.0
2300.3152,109.0
2301.2354,107.0
2302.1558,107.0
2303.0767,154.0
2303.9978,128.0
2304.9194,98.0
2305.8413,114.0
2306.7637,110.0
2307.6863,118.0
2308.6094,109.0
2309.5327,98.0
2310.4565,106.0
2311.3806,99.0
2312.3052,102.0
2313.23,97.0
2314.1553,74.0
2315.081,90.0
2316.007,97.0
2316.9336,115.0
2317.8604,81.0
2318.7876,137.0
2319.715,131.0
2320.643,134.0
2321.5713,107.0
2322.5,99.0
2323.429,122.0
2324.3584,101.0
2325.288,135.0
2326.2183,106.0
2327.1487,121.0
2328.0796,124.0
2329.0107,125.0
2329.9424,133.0
2330.8743,118.0
2331.8066,111.0
2332.7393,90.0
2333.6724,89.0
2334.6057,112.0
2335.5396,108.0
2336.4739,90.0
2337.4084,105.0
2338.3435,101.0
2339.2788,113.0
2340.2146,78.0
2341.1506,74.0
2342.0872,105.0
2343.024,109.0
2343.9612,108.0
2344.8987,111.0
2345.8367,140.0
2346.775,123.0
2347.7136,97.0
2348.6526,96.0
2349.592,100.0
2350.532,108.0
2351.4722,93.0
2352.4128,97.0
2353.3538,107.0
2354.2952,106.0
2355.2368,79.0
2356.179,106.0
2357.1213,85.0
2358.0642,97.0
2359.0073,94.0
2359.951,97.0
2360.895,98.0
2361.8394,104.0
2362.7842,104.0
2363.7292,123.0
2364.6748,95.0
2365.6206,113.0
2366.567,85.0
2367.5134,81.0
2368.4604,86.0
2369.4077,91.0
2370.3555,84.0
2371.3037,97.0
2372.2522,114.0
2373.2012,94.0
2374.1504,99.0
2375.1,81.0
2376.05,84.0
2377.0005,88.0
2377.9512,100.0
2378.9023,94.0
2379.854,97.0
2380.806,103.0
2381.7583,86.0
2382.711,85.0
2383.664,109.0
2384.6174,82.0
2385.5713,82.0
2386.5256,83.0
2387.4802,110.0
2388.4353,103.0
2389.3906,106.0
2390.3464,111.0
2391.3025,109.0
2392.259,85.0
2393.2158,96.0
2394.173,104.0
2395.1309,103.0
2396.0889,119.0
2397.0474,109.0
2398.006,110.0
2398.9653,77.0
2399.9248,90.0
2400.8848,77.0
2401.8452,85.0
2402.806,83.0
2403.767,89.0
2404.7285,87.0
2405.6904,81.0
2406.6526,80.0
2407.6152,80.0
2408.5784,85.0
2409.5417,81.0
2410.5056,83.0
2411.4697,92.0
2412.4343,78.0
2413.3994,87.0
2414.3647,100.0
2415.3306,89.0
2416.2966,93.0
2417.2632,74.0
2418.23,74.0
2419.1973,85.0
2420.165,71.0
2421.133,97.0
2422.1016,103.0
2423.0703,105.0
2424.0396,94.0
2425.0093,85.0
2425.9792,88.0
2426.9497,72.0
2427.9204,100.0
2428.8916,86.0
2429.863,72.0
2430.835,100.0
2431.8074,125.0
2432.78,115.0
2433.7532,95.0
2434.7266,70.0
2435.7004,85.0
2436.6748,83.0
2437.6494,89.0
2438.6245,84.0
2439.5999,86.0
2440.5757,79.0
2441.552,77.0
2442.5286,68.0
2443.5056,87.0
2444.483,86.0
2445.4607,79.0
2446.439,79.0
2447.4175,91.0
2448.3965,93.0
2449.3757,106.0
2450.3555,99.0
2451.3357,88.0
2452.3162,78.0
2453.297,82.0
2454.2783,80.0
2455.26,77.0
2456.2422,80.0
2457.2246,76.0
2458.2075,79.0
2459.191,52.0
2460.1746,84.0
2461.1587,75.0
2462.143,77.0
2463.128,81.0
2464.1133,84.0
2465.0989,88.0
2466.085,97.0
2467.0713,96.0
2468.058,91.0
2469.0454,96.0
2470.033,99.0
2471.021,89.0
2472.0095,68.0
2472.9983,89.0
2473.9875,74.0
2474.977,84.0
2475.967,89.0
2476.9575,92.0
2477.9482,84.0
2478.9395,94.0
2479.931,79.0
2480.9229,82.0
2481.9153,80.0
2482.908,67.0
2483.9011,97.0
2484.8948,83.0
2485.8887,78.0
2486.883,96.0
2487.878,82.0
2488.873,85.0
2489.8687,70.0
2490.8645,66.0
2491.8608,79.0
2492.8577,86.0
2493.8547,102.0
2494.8523,80.0
2495.8503,76.0
2496.8486,94.0
2497.8474,101.0
2498.8464,105.0
2499.846,105.0
2500.846,67.0
2501.8462,97.0
2502.847,91.0
2503.8481,78.0
2504.8496,79.0
2505.8516,80.0
2506.854,81.0
2507.8567,73.0
2508.8599,67.0
2509.8635,71.0
2510.8674,66.0
2511.8718,79.0
2512.8765,57.0
2513.8816,74.0
2514.8872,85.0
2515.893,70.0
2516.8994,82.0
2517.9062,75.0
2518.9133,81.0
2519.921,82.0
2520.929,85.0
2521.9373,81.0
2522.946,71.0
2523.9553,78.0
2524.9648,86.0
2525.9749,81.0
2526.9854,90.0
2527.996,68.0
2529.0073,75.0
2530.019,73.0
2531.031,88.0
2532.0435,70.0
2533.0562,88.0
2534.0693,80.0
2535.083,94.0
2536.097,90.0
2537.1113,85.0
2538.1262,75.0
2539.1414,91.0
2540.157,80.0
2541.173,78.0
2542.1895,89.0
2543.2063,77.0
2544.2236,97.0
2545.2412,80.0
2546.2593,76.0
2547.2778,106.0
2548.2966,97.0
2549.316,83.0
2550.3357,112.0
2551.3557,106.0
2552.3762,82.0
2553.3972,109.0
2554.4185,86.0
2555.4402,81.0
2556.4624,65.0
2557.485,74.0
2558.508,72.0
2559.5315,84.0
2560.5554,71.0
2561.5796,89.0
2562.6042,116.0
2563.6294,123.0
2564.6548,93.0
2565.6807,81.0
2566.707,88.0
2567.7336,85.0
2568.7607,62.0
2569.7883,83.0
2570.8162,83.0
2571.8445,80.0
2572.8733,75.0
2573.9023,70.0
2574.932,76.0
2575.962,84.0
2576.9922,89.0
2578.023,110.0
2579.0542,97.0
2580.086,93.0
2581.118,105.0
2582.1504,89.0
2583.1833,81.0
2584.2166,62.0
2585.2502,94.0
2586.2844,87.0
2587.3188,98.0
2588.3538,86.0
2589.3892,92.0
2590.4248,92.0
2591.461,107.0
2592.4976,112.0
2593.5347,127.0
2594.572,101.0
2595.6099,110.0
2596.6482,124.0
2597.6868,94.0
2598.7258,81.0
2599.7654,94.0
2600.8052,73.0
2601.8455,100.0
2602.8862,95.0
2603.9275,97.0
2604.969,98.0
2606.011,88.0
2607.0535,91.0
2608.0962,103.0
2609.1394,98.0
2610.183,110.0
2611.2273,103.0
2612.2717,86.0
2613.3167,82.0
2614.362,88.0
2615.4077,90.0
2616.4539,97.0
2617.5005,102.0
2618.5476,77.0
2619.595,121.0
2620.6428,98.0
2621.6912,133.0
2622.7397,106.0
2623.7888,98.0
2624.8384,93.0
2625.8884,97.0
2626.9387,87.0
2627.9895,81.0
2629.0408,78.0
2630.0923,93.0
2631.1443,96.0
2632.1968,118.0
2633.2498,82.0
2634.303,91.0
2635.3567,92.0
2636.411,102.0
2637.4653,95.0
2638.5203,82.0
2639.5757,81.0
2640.6316,82.0
2641.6877,78.0
2642.7444,84.0
2643.8015,86.0
2644.8591,104.0
2645.917,91.0
2646.9753,118.0
2648.0342,113.0
2649.0935,107.0
2650.153,110.0
2651.2131,103.0
2652.2737,84.0
2653.3345,101.0
2654.3958,94.0
2655.4575,77.0
2656.5198,91.0
2657.5823,79.0
2658.6453,77.0
2659.7087,95.0
2660.7727,83.0
2661.837,90.0
2662.9016,83.0
2663.9668,183.0
2665.0325,225.0
2666.0984,175.0
2667.1648,139.0
2668.2317,97.0
2669.299,98.0
2670.3667,101.0
2671.4348,80.0
2672.5034,71.0
2673.5725,108.0
2674.6418,85.0
2675.7117,90.0
2676.782,86.0
2677.8528,97.0
2678.9238,95.0
2679.9954,93.0
2681.0674,77.0
2682.14,89.0
2683.2126,56.0
2684.286,88.0
2685.3596,93.0
2686.4338,83.0
2687.5083,88.0
2688.5833,89.0
2689.6587,88.0
2690.7346,85.0
2691.8108,75.0
2692.8875,90.0
2693.9646,95.0
2695.0422,86.0
2696.1204,68.0
2697.1987,81.0
2698.2776,88.0
2699.357,86.0
2700.4368,75.0
2701.5168,105.0
2702.5974,96.0
2703.6785,80.0
2704.76,83.0
2705.8418,98.0
2706.924,93.0
2708.0068,94.0
2709.09,78.0
2710.1738,100.0
2711.2578,89.0
2712.3423,105.0
2713.4272,86.0
2714.5127,85.0
2715.5984,89.0
2716.6846,81.0
2717.7712,99.0
2718.8584,92.0
2719.946,90.0
2721.034,80.0
2722.1223,89.0
2723.2112,82.0
2724.3005,80.0
2725.3901,99.0
2726.4802,89.0
2727.5708,95.0
2728.6619,87.0
2729.7534,81.0
2730.8452,98.0
2731.9375,97.0
2733.0303,85.0
2734.1235,111.0
2735.2173,138.0
2736.3113,157.0
2737.4058,119.0
2738.5007,86.0
2739.5962,91.0
2740.6921,95.0
2741.7883,74.0
2742.885,75.0
2743.9822,76.0
2745.0798,88.0
2746.178,87.0
2747.2764,64.0
2748.3752,99.0
2749.4746,98.0
2750.5745,106.0
2751.6748,102.0
2752.7754,80.0
2753.8765,94.0
2754.978,88.0
2756.08,74.0
2757.1826,82.0
2758.2854,96.0
2759.3887,95.0
2760.4924,88.0
2761.5967,88.0
2762.7014,87.0
2763.8064,101.0
2764.9119,102.0
2766.0178,96.0
2767.1243,69.0
2768.2312,83.0
2769.3384,81.0
2770.446,78.0
2771.5542,88.0
2772.6628,89.0
2773.772,86.0
2774.8816,83.0
2775.9915,117.0
2777.1018,101.0
2778.2126,113.0
2779.324,88.0
2780.4358,90.0
2781.5479,101.0
2782.6604,71.0
2783.7734,84.0
2784.887,89.0
2786.001,77.0
2787.1155,75.0
2788.2302,72.0
2789.3455,79.0
2790.4612,87.0
2791.5774,128.0
2792.694,181.0
2793.8113,261.0
2794.9287,278.0
2796.0466,204.0
2797.165,159.0
2798.284,126.0
2799.4033,148.0
2800.5232,135.0
2801.6433,109.0
2802.764,138.0
2803.885,120.0
2805.0066,141.0
2806.1287,121.0
2807.2512,175.0
2808.374,174.0
2809.4973,136.0
2810.621,135.0
2811.7454,141.0
2812.87,122.0
2813.9954,139.0
2815.1208,133.0
2816.2468,116.0
2817.3733,149.0
2818.5002,140.0
2819.6277,120.0
2820.7556,114.0
2821.884,110.0
2823.0127,123.0
2824.1418,130.0
2825.2715,113.0
2826.4016,113.0
2827.5322,126.0
2828.6633,120.0
2829.7947,133.0
2830.9265,146.0
2832.0588,126.0
2833.1917,149.0
2834.325,140.0
2835.4587,136.0
2836.593,116.0
2837.7275,121.0
2838.8625,114.0
2839.998,120.0
2841.134,131.0
2842.2705,129.0
2843.4075,133.0
2844.545,132.0
2845.6829,137.0
2846.821,133.0
2847.9597,148.0
2849.0989,165.0
2850.2385,159.0
2851.3787,125.0
2852.5193,155.0
2853.6604,133.0
2854.8018,137.0
2855.9436,130.0
2857.086,140.0
2858.2288,143.0
2859.372,140.0
2860.5159,137.0
2861.6602,140.0
2862.805,115.0
2863.95,161.0
2865.0955,171.0
2866.2415,184.0
2867.388,187.0
2868.535,157.0
2869.6824,140.0
2870.8303,148.0
2871.9788,123.0
2873.1274,125.0
2874.2766,146.0
2875.4263,130.0
2876.5764,141.0
2877.727,95.0
2878.8782,122.0
2880.0298,134.0
2881.182,169.0
2882.3345,138.0
2883.4873,125.0
2884.6406,95.0
2885.7944,110.0
2886.9487,122.0
2888.1035,125.0
2889.2588,128.0
2890.4146,199.0
2891.5708,228.0
2892.7275,196.0
2893.8845,178.0
2895.042,131.0
2896.2,122.0
2897.3584,107.0
2898.5173,121.0
2899.6768,119.0
2900.8367,111.0
2901.997,123.0
2903.158,106.0
2904.3193,159.0
2905.481,188.0
2906.643,166.0
2907.8057,283.0
2908.9688,323.0
2910.1323,308.0
2911.2964,207.0
2912.461,176.0
2913.626,126.0
2914.7915,137.0
2915.9575,128.0
2917.124,130.0
2918.2908,120.0
2919.458,159.0
2920.6257,117.0
2921.794,180.0
2922.9626,203.0
2924.1318,209.0
2925.3015,198.0
2926.4717,156.0
2927.6423,169.0
2928.8135,116.0
2929.985,127.0
2931.157,169.0
2932.3293,178.0
2933.5022,150.0
2934.6755,143.0
2935.8494,114.0
2937.0237,120.0
2938.1985,131.0
2939.3738,129.0
2940.5496,147.0
2941.7258,143.0
2942.9026,161.0
2944.0798,147.0
2945.2576,140.0
2946.4358,142.0
2947.6143,195.0
2948.7932,319.0
2949.9727,271.0
2951.1526,209.0
2952.333,171.0
2953.514,165.0
2954.6953,127.0
2955.8772,140.0
2957.0596,144.0
2958.2424,142.0
2959.4258,152.0
2960.6096,114.0
2961.794,145.0
2962.9788,125.0
2964.164,123.0
2965.3496,131.0
2966.5356,135.0
2967.7222,121.0
2968.9092,131.0
2970.0967,133.0
2971.2847,117.0
2972.4731,152.0
2973.662,122.0
2974.8516,148.0
2976.0415,121.0
2977.232,140.0
2978.4229,131.0
2979.6143,157.0
2980.8062,145.0
2981.9985,109.0
2983.1914,129.0
2984.3848,142.0
2985.5786,128.0
2986.773,145.0
2987.9678,134.0
2989.1628,123.0
2990.3584,123.0
2991.5544,155.0
2992.751,149.0
2993.948,143.0
2995.1455,134.0
2996.3435,140.0
2997.542,149.0
2998.741,122.0
2999.9404,133.0
3001.1404,122.0
3002.3408,147.0
3003.5417,168.0
3004.7432,158.0
3005.945,149.0
3007.1475,131.0
3008.3503,137.0
3009.5537,162.0
3010.7576,153.0
3011.962,142.0
3013.1667,121.0
3014.372,149.0
3015.578,165.0
3016.7842,135.0
3017.991,123.0
3019.1982,129.0
3020.406,168.0
3021.6143,168.0
3022.823,150.0
3024.0322,129.0
3025.242,155.0
3026.4521,167.0
3027.6628,143.0
3028.874,136.0
3030.0857,118.0
3031.2976,114.0
3032.51,137.0
3033.723,143.0
3034.9363,115.0
3036.1501,122.0
3037.3645,148.0
3038.5793,134.0
3039.7947,129.0
3041.0105,111.0
3042.2268,134.0
3043.4436,140.0
3044.661,132.0
3045.8787,130.0
3047.097,119.0
3048.3157,125.0
3049.535,148.0
3050.7546,137.0
3051.9749,130.0
3053.1956,128.0
3054.4167,137.0
3055.6384,145.0
3056.8606,137.0
3058.0833,116.0
3059.3064,127.0
3060.53,133.0
3061.7542,131.0
3062.9788,148.0
3064.2039,129.0
3065.4294,136.0
3066.6555,151.0
3067.882,151.0
3069.1091,164.0
3070.3367,175.0
3071.5647,143.0
3072.7932,133.0
3074.0222,128.0
3075.2517,136.0
3076.4817,135.0
3077.7124,134.0
3078.9436,144.0
3080.1753,146.0
3081.4075,142.0
3082.6401,130.0
3083.8733,131.0
3085.107,111.0
3086.341,130.0
3087.5757,152.0
3088.8108,120.0
3090.0464,118.0
3091.2825,113.0
3092.519,150.0
3093.756,168.0
3094.9937,151.0
3096.2317,140.0
3097.4702,172.0
3098.7092,140.0
3099.9487,115.0
3101.1887,122.0
3102.4292,123.0
3103.6702,141.0
3104.9116,111.0
3106.1536,125.0
3107.396,132.0
3108.639,117.0
3109.8823,195.0
3111.1262,227.0
3112.3706,222.0
3113.6155,164.0
3114.8608,142.0
3116.1067,140.0
3117.353,136.0
3118.5999,132.0
3119.8474,143.0
3121.0955,108.0
3122.344,137.0
3123.593,107.0
3124.8425,140.0
3126.0925,132.0
3127.343,117.0
3128.594,150.0
3129.8455,116.0
3131.0974,115.0
3132.3499,142.0
3133.6028,138.0
3134.8562,129.0
3136.11,136.0
3137.3645,155.0
3138.6194,135.0
3139.8748,117.0
3141.1306,113.0
3142.387,129.0
3143.6438,141.0
3144.9014,152.0
3146.1594,134.0
3147.418,133.0
3148.677,113.0
3149.9365,110.0
3151.1965,120.0
3152.457,158.0
3153.718,152.0
3154.9795,138.0
3156.2415,110.0
3157.504,117.0
3158.7668,128.0
3160.0303,95.0
3161.2942,123.0
3162.5586,114.0
3163.8237,128.0
3165.0894,119.0
3166.3555,134.0
3167.622,142.0
3168.8892,119.0
3170.1567,143.0
3171.4248,138.0
3172.6934,150.0
3173.9624,109.0
3175.232,114.0
3176.502,140.0
3177.7725,129.0
3179.0435,112.0
3180.3152,141.0
3181.5874,126.0
3182.86,137.0
3184.1333,122.0
3185.407,141.0
3186.6812,154.0
3187.9558,165.0
3189.231,157.0
3190.5066,150.0
3191.7827,145.0
3193.0593,113.0
3194.3367,137.0
3195.6145,153.0
3196.8928,110.0
3198.1716,136.0
3199.451,125.0
3200.7307,127.0
3202.011,122.0
3203.2917,129.0
3204.573,121.0
3205.8547,124.0
3207.137,119.0
3208.42,112.0
3209.7034,119.0
3210.9873,122.0
3212.2717,125.0
3213.5566,140.0
3214.842,136.0
3216.128,130.0
3217.4143,160.0
3218.7012,128.0
3219.9888,131.0
3221.2769,127.0
3222.5654,141.0
3223.8545,145.0
3225.144,136.0
3226.434,116.0
3227.7246,138.0
3229.0156,107.0
3230.3071,127.0
3231.5994,117.0
3232.892,123.0
3234.1853,135.0
3235.479,158.0
3236.7732,145.0
3238.0679,150.0
3239.363,142.0
3240.6587,159.0
3241.9548,136.0
3243.2517,109.0
3244.549,141.0
3245.847,97.0
3247.1453,108.0
3248.444,126.0
3249.7434,115.0
3251.0432,117.0
3252.3438,134.0
3253.6448,158.0
3254.9463,122.0
3256.2483,129.0
3257.5508,129.0
3258.8538,121.0
3260.1572,97.0
3261.4612,120.0
3262.7659,113.0
3264.071,101.0
3265.3767,122.0
3266.6829,145.0
3267.9895,113.0
3269.2966,147.0
3270.6042,184.0
3271.9126,171.0
3273.2214,134.0
3274.5308,136.0
3275.8406,108.0
3277.151,114.0
3278.4617,132.0
3279.773,122.0
3281.085,128.0
3282.3975,133.0
3283.7104,135.0
3285.024,139.0
3286.338,122.0
3287.6523,140.0
3288.9673,131.0
3290.283,116.0
3291.599,145.0
3292.9158,129.0
3294.233,131.0
3295.5505,138.0
3296.8687,121.0
3298.1875,132.0
3299.5068,105.0
3300.8267,134.0
3302.147,102.0
3303.4678,114.0
3304.789,121.0
3306.111,108.0
3307.4336,156.0
3308.7566,138.0
3310.08,133.0
3311.404,143.0
3312.7285,132.0
3314.0537,151.0
3315.3794,132.0
3316.7056,124.0
3318.0322,126.0
3319.3594,118.0
3320.687,128.0
3322.0154,129.0
3323.3442,131.0
3324.6736,118.0
3326.0034,109.0
3327.3337,141.0
3328.6648,123.0
3329.9963,125.0
3331.3284,108.0
3332.661,151.0
3333.994,109.0
3335.3274,137.0
3336.6616,157.0
3337.9963,129.0
3339.3315,120.0
3340.6672,148.0
3342.0034,126.0
3343.3403,120.0
3344.6777,118.0
3346.0156,118.0
3347.354,110.0
3348.6929,140.0
3350.0322,116.0
3351.3723,113.0
3352.713,136.0
3354.054,119.0
3355.3955,117.0
3356.7375,132.0
3358.0803,107.0
3359.4236,135.0
3360.7673,108.0
3362.1116,105.0
3363.4563,121.0
3364.8018,121.0
3366.1477,105.0
3367.4941,158.0
3368.841,140.0
3370.1887,144.0
3371.5369,140.0
3372.8855,124.0
3374.2346,128.0
3375.5842,144.0
3376.9346,115.0
3378.2854,123.0
3379.6367,104.0
3380.9885,132.0
3382.3408,116.0
3383.6938,137.0
3385.0474,133.0
3386.4014,142.0
3387.7559,132.0
3389.1108,103.0
3390.4666,120.0
3391.8228,130.0
3393.1794,111.0
3394.5366,124.0
3395.8945,123.0
3397.253,115.0
3398.6118,135.0
3399.9712,107.0
3401.3313,127.0
3402.692,136.0
3404.053,131.0
3405.4146,148.0
3406.7766,159.0
3408.1394,144.0
3409.5027,121.0
3410.8665,143.0
3412.2307,146.0
3413.5957,143.0
3414.9612,134.0
3416.3271,130.0
3417.6936,114.0
3419.0608,135.0
3420.4285,170.0
3421.7966,150.0
3423.1653,127.0
3424.5347,136.0
3425.9045,130.0
3427.275,140.0
3428.6458,168.0
3430.017,162.0
3431.3892,153.0
3432.7617,146.0
3434.1348,130.0
3435.5083,136.0
3436.8826,131.0
3438.2573,122.0
3439.6326,145.0
3441.0083,113.0
3442.3848,121.0
3443.7617,130.0
3445.1392,113.0
3446.5173,132.0
3447.896,106.0
3449.2751,117.0
3450.6548,134.0
3452.0352,116.0
3453.416,131.0
3454.7974,139.0
3456.1792,142.0
3457.5618,147.0
3458.9448,141.0
3460.3284,134.0
3461.7124,127.0
3463.0972,142.0
3464.4824,142.0
3465.8682,147.0
3467.2544,128.0
3468.6414,146.0
3470.0288,130.0
3471.4167,99.0
3472.8054,131.0
3474.1946,135.0
3475.5842,140.0
3476.9744,102.0
3478.3652,131.0
3479.7566,150.0
3481.1484,133.0
3482.541,127.0
3483.934,139.0
3485.3276,114.0
3486.7217,156.0
3488.1165,131.0
3489.5117,140.0
3490.9075,143.0
3492.304,118.0
3493.701,142.0
3495.0984,151.0
3496.4963,145.0
3497.895,147.0
3499.2942,142.0
3500.6938,166.0
3502.0942,129.0
3503.495,169.0
3504.8965,145.0
3506.2983,140.0
3507.701,115.0
3509.104,134.0
3510.5076,136.0
3511.9119,149.0
3513.3167,139.0
3514.722,125.0
3516.128,124.0
3517.5344,120.0
3518.9414,118.0
3520.3489,137.0
3521.757,170.0
3523.1658,133.0
3524.575,159.0
3525.9849,139.0
3527.3953,135.0
3528.8062,98.0
3530.2178,150.0
3531.63,194.0
3533.0425,145.0
3534.4558,134.0
3535.8696,122.0
3537.284,129.0
3538.6987,128.0
3540.1143,143.0
3541.5303,134.0
3542.9468,123.0
3544.364,131.0
3545.7817,123.0
3547.2,118.0
3548.619,147.0
3550.0383,103.0
3551.4583,142.0
3552.879,135.0
3554.3,154.0
3555.7217,135.0
3557.144,140.0
3558.567,145.0
3559.9902,126.0
3561.4143,125.0
3562.8389,145.0
3564.264,123.0
3565.6897,142.0
3567.116,134.0
3568.5427,129.0
3569.9702,138.0
3571.3982,145.0
3572.8267,150.0
3574.2559,132.0
3575.6855,123.0
3577.1157,124.0
3578.5466,145.0
3579.978,132.0
3581.41,146.0
3582.8425,145.0
3584.2756,132.0
3585.7092,166.0
3587.1436,132.0
3588.5784,151.0
3590.014,156.0
3591.45,150.0
3592.8865,126.0
3594.3237,145.0
3595.7615,158.0
3597.1997,127.0
3598.6387,151.0
3600.0781,154.0
3601.518,167.0
3602.9587,141.0
3604.4,154.0
3605.8416,155.0
3607.284,155.0
3608.7268,169.0
3610.1704,156.0
3611.6145,150.0
3613.059,126.0
3614.5044,135.0
3615.9502,175.0
3617.3965,223.0
3618.8435,205.0
3620.291,156.0
3621.739,138.0
3623.1877,119.0
3624.637,172.0
3626.087,120.0
3627.5374,165.0
3628.9883,159.0
3630.44,137.0
3631.892,173.0
3633.3447,131.0
3634.798,153.0
3636.252,133.0
3637.7065,144.0
3639.1616,130.0
3640.6172,156.0
3642.0735,172.0
3643.5303,146.0
3644.9878,163.0
3646.4458,176.0
3647.9043,146.0
3649.3635,148.0
3650.8232,159.0
3652.2837,138.0
3653.7446,158.0
3655.206,121.0
3656.6682,182.0
3658.1309,154.0
3659.594,153.0
3661.0579,168.0
3662.5222,148.0
3663.9873,148.0
3665.453,154.0
3666.919,156.0
3668.3857,165.0
3669.853,148.0
3671.321,133.0
3672.7896,155.0
3674.2585,141.0
3675.7283,175.0
3677.1985,180.0
3678.6694,159.0
3680.1409,154.0
3681.613,173.0
3683.0857,147.0
3684.5588,154.0
3686.0327,125.0
3687.507,156.0
3688.9822,141.0
3690.4578,134.0
3691.9338,156.0
3693.4106,151.0
3694.888,142.0
3696.366,146.0
3697.8445,176.0
3699.3237,121.0
3700.8035,161.0
3702.2837,139.0
3703.7646,146.0
3705.246,130.0
3706.7283,126.0
3708.211,137.0
3709.6943,195.0
3711.1782,173.0
3712.6626,200.0
3714.1477,141.0
3715.6333,146.0
3717.1196,139.0
3718.6064,173.0
3720.094,172.0
3721.582,169.0
3723.0706,127.0
3724.5598,136.0
3726.0496,153.0
3727.54,147.0
3729.031,171.0
3730.5227,140.0
3732.015,159.0
3733.5078,216.0
3735.0012,252.0
3736.495,194.0
3737.9897,171.0
3739.4849,178.0
3740.9807,172.0
3742.477,178.0
3743.974,176.0
3745.4717,162.0
3746.97,166.0
3748.4688,161.0
3749.968,243.0
3751.468,406.0
3752.9685,472.0
3754.4697,258.0
3755.9714,247.0
3757.4739,165.0
3758.9768,166.0
3760.4805,162.0
3761.9846,153.0
3763.4895,167.0
3764.9949,149.0
3766.501,152.0
3768.0076,186.0
3769.515,182.0
3771.0227,161.0
3772.531,159.0
3774.04,186.0
3775.5496,183.0
3777.0598,181.0
3778.5706,176.0
3780.082,182.0
3781.594,159.0
3783.1067,227.0
3784.6199,205.0
3786.1338,196.0
3787.6482,188.0
3789.1633,173.0
3790.679,140.0
3792.1953,169.0
3793.7122,173.0
3795.2297,166.0
3796.7478,189.0
3798.2666,182.0
3799.786,206.0
3801.306,139.0
3802.8264,167.0
3804.3477,166.0
3805.8694,142.0
3807.3918,149.0
3808.9148,212.0
3810.4385,198.0
3811.9626,156.0
3813.4875,186.0
3815.013,173.0
3816.539,177.0
3818.0657,197.0
3819.593,183.0
3821.1208,151.0
3822.6494,177.0
3824.1785,159.0
3825.7083,168.0
3827.2385,156.0
3828.7695,171.0
3830.301,172.0
3831.8333,173.0
3833.366,171.0
3834.8994,170.0
3836.4333,149.0
3837.968,175.0
3839.5032,165.0
3841.039,189.0
3842.5754,160.0
3844.1125,169.0
3845.6501,197.0
3847.1885,179.0
3848.7273,226.0
3850.2668,227.0
3851.807,211.0
3853.3477,175.0
3854.889,189.0
3856.431,158.0
3857.9734,141.0
3859.5166,163.0
3861.0603,144.0
3862.6047,170.0
3864.1497,177.0
3865.6953,197.0
3867.2417,173.0
3868.7886,172.0
3870.3362,176.0
3871.8843,206.0
3873.433,166.0
3874.9824,184.0
3876.5325,175.0
3878.083,157.0
3879.6343,177.0
3881.186,185.0
3882.7385,216.0
3884.2915,205.0
3885.8452,194.0
3887.3997,212.0
3888.9546,159.0
3890.5103,173.0
3892.0664,178.0
3893.6233,196.0
3895.1807,210.0
3896.7388,220.0
3898.2974,181.0
3899.8567,211.0
3901.4167,188.0
3902.9773,211.0
3904.5386,165.0
3906.1003,204.0
3907.6628,190.0
3909.2258,176.0
3910.7896,190.0
3912.3538,177.0
3913.9187,191.0
3915.4844,188.0
3917.0505,183.0
3918.6174,168.0
3920.1848,187.0
3921.753,192.0
3923.3215,189.0
3924.8909,179.0
3926.461,191.0
3928.0315,168.0
3929.6028,152.0
3931.1746,162.0
3932.747,179.0
3934.32,166.0
3935.8938,187.0
3937.4683,151.0
3939.0432,173.0
3940.619,165.0
3942.195,162.0
3943.772,159.0
3945.3494,177.0
3946.9275,149.0
3948.5063,163.0
3950.0857,198.0
3951.6658,171.0
3953.2463,153.0
3954.8276,160.0
3956.4097,172.0
3957.9922,169.0
3959.5754,195.0
3961.1592,198.0
3962.7437,178.0
3964.3289,146.0
3965.9146,163.0
3967.501,146.0
3969.088,168.0
3970.6755,177.0
3972.264,178.0
3973.8528,159.0
3975.4424,180.0
3977.0325,138.0
3978.6233,158.0
3980.2148,158.0
3981.807,158.0
3983.3997,199.0
3984.993,196.0
3986.587,164.0
3988.1816,171.0
3989.7769,167.0
3991.3728,189.0
3992.9692,225.0
3994.5664,169.0
3996.1643,178.0
3997.7627,175.0
3999.3618,177.0
4000.9617,184.0
4002.562,184.0
4004.163,187.0
4005.7646,184.0
4007.367,163.0
4008.97,173.0
4010.5735,191.0
4012.1777,193.0
4013.7827,202.0
4015.3882,175.0
4016.9944,168.0
4018.601,178.0
4020.2085,205.0
4021.8167,188.0
4023.4253,191.0
4025.0347,192.0
4026.6448,162.0
4028.2554,186.0
4029.8667,232.0
4031.4788,185.0
4033.0913,206.0
4034.7046,195.0
4036.3184,235.0
4037.9329,235.0
4039.548,202.0
4041.1638,210.0
4042.7803,233.0
4044.3975,220.0
4046.0151,229.0
4047.6335,204.0
4049.2527,218.0
4050.8723,295.0
4052.4927,285.0
4054.1138,270.0
4055.7354,227.0
4057.3577,220.0
4058.9807,297.0
4060.6042,357.0
4062.2285,265.0
4063.8535,266.0
4065.479,258.0
4067.1052,266.0
4068.7322,314.0
4070.3596,324.0
4071.9878,370.0
4073.6167,352.0
4075.246,291.0
4076.8762,275.0
4078.507,286.0
4080.1384,308.0
4081.7705,409.0
4083.4033,370.0
4085.0366,437.0
4086.6707,486.0
4088.3054,378.0
4089.9407,297.0
4091.5767,273.0
4093.2134,595.0
4094.8506,979.0
4096.489,580.0
4098.1274,317.0
4099.7666,237.0
4101.4067,599.0
4103.0474,1745.0
4104.6885,1386.0
4106.3306,590.0
4107.973,316.0
4109.616,249.0
4111.2603,211.0
4112.905,282.0
4114.55,324.0
4116.196,251.0
4117.8423,244.0
4119.4893,193.0
4121.137,206.0
4122.7856,222.0
4124.4346,214.0
4126.0845,227.0
4127.735,191.0
4129.3857,179.0
4131.0376,208.0
4132.69,206.0
4134.343,204.0
4135.9966,213.0
4137.651,178.0
4139.306,169.0
4140.962,186.0
4142.618,192.0
4144.2754,194.0
4145.933,202.0
4147.5913,198.0
4149.2505,170.0
4150.91,189.0
4152.5703,183.0
4154.2314,206.0
4155.893,187.0
4157.5557,203.0
4159.2188,239.0
4160.8823,179.0
4162.547,202.0
4164.212,206.0
4165.8774,230.0
4167.544,227.0
4169.211,209.0
4170.8784,191.0
4172.547,204.0
4174.216,216.0
4175.8857,238.0
4177.556,227.0
4179.227,196.0
4180.899,201.0
4182.5713,203.0
4184.244,185.0
4185.918,155.0
4187.5923,222.0
4189.267,194.0
4190.943,228.0
4192.619,191.0
4194.2964,179.0
4195.974,184.0
4197.6523,222.0
4199.3315,213.0
4201.011,197.0
4202.6914,175.0
4204.3726,198.0
4206.054,199.0
4207.737,205.0
4209.42,223.0
4211.1035,170.0
4212.788,190.0
4214.473,205.0
4216.1587,158.0
4217.845,181.0
4219.532,205.0
4221.22,165.0
4222.9087,190.0
4224.5977,187.0
4226.2876,180.0
4227.978,169.0
4229.6694,164.0
4231.3613,178.0
4233.0537,213.0
4234.747,243.0
4236.441,196.0
4238.1353,175.0
4239.8306,198.0
4241.5264,184.0
4243.223,221.0
4244.9204,201.0
4246.618,213.0
4248.317,194.0
4250.016,199.0
4251.7163,209.0
4253.417,197.0
4255.118,200.0
4256.8203,205.0
4258.523,225.0
4260.2266,204.0
4261.9307,192.0
4263.6353,211.0
4265.341,220.0
4267.047,242.0
4268.754,259.0
4270.4614,237.0
4272.1694,185.0
4273.8784,198.0
4275.588,249.0
4277.2983,309.0
4279.0093,281.0
4280.7207,200.0
4282.433,218.0
4284.146,296.0
4285.86,489.0
4287.574,368.0
4289.289,285.0
4291.005,185.0
4292.721,212.0
4294.4385,182.0
4296.1562,219.0
4297.8745,218.0
4299.5938,214.0
4301.3135,189.0
4303.034,208.0
4304.7554,190.0
4306.477,198.0
4308.1997,197.0
4309.923,172.0
4311.647,176.0
4313.3716,164.0
4315.097,166.0
4316.823,155.0
4318.55,165.0
4320.2773,183.0
4322.0054,163.0
4323.7344,184.0
4325.464,192.0
4327.194,166.0
4328.925,176.0
4330.6562,203.0
4332.3887,181.0
4334.1216,165.0
4335.8555,200.0
4337.59,202.0
4339.3247,197.0
4341.0605,185.0
4342.797,205.0
4344.534,169.0
4346.272,164.0
4348.0103,206.0
4349.7495,220.0
4351.4893,210.0
4353.23,197.0
4354.971,174.0
4356.7134,233.0
4358.456,192.0
4360.199,179.0
4361.9434,213.0
4363.688,185.0
4365.4336,229.0
4367.1797,215.0
4368.927,188.0
4370.6743,191.0
4372.4224,193.0
4374.1714,237.0
4375.921,208.0
4377.6714,209.0
4379.4224,208.0
4381.1743,194.0
4382.927,222.0
4384.6797,195.0
4386.4336,225.0
4388.188,243.0
4389.9434,218.0
4391.699,188.0
4393.456,224.0
4395.2134,229.0
4396.9717,198.0
4398.7305,233.0
4400.4897,244.0
4402.25,223.0
4404.0107,234.0
4405.7725,227.0
4407.5347,229.0
4409.298,295.0
4411.0615,270.0
4412.826,222.0
4414.5913,260.0
4416.357,311.0
4418.1235,328.0
4419.8906,321.0
4421.6587,259.0
4423.4272,247.0
4425.197,259.0
4426.967,255.0
4428.738,250.0
4430.5093,326.0
4432.2812,327.0
4434.054,259.0
4435.8276,273.0
4437.602,305.0
4439.377,339.0
4441.153,311.0
4442.929,302.0
4444.7065,303.0
4446.4844,291.0
4448.263,311.0
4450.0425,298.0
4451.8223,322.0
4453.603,297.0
4455.3843,306.0
4457.1665,298.0
4458.949,308.0
4460.733,351.0
4462.517,311.0
4464.3022,282.0
4466.088,320.0
4467.8745,356.0
4469.6616,376.0
4471.4497,347.0
4473.2383,322.0
4475.0273,336.0
4476.8174,304.0
4478.608,293.0
4480.3994,371.0
4482.1914,390.0
4483.9844,343.0
4485.778,292.0
4487.5723,339.0
4489.367,348.0
4491.163,394.0
4492.9595,356.0
4494.757,327.0
4496.5547,327.0
4498.3535,422.0
4500.153,417.0
4501.953,363.0
4503.754,358.0
4505.555,377.0
4507.3574,432.0
4509.16,353.0
4510.964,342.0
4512.768,430.0
4514.573,429.0
4516.379,357.0
4518.1855,335.0
4519.9927,329.0
4521.801,485.0
4523.6094,482.0
4525.419,308.0
4527.229,306.0
4529.04,392.0
4530.8516,625.0
4532.664,471.0
4534.477,351.0
4536.291,301.0
4538.1055,381.0
4539.921,426.0
4541.737,396.0
4543.5537,312.0
4545.371,325.0
4547.1895,286.0
4549.0083,313.0
4550.828,256.0
4552.6484,283.0
4554.4697,247.0
4556.2915,256.0
4558.1143,295.0
4559.9375,264.0
4561.7617,309.0
4563.5864,276.0
4565.4116,257.0
4567.238,268.0
4569.0645,287.0
4570.892,258.0
4572.72,231.0
4574.5493,262.0
4576.379,245.0
4578.2095,234.0
4580.0405,222.0
4581.8726,268.0
4583.705,285.0
4585.5386,268.0
4587.3726,282.0
4589.2075,290.0
4591.043,283.0
4592.8794,289.0
4594.7163,309.0
4596.554,250.0
4598.3926,216.0
4600.232,291.0
4602.0723,286.0
4603.913,329.0
4605.755,329.0
4607.597,281.0
4609.4404,288.0
4611.284,240.0
4613.129,253.0
4614.974,239.0
4616.8203,279.0
4618.667,275.0
4620.5146,289.0
4622.363,281.0
4624.212,288.0
4626.0615,265.0
4627.912,261.0
4629.763,258.0
4631.615,230.0
4633.468,243.0
4635.3213,259.0
4637.1753,267.0
4639.0303,230.0
4640.8857,233.0
4642.742,258.0
4644.599,258.0
4646.457,242.0
4648.3154,211.0
4650.175,242.0
4652.0347,227.0
4653.8955,252.0
4655.757,232.0
4657.619,229.0
4659.4824,240.0
4661.346,276.0
4663.211,255.0
4665.076,218.0
4666.9424,236.0
4668.809,225.0
4670.677,252.0
4672.545,234.0
4674.414,217.0
4676.2837,232.0
4678.1543,271.0
4680.0254,238.0
4681.8975,244.0
4683.77,242.0
4685.6436,241.0
4687.5176,231.0
4689.3926,249.0
4691.2686,220.0
4693.145,251.0
4695.0225,292.0
4696.9004,258.0
4698.7793,240.0
4700.6587,248.0
4702.539,244.0
4704.42,252.0
4706.302,230.0
4708.184,255.0
4710.0674,248.0
4711.951,249.0
4713.836,252.0
4715.7217,227.0
4717.608,249.0
4719.495,244.0
4721.383,233.0
4723.2715,215.0
4725.1606,203.0
4727.051,234.0
4728.9414,250.0
4730.833,246.0
4732.725,219.0
4734.618,254.0
4736.512,231.0
4738.4067,234.0
4740.3022,197.0
4742.198,223.0
4744.095,222.0
4745.9927,225.0
4747.891,247.0
4749.79,230.0
4751.69,217.0
4753.591,203.0
4755.492,221.0
4757.3945,221.0
4759.2974,187.0
4761.201,229.0
4763.1055,210.0
4765.0107,228.0
4766.9165,196.0
4768.823,197.0
4770.731,184.0
4772.639,197.0
4774.5483,196.0
4776.458,210.0
4778.3687,205.0
4780.28,184.0
4782.192,191.0
4784.105,184.0
4786.0186,183.0
4787.933,188.0
4789.848,190.0
4791.764,154.0
4793.6807,189.0
4795.598,209.0
4797.5166,184.0
4799.4355,173.0
4801.3555,179.0
4803.276,181.0
4805.1973,181.0
4807.119,175.0
4809.042,175.0
4810.966,187.0
4812.89,161.0
4814.8154,195.0
4816.741,188.0
4818.668,179.0
4820.595,178.0
4822.5234,170.0
4824.4526,166.0
4826.3823,160.0
4828.313,169.0
4830.244,169.0
4832.1763,204.0
4834.1094,198.0
4836.043,178.0
4837.9775,203.0
4839.9126,170.0
4841.8486,174.0
4843.785,180.0
4845.7227,170.0
4847.661,192.0
4849.6,167.0
4851.54,164.0
4853.4805,175.0
4855.422,152.0
4857.3643,180.0
4859.307,155.0
4861.251,206.0
4863.1953,165.0
4865.1406,177.0
4867.087,165.0
4869.0337,168.0
4870.9814,168.0
4872.9297,171.0
4874.879,163.0
4876.829,155.0
4878.78,164.0
4880.7314,160.0
4882.6836,157.0
4884.6367,176.0
4886.5903,148.0
4888.545,187.0
4890.5005,132.0
4892.4565,155.0
4894.4136,144.0
4896.3716,150.0
4898.33,180.0
4900.2896,182.0
4902.2495,153.0
4904.2104,165.0
4906.1724,175.0
4908.135,137.0
4910.098,158.0
4912.062,162.0
4914.027,155.0
4915.9927,179.0
4917.959,164.0
4919.9263,174.0
4921.894,171.0
4923.863,176.0
4925.8325,184.0
4927.8027,192.0
4929.774,187.0
4931.7456,137.0
4933.7183,188.0
4935.692,180.0
4937.666,180.0
4939.641,189.0
4941.617,180.0
4943.5938,168.0
4945.5713,163.0
4947.5493,171.0
4949.5283,152.0
4951.5083,147.0
4953.489,168.0
4955.47,167.0
4957.4526,172.0
4959.4355,147.0
4961.4194,164.0
4963.404,179.0
4965.389,162.0
4967.3755,181.0
4969.3623,153.0
4971.35,174.0
4973.339,171.0
4975.328,205.0
4977.3184,174.0
4979.309,172.0
4981.301,164.0
4983.2935,152.0
4985.2866,153.0
4987.281,185.0
4989.276,167.0
4991.2715,184.0
4993.268,174.0
4995.265,197.0
4997.263,163.0
4999.262,180.0
5001.2617,176.0
5003.262,189.0
5005.2637,162.0
5007.2656,182.0
5009.2686,184.0
5011.2725,170.0
5013.277,189.0
5015.282,178.0
5017.2886,177.0
5019.2954,174.0
5021.303,158.0
5023.3115,169.0
5025.321,161.0
5027.331,192.0
5029.342,179.0
5031.3535,203.0
5033.366,196.0
5035.3794,185.0
5037.3936,200.0
5039.4087,174.0
5041.4243,182.0
5043.441,160.0
5045.4585,170.0
5047.4766,196.0
5049.4956,169.0
5051.5156,195.0
5053.536,185.0
5055.5576,167.0
5057.58,170.0
5059.603,164.0
5061.627,158.0
5063.6514,173.0
5065.677,187.0
5067.703,202.0
5069.73,163.0
5071.758,161.0
5073.7866,166.0
5075.816,166.0
5077.846,179.0
5079.8774,182.0
5081.909,186.0
5083.942,164.0
5085.9756,168.0
5088.01,177.0
5090.045,184.0
5092.081,183.0
5094.1177,155.0
5096.1553,180.0
5098.194,166.0
5100.233,188.0
5102.273,164.0
5104.314,168.0
5106.3555,162.0
5108.398,169.0
5110.4414,215.0
5112.4854,177.0
5114.5303,168.0
5116.576,168.0
5118.6226,174.0
5120.67,189.0
5122.7183,180.0
5124.7676,171.0
5126.8174,190.0
5128.868,201.0
5130.92,200.0
5132.972,173.0
5135.0254,190.0
5137.0796,171.0
5139.1343,176.0
5141.19,180.0
5143.2466,185.0
5145.3037,230.0
5147.362,204.0
5149.421,198.0
5151.4805,177.0
5153.541,189.0
5155.6025,191.0
5157.6646,205.0
5159.7275,202.0
5161.7915,200.0
5163.8564,176.0
5165.922,194.0
5167.9883,200.0
5170.0557,197.0
5172.1235,173.0
5174.1924,191.0
5176.262,199.0
5178.3325,196.0
5180.404,179.0
5182.476,184.0
5184.549,189.0
5186.6226,203.0
5188.6973,182.0
5190.773,169.0
5192.849,197.0
5194.9263,186.0
5197.0044,179.0
5199.083,187.0
5201.1626,177.0
5203.243,198.0
5205.324,206.0
5207.4062,164.0
5209.4893,187.0
5211.573,186.0
5213.6577,186.0
5215.743,196.0
5217.8296,194.0
5219.9165,195.0
5222.0044,220.0
5224.0933,219.0
5226.183,194.0
5228.2734,184.0
5230.3647,187.0
5232.457,173.0
5234.55,200.0
5236.6436,203.0
5238.7383,210.0
5240.834,214.0
5242.93,240.0
5245.0273,207.0
5247.1255,206.0
5249.224,199.0
5251.3237,196.0
5253.4243,218.0
5255.526,211.0
5257.628,193.0
5259.731,202.0
5261.835,177.0
5263.9395,214.0
5266.045,222.0
5268.1514,194.0
5270.259,182.0
5272.3667,187.0
5274.4756,192.0
5276.5854,232.0
5278.6963,237.0
5280.8076,192.0
5282.92,236.0
5285.033,192.0
5287.147,210.0
5289.2617,193.0
5291.3774,180.0
5293.494,185.0
5295.6113,199.0
5297.7295,210.0
5299.8486,196.0
5301.9688,233.0
5304.0894,203.0
5306.211,189.0
5308.3335,198.0
5310.457,174.0
5312.581,197.0
5314.706,212.0
5316.832,222.0
5318.959,254.0
5321.0864,263.0
5323.215,209.0
5325.344,205.0
5327.4746,225.0
5329.6055,207.0
5331.7373,193.0
5333.87,205.0
5336.004,196.0
5338.138,209.0
5340.2734,203.0
5342.4097,200.0
5344.547,205.0
5346.6846,210.0
5348.823,217.0
5350.963,204.0
5353.1035,210.0
5355.2446,176.0
5357.3867,217.0
5359.53,198.0
5361.674,235.0
5363.8184,211.0
5365.964,232.0
5368.1104,217.0
5370.258,234.0
5372.406,219.0
5374.5547,211.0
5376.7046,223.0
5378.8555,263.0
5381.007,236.0
5383.159,254.0
5385.3125,211.0
5387.467,215.0
5389.6216,226.0
5391.7773,215.0
5393.934,228.0
5396.092,205.0
5398.25,230.0
5400.409,220.0
5402.5693,250.0
5404.7305,206.0
5406.8926,213.0
5409.055,204.0
5411.2188,245.0
5413.3833,220.0
5415.549,218.0
5417.715,255.0
5419.882,201.0
5422.05,238.0
5424.2188,219.0
5426.3887,243.0
5428.559,239.0
5430.7305,242.0
5432.903,219.0
5435.076,205.0
5437.25,207.0
5439.425,228.0
5441.6006,210.0
5443.7773,264.0
5445.955,242.0
5448.1333,229.0
5450.3125,226.0
5452.4927,230.0
5454.674,227.0
5456.8555,216.0
5459.038,216.0
5461.2217,221.0
5463.4062,223.0
5465.592,243.0
5467.778,227.0
5469.965,243.0
5472.153,238.0
5474.342,238.0
5476.5317,240.0
5478.722,258.0
5480.9136,244.0
5483.106,243.0
5485.2993,234.0
5487.4937,243.0
5489.6885,263.0
5491.8843,279.0
5494.081,200.0
5496.279,229.0
5498.4775,233.0
5500.677,231.0
5502.877,272.0
5505.078,267.0
5507.2803,273.0
5509.4834,260.0
5511.687,240.0
5513.8916,222.0
5516.097,266.0
5518.3037,244.0
5520.511,245.0
5522.719,247.0
5524.928,270.0
5527.138,228.0
5529.349,231.0
5531.561,237.0
5533.7734,252.0
5535.987,252.0
5538.201,207.0
5540.4165,229.0
5542.633,258.0
5544.85,251.0
5547.068,221.0
5549.2866,262.0
5551.5063,259.0
5553.727,263.0
5555.9487,244.0
5558.171,263.0
5560.394,270.0
5562.618,242.0
5564.8433,246.0
5567.0693,276.0
5569.2964,255.0
5571.524,227.0
5573.7524,241.0
5575.982,253.0
5578.2124,270.0
5580.444,265.0
5582.676,233.0
5584.9087,255.0
5587.1426,261.0
5589.3774,235.0
5591.6133,224.0
5593.85,248.0
5596.0874,267.0
5598.3257,247.0
5600.565,264.0
5602.805,226.0
5605.0464,234.0
5607.2886,196.0
5609.5312,218.0
5611.775,247.0
5614.0195,234.0
5616.265,206.0
5618.5117,227.0
5620.7593,193.0
5623.008,216.0
5625.257,236.0
5627.507,249.0
5629.758,243.0
5632.01,247.0
5634.2627,239.0
5636.5166,222.0
5638.771,238.0
5641.0264,259.0
5643.2827,235.0
5645.54,224.0
5647.7983,209.0
5650.0576,213.0
5652.318,231.0
5654.5786,224.0
5656.8403,238.0
5659.103,241.0
5661.3667,244.0
5663.6313,239.0
5665.897,229.0
5668.1636,226.0
5670.4307,223.0
5672.6987,246.0
5674.968,254.0
5677.238,238.0
5679.509,229.0
5681.781,245.0
5684.0537,254.0
5686.327,231.0
5688.6016,219.0
5690.877,268.0
5693.1533,233.0
5695.4307,218.0
5697.709,236.0
5699.9883,242.0
5702.268,230.0
5704.549,245.0
5706.8306,233.0
5709.1133,259.0
5711.397,240.0
5713.6816,252.0
5715.9673,260.0
5718.254,260.0
5720.541,240.0
5722.829,273.0
5725.118,236.0
5727.408,267.0
5729.699,270.0
5731.991,282.0
5734.284,251.0
5736.578,260.0
5738.8726,244.0
5741.168,263.0
5743.4644,254.0
5745.7617,238.0
5748.06,274.0
5750.3594,269.0
5752.6597,267.0
5754.961,265.0
5757.2627,285.0
5759.5654,307.0
5761.869,248.0
5764.174,302.0
5766.4795,293.0
5768.786,274.0
5771.0938,286.0
5773.4023,294.0
5775.712,272.0
5778.022,291.0
5780.333,293.0
5782.645,275.0
5784.958,327.0
5787.272,245.0
5789.587,301.0
5791.903,329.0
5794.2197,299.0
5796.5376,303.0
5798.8564,345.0
5801.176,310.0
5803.496,285.0
5805.8174,327.0
5808.1396,330.0
5810.463,289.0
5812.787,307.0
5815.1123,320.0
5817.4385,312.0
5819.7656,339.0
5822.0938,358.0
5824.4224,339.0
5826.752,347.0
5829.0825,361.0
5831.414,370.0
5833.7466,306.0
5836.08,314.0
5838.4146,394.0
5840.75,425.0
5843.0864,366.0
5845.424,303.0
5847.762,337.0
5850.101,364.0
5852.441,335.0
5854.7817,297.0
5857.1235,294.0
5859.4663,305.0
5861.81,335.0
5864.155,316.0
5866.5005,291.0
5868.847,273.0
5871.195,295.0
5873.5435,260.0
5875.893,307.0
5878.2437,303.0
5880.5947,269.0
5882.947,322.0
5885.3,301.0
5887.654,334.0
5890.009,309.0
5892.3647,312.0
5894.7217,296.0
5897.0796,304.0
5899.4385,316.0
5901.7983,344.0
5904.159,351.0
5906.521,303.0
5908.884,323.0
5911.2476,279.0
5913.612,347.0
5915.977,347.0
5918.3433,344.0
5920.7104,331.0
5923.0786,328.0
5925.4478,310.0
5927.818,324.0
5930.189,312.0
5932.561,343.0
5934.934,330.0
5937.308,280.0
5939.683,325.0
5942.059,345.0
5944.436,320.0
5946.814,360.0
5949.193,345.0
5951.5728,304.0
5953.9536,335.0
5956.335,331.0
5958.7173,350.0
5961.1006,348.0
5963.485,330.0
5965.87,312.0
5968.2563,339.0
5970.6436,351.0
5973.0317,366.0
5975.421,340.0
5977.811,369.0
5980.202,353.0
5982.594,339.0
5984.9873,362.0
5987.3813,345.0
5989.7764,340.0
5992.1724,366.0
5994.5693,318.0
5996.9673,319.0
5999.366,327.0
6001.766,398.0
6004.167,397.0
6006.569,350.0
6008.9717,339.0
6011.3755,361.0
6013.7803,339.0
6016.1855,339.0
6018.592,377.0
6020.999,371.0
6023.407,307.0
6025.8164,326.0
6028.2266,328.0
6030.6377,322.0
6033.05,372.0
6035.463,352.0
6037.877,366.0
6040.292,338.0
6042.708,325.0
6045.125,321.0
6047.543,365.0
6049.962,363.0
6052.382,325.0
6054.8027,302.0
6057.2246,287.0
6059.6475,286.0
6062.0713,367.0
6064.496,361.0
6066.922,348.0
6069.3486,332.0
6071.7764,331.0
6074.205,313.0
6076.635,297.0
6079.0654,330.0
6081.497,333.0
6083.9297,315.0
6086.3633,330.0
6088.798,341.0
6091.2334,327.0
6093.67,341.0
6096.1074,319.0
6098.546,315.0
6100.9854,353.0
6103.426,362.0
6105.867,363.0
6108.3096,322.0
6110.753,353.0
6113.1973,364.0
6115.6426,397.0
6118.089,403.0
6120.536,391.0
6122.9844,385.0
6125.4336,348.0
6127.884,356.0
6130.335,423.0
6132.787,402.0
6135.24,409.0
6137.6943,376.0
6140.1494,414.0
6142.6055,368.0
6145.0625,380.0
6147.5205,400.0
6149.9795,378.0
6152.4395,420.0
6154.9004,413.0
6157.3623,435.0
6159.825,426.0
6162.289,388.0
6164.754,404.0
6167.2197,427.0
6169.6865,399.0
6172.1543,453.0
6174.623,529.0
6177.093,551.0
6179.5635,491.0
6182.035,437.0
6184.508,434.0
6186.9814,480.0
6189.456,453.0
6191.9316,546.0
6194.408,638.0
6196.8857,530.0
6199.3643,481.0
6201.844,410.0
6204.325,429.0
6206.807,407.0
6209.29,408.0
6211.774,421.0
6214.259,428.0
6216.7446,473.0
6219.2314,512.0
6221.719,411.0
6224.208,446.0
6226.6978,448.0
6229.1885,467.0
6231.68,511.0
6234.173,523.0
6236.6665,494.0
6239.161,417.0
6241.6567,433.0
6244.1533,411.0
6246.651,494.0
6249.1494,549.0
6251.649,530.0
6254.1494,535.0
6256.651,505.0
6259.1533,505.0
6261.6567,434.0
6264.1616,437.0
6266.6675,391.0
6269.1743,420.0
6271.682,534.0
6274.191,620.0
6276.7007,563.0
6279.2114,461.0
6281.723,397.0
6284.236,414.0
6286.7495,434.0
6289.264,663.0
6291.78,852.0
6294.2964,686.0
6296.814,511.0
6299.3325,411.0
6301.852,445.0
6304.3726,412.0
6306.8945,374.0
6309.4175,418.0
6311.9414,400.0
6314.4663,388.0
6316.992,379.0
6319.519,416.0
6322.047,388.0
6324.5757,373.0
6327.1055,350.0
6329.636,388.0
6332.168,390.0
6334.7007,427.0
6337.2344,378.0
6339.769,397.0
6342.305,397.0
6344.8423,388.0
6347.3804,391.0
6349.9194,375.0
6352.4595,351.0
6355.0005,379.0
6357.5425,362.0
6360.0854,361.0
6362.6294,397.0
6365.1743,360.0
6367.72,375.0
6370.267,396.0
6372.8154,378.0
6375.3647,359.0
6377.915,379.0
6380.4663,352.0
6383.0186,398.0
6385.572,366.0
6388.126,402.0
6390.681,381.0
6393.2373,378.0
6395.7944,360.0
6398.3525,370.0
6400.912,381.0
6403.4727,469.0
6406.034,402.0
6408.5967,398.0
6411.16,394.0
6413.7246,382.0
6416.29,393.0
6418.8564,385.0
6421.424,363.0
6423.992,377.0
6426.562,354.0
6429.133,434.0
6431.7046,367.0
6434.2773,415.0
6436.851,401.0
6439.426,377.0
6442.0015,382.0
6444.578,404.0
6447.156,443.0
6449.735,382.0
6452.315,432.0
6454.896,402.0
6457.478,356.0
6460.061,381.0
6462.645,390.0
6465.23,355.0
6467.816,388.0
6470.403,377.0
6472.991,380.0
6475.5806,383.0
6478.171,387.0
6480.762,397.0
6483.3545,378.0
6485.9478,372.0
6488.542,412.0
6491.137,413.0
6493.734,363.0
6496.3315,387.0
6498.93,434.0
6501.53,378.0
6504.1304,387.0
6506.732,388.0
6509.3345,379.0
6511.938,392.0
6514.543,419.0
6517.149,416.0
6519.756,408.0
6522.364,429.0
6524.9727,439.0
6527.5825,401.0
6530.1934,378.0
6532.8057,420.0
6535.419,380.0
6538.033,386.0
6540.6484,439.0
6543.2646,407.0
6545.882,428.0
6548.5,428.0
6551.1196,394.0
6553.74,411.0
6556.362,443.0
6558.9844,470.0
6561.608,453.0
6564.2324,381.0
6566.858,408.0
6569.485,399.0
6572.113,413.0
6574.7417,445.0
6577.3716,408.0
6580.0024,426.0
6582.6343,408.0
6585.267,431.0
6587.9014,397.0
6590.5366,419.0
6593.173,455.0
6595.81,436.0
6598.448,411.0
6601.0874,431.0
6603.728,400.0
6606.3696,395.0
6609.012,439.0
6611.656,396.0
6614.3003,438.0
6616.946,413.0
6619.593,413.0
6622.2407,413.0
6624.8896,439.0
6627.5396,384.0
6630.1904,407.0
6632.8423,399.0
6635.4956,438.0
6638.15,451.0
6640.805,471.0
6643.4614,442.0
6646.1187,413.0
6648.7773,393.0
6651.437,395.0
6654.0977,425.0
6656.7593,476.0
6659.422,420.0
6662.0854,383.0
6664.7505,401.0
6667.4165,368.0
6670.0835,347.0
6672.7515,379.0
6675.4204,369.0
6678.091,375.0
6680.762,371.0
6683.4346,359.0
6686.108,419.0
6688.782,386.0
6691.4575,371.0
6694.1343,399.0
6696.812,402.0
6699.4907,377.0
6702.1704,398.0
6704.851,377.0
6707.533,407.0
6710.2163,385.0
6712.9004,425.0
6715.5854,406.0
6718.2715,405.0
6720.959,435.0
6723.6475,410.0
6726.337,431.0
6729.0273,397.0
6731.7188,372.0
6734.4116,436.0
6737.1055,428.0
6739.8003,452.0
6742.496,462.0
6745.193,433.0
6747.891,410.0
6750.5903,427.0
6753.2905,382.0
6755.9917,436.0
6758.6943,499.0
6761.398,465.0
6764.1025,499.0
6766.808,458.0
6769.5146,445.0
6772.2227,405.0
6774.9316,442.0
6777.6416,459.0
6780.3525,515.0
6783.0645,528.0
6785.778,471.0
6788.492,454.0
6791.2075,482.0
6793.924,509.0
6796.6416,459.0
6799.3604,416.0
6802.08,464.0
6804.801,472.0
6807.5225,539.0
6810.2456,565.0
6812.9697,556.0
6815.695,455.0
6818.421,457.0
6821.1484,541.0
6823.877,818.0
6826.6064,715.0
6829.337,618.0
6832.069,447.0
6834.802,444.0
6837.5356,539.0
6840.2705,623.0
6843.007,586.0
6845.744,556.0
6848.4824,482.0
6851.2217,456.0
6853.9624,625.0
6856.704,829.0
6859.447,610.0
6862.1904,524.0
6864.9355,423.0
6867.6816,422.0
6870.4287,406.0
6873.177,403.0
6875.9263,432.0
6878.677,379.0
6881.428,412.0
6884.1807,390.0
6886.9346,438.0
6889.6895,416.0
6892.4453,391.0
6895.202,399.0
6897.9604,378.0
6900.7197,424.0
6903.48,431.0
6906.241,432.0
6909.004,407.0
6911.7676,417.0
6914.532,429.0
6917.298,398.0
6920.065,446.0
6922.833,414.0
6925.602,418.0
6928.372,404.0
6931.1436,425.0
6933.916,410.0
6936.6895,406.0
6939.4644,449.0
6942.24,410.0
6945.017,406.0
6947.795,448.0
6950.574,385.0
6953.3545,422.0
6956.1357,426.0
6958.918,432.0
6961.7017,409.0
6964.4863,420.0
6967.272,407.0
6970.059,396.0
6972.847,417.0
6975.636,469.0
6978.4263,469.0
6981.218,474.0
6984.0103,456.0
6986.8037,481.0
6989.5986,481.0
6992.3945,525.0
6995.1914,472.0
6997.9893,510.0
7000.7886,518.0
7003.589,470.0
7006.39,462.0
7009.193,481.0
7011.9966,467.0
7014.8013,435.0
7017.6074,522.0
7020.4146,513.0
7023.2227,581.0
7026.0317,631.0
7028.8423,532.0
7031.654,445.0
7034.4663,421.0
7037.2803,400.0
7040.095,473.0
7042.911,624.0
7045.7285,532.0
7048.547,419.0
7051.366,389.0
7054.1865,401.0
7057.0083,472.0
7059.831,705.0
7062.655,731.0
7065.48,543.0
7068.306,414.0
7071.1333,430.0
7073.962,387.0
7076.7915,386.0
7079.622,374.0
7082.454,407.0
7085.287,471.0
7088.121,410.0
7090.9565,453.0
7093.793,409.0
7096.6304,421.0
7099.469,439.0
7102.309,387.0
7105.15,424.0
7107.992,444.0
7110.8354,416.0
7113.6797,457.0
7116.5254,466.0
7119.372,408.0
7122.2197,516.0
7125.069,499.0
7127.919,501.0
7130.77,459.0
7133.6226,463.0
7136.476,424.0
7139.3306,488.0
7142.1865,553.0
7145.0435,476.0
7147.9014,482.0
7150.7607,467.0
7153.621,484.0
7156.4824,668.0
7159.345,623.0
7162.209,530.0
7165.0737,494.0
7167.94,522.0
7170.807,530.0
7173.6753,549.0
7176.545,506.0
7179.4155,504.0
7182.287,523.0
7185.16,480.0
7188.034,492.0
7190.909,568.0
7193.7856,545.0
7196.663,619.0
7199.542,723.0
7202.422,538.0
7205.3027,468.0
7208.185,394.0
7211.0684,434.0
7213.9526,734.0
7216.8384,746.0
7219.725,535.0
7222.613,412.0
7225.502,386.0
7228.392,458.0
7231.283,991.0
7234.176,1090.0
7237.0693,702.0
7239.9644,454.0
7242.8604,368.0
7245.7573,404.0
7248.656,380.0
7251.555,373.0
7254.4556,389.0
7257.3574,365.0
7260.2603,377.0
7263.1646,350.0
7266.07,371.0
7268.976,384.0
7271.884,384.0
7274.7925,397.0
7277.7026,359.0
7280.614,424.0
7283.526,380.0
7286.4395,380.0
7289.354,377.0
7292.2695,388.0
7295.1865,430.0
7298.1045,434.0
7301.024,380.0
7303.9443,352.0
7306.8657,329.0
7309.7886,372.0
7312.7124,497.0
7315.6377,452.0
7318.564,406.0
7321.491,347.0
7324.42,342.0
7327.3496,409.0
7330.281,505.0
7333.213,484.0
7336.146,413.0
7339.0806,380.0
7342.016,353.0
7344.953,395.0
7347.891,400.0
7350.83,389.0
7353.7705,393.0
7356.712,377.0
7359.655,380.0
7362.5986,332.0
7365.5435,324.0
7368.4897,401.0
7371.437,378.0
7374.3857,404.0
7377.3354,366.0
7380.2866,383.0
7383.239,374.0
7386.192,442.0
7389.1465,353.0
7392.102,377.0
7395.059,404.0
7398.017,399.0
7400.976,409.0
7403.9365,452.0
7406.898,384.0
7409.861,423.0
7412.8247,425.0
7415.79,413.0
7418.7563,418.0
7421.7236,393.0
7424.6924,413.0
7427.662,377.0
7430.6333,380.0
7433.6055,447.0
7436.579,410.0
7439.5537,428.0
7442.5293,402.0
7445.5063,343.0
7448.4844,352.0
7451.464,335.0
7454.4443,394.0
7457.4263,335.0
7460.409,348.0
7463.3936,311.0
7466.379,358.0
7469.365,381.0
7472.353,372.0
7475.342,355.0
7478.332,334.0
7481.323,369.0
7484.316,404.0
7487.3096,457.0
7490.3047,382.0
7493.301,364.0
7496.2983,330.0
7499.297,353.0
7502.2964,369.0
7505.2974,339.0
7508.2993,314.0
7511.3027,341.0
7514.307,362.0
7517.313,312.0
7520.32,338.0
7523.328,336.0
7526.3374,301.0
7529.348,354.0
7532.36,361.0
7535.373,344.0
7538.387,333.0
7541.4023,358.0
7544.419,375.0
7547.4365,351.0
7550.4556,355.0
7553.4756,326.0
7556.497,373.0
7559.5195,376.0
7562.5435,364.0
7565.5684,385.0
7568.5947,362.0
7571.622,387.0
7574.651,380.0
7577.6807,321.0
7580.712,340.0
7583.744,371.0
7586.778,356.0
7589.8125,353.0
7592.8486,303.0
7595.8857,356.0
7598.9243,431.0
7601.964,405.0
7605.005,314.0
7608.047,311.0
7611.0903,309.0
7614.135,407.0
7617.18,487.0
7620.227,407.0
7623.275,340.0
7626.324,325.0
7629.3745,356.0
7632.4263,345.0
7635.479,359.0
7638.533,340.0
7641.5884,324.0
7644.645,355.0
7647.7026,314.0
7650.7617,356.0
7653.8223,304.0
7656.884,343.0
7659.947,367.0
7663.0107,300.0
7666.076,329.0
7669.1426,383.0
7672.2104,342.0
7675.2793,361.0
7678.3496,355.0
7681.421,335.0
7684.4937,341.0
7687.5674,384.0
7690.6426,314.0
7693.7188,340.0
7696.7964,358.0
7699.875,327.0
7702.955,360.0
7706.036,362.0
7709.1187,359.0
7712.202,393.0
7715.287,371.0
7718.373,368.0
7721.4604,394.0
7724.549,362.0
7727.6387,370.0
7730.7295,392.0
7733.822,385.0
7736.9155,409.0
7740.0103,388.0
7743.1064,435.0
7746.2036,424.0
7749.3022,386.0
7752.402,391.0
7755.503,396.0
7758.605,403.0
7761.7085,375.0
7764.813,401.0
7767.919,400.0
7771.026,455.0
7774.1343,401.0
7777.244,421.0
7780.355,435.0
7783.4673,426.0
7786.5806,460.0
7789.6953,498.0
7792.811,476.0
7795.928,460.0
7799.0464,416.0
7802.166,402.0
7805.287,426.0
7808.409,475.0
7811.5327,454.0
7814.657,422.0
7817.783,438.0
7820.91,383.0
7824.0386,437.0
7827.168,467.0
7830.299,535.0
7833.431,464.0
7836.5645,449.0
7839.699,432.0
7842.835,436.0
7845.972,512.0
7849.1104,531.0
7852.25,464.0
7855.391,491.0
7858.533,473.0
7861.677,442.0
7864.8213,455.0
7867.9673,422.0
7871.1143,442.0
7874.2627,459.0
7877.4126,432.0
7880.5635,441.0
7883.716,497.0
7886.869,441.0
7890.024,434.0
7893.18,443.0
7896.3374,467.0
7899.496,541.0
7902.656,544.0
7905.817,497.0
7908.979,479.0
7912.1426,464.0
7915.3076,552.0
7918.4736,658.0
7921.641,652.0
7924.8096,587.0
7927.9795,536.0
7931.151,484.0
7934.323,492.0
7937.497,550.0
7940.672,603.0
7943.848,559.0
7947.026,536.0
7950.2046,592.0
7953.385,620.0
7956.566,591.0
7959.7485,547.0
7962.9326,636.0
7966.1177,700.0
7969.304,660.0
7972.4917,646.0
7975.6807,651.0
7978.871,683.0
7982.0625,910.0
7985.2554,875.0
7988.4497,746.0
7991.645,739.0
7994.842,656.0
7998.0396,710.0
8001.239,747.0
8004.4395,851.0
8007.641,869.0
8010.844,827.0
8014.0483,783.0
8017.254,763.0
8020.461,815.0
8023.669,854.0
8026.8784,871.0
8030.0894,928.0
8033.3013,856.0
8036.5146,981.0
8039.7295,1106.0
8042.9453,980.0
8046.1626,927.0
8049.381,1044.0
8052.6006,1095.0
8055.822,1203.0
8059.044,1308.0
8062.2676,1114.0
8065.4927,1183.0
8068.7188,1370.0
8071.9463,1407.0
8075.1753,1417.0
8078.4053,1386.0
8081.6367,1594.0
8084.869,1757.0
8088.103,1601.0
8091.3384,1346.0
8094.5747,1312.0
8097.8125,1644.0
8101.052,2341.0
8104.292,2278.0
8107.5337,1936.0
8110.777,1765.0
8114.021,1716.0
8117.2666,2478.0
8120.5137,2972.0
8123.7617,2694.0
8127.011,2582.0
8130.262,2267.0
8133.514,2226.0
8136.7676,2503.0
8140.0225,2740.0
8143.2783,3421.0
8146.5356,3285.0
8149.7944,2695.0
8153.054,3036.0
8156.3154,2846.0
8159.578,3047.0
8162.842,3696.0
8166.107,3388.0
8169.3735,4967.0
8172.641,5129.0
8175.91,3119.0
8179.1807,1798.0
8182.452,2019.0
8185.725,6903.0
8188.9995,9655.0
8192.275,4807.0
8195.553,2171.0
8198.831,1664.0
8202.11,6556.0
8205.392,16525.0
8208.674,10866.0
8211.957,4057.0
8215.242,1776.0
8218.528,1396.0
8221.815,1212.0
8225.1045,1511.0
8228.395,1854.0
8231.686,1428.0
8234.979,959.0
8238.272,778.0
8241.567,843.0
8244.864,1009.0
8248.162,931.0
8251.461,920.0
8254.762,756.0
8258.063,762.0
8261.367,786.0
8264.672,820.0
8267.978,763.0
8271.285,728.0
8274.594,777.0
8277.903,691.0
8281.215,647.0
8284.527,682.0
8287.841,843.0
8291.156,899.0
8294.473,740.0
8297.79,677.0
8301.109,681.0
8304.43,749.0
8307.751,786.0
8311.074,772.0
8314.398,785.0
8317.725,788.0
8321.052,790.0
8324.38,715.0
8327.71,774.0
8331.041,921.0
8334.373,868.0
8337.707,700.0
8341.042,709.0
8344.378,736.0
8347.716,967.0
8351.055,993.0
8354.3955,836.0
8357.737,831.0
8361.08,740.0
8364.425,625.0
8367.7705,553.0
8371.117,633.0
8374.466,825.0
8377.815,804.0
8381.167,605.0
8384.52,539.0
8387.873,556.0
8391.229,673.0
8394.585,632.0
8397.942,610.0
8401.302,517.0
8404.662,534.0
8408.024,563.0
8411.388,546.0
8414.752,506.0
8418.118,507.0
8421.485,489.0
8424.854,456.0
8428.224,491.0
8431.595,505.0
8434.968,533.0
8438.342,487.0
8441.717,465.0
8445.094,496.0
8448.472,515.0
8451.851,511.0
8455.231,495.0
8458.613,541.0
8461.997,554.0
8465.382,581.0
8468.768,574.0
8472.155,574.0
8475.544,606.0
8478.935,578.0
8482.326,556.0
8485.719,642.0
8489.113,649.0
8492.509,792.0
8495.906,722.0
8499.305,723.0
8502.704,701.0
8506.105,820.0
8509.508,820.0
8512.911,789.0
8516.316,868.0
8519.723,995.0
8523.131,839.0
8526.54,927.0
8529.95,879.0
8533.362,1141.0
8536.775,1462.0
8540.19,1038.0
8543.606,736.0
8547.023,659.0
8550.442,1440.0
8553.862,2067.0
8557.284,1323.0
8560.707,844.0
8564.131,723.0
8567.557,1630.0
8570.983,2983.0
8574.412,2002.0
8577.842,1191.0
8581.272,779.0
8584.705,581.0
8588.139,601.0
8591.574,662.0
8595.011,883.0
8598.449,907.0
8601.889,668.0
8605.329,553.0
8608.771,496.0
8612.215,517.0
8615.66,525.0
8619.106,512.0
8622.554,539.0
8626.003,567.0
8629.453,481.0
8632.905,568.0
8636.358,532.0
8639.8125,591.0
8643.269,582.0
8646.726,514.0
8650.185,553.0
8653.645,564.0
8657.106,572.0
8660.569,568.0
8664.033,558.0
8667.499,639.0
8670.966,661.0
8674.435,637.0
8677.904,648.0
8681.375,598.0
8684.848,700.0
8688.321,677.0
8691.797,684.0
8695.273,741.0
8698.752,779.0
8702.231,712.0
8705.712,757.0
8709.194,750.0
8712.678,828.0
8716.163,915.0
8719.649,897.0
8723.138,862.0
8726.627,806.0
8730.117,812.0
8733.609,938.0
8737.103,858.0
8740.598,930.0
8744.094,866.0
8747.592,843.0
8751.091,1017.0
8754.591,1032.0
8758.093,1079.0
8761.596,971.0
8765.101,995.0
8768.606,1067.0
8772.114,1168.0
8775.623,1178.0
8779.133,1135.0
8782.645,1209.0
8786.157,1162.0
8789.672,1180.0
8793.1875,1271.0
8796.705,1459.0
8800.224,1621.0
8803.744,1332.0
8807.266,1223.0
8810.788,1258.0
8814.3125,1812.0
8817.838,2005.0
8821.365,1554.0
8824.894,1386.0
8828.424,1407.0
8831.955,2065.0
8835.488,2152.0
8839.022,1865.0
8842.558,1678.0
8846.095,1561.0
8849.633,1507.0
8853.173,1540.0
8856.714,1792.0
8860.257,1969.0
8863.801,1823.0
8867.347,1686.0
8870.894,1721.0
8874.442,1983.0
8877.992,2411.0
8881.543,2124.0
8885.096,1917.0
8888.649,1777.0
8892.205,1751.0
8895.762,1795.0
8899.32,1985.0
8902.88,2051.0
8906.441,1792.0
8910.004,1843.0
8913.568,1960.0
8917.134,2206.0
8920.7,2119.0
8924.269,2051.0
8927.838,1993.0
8931.409,2137.0
8934.981,2445.0
8938.556,2197.0
8942.131,2156.0
8945.708,2214.0
8949.286,2026.0
8952.866,1834.0
8956.447,1858.0
8960.03,2214.0
8963.614,2371.0
8967.199,2006.0
8970.786,1698.0
8974.374,1942.0
8977.964,2346.0
8981.555,2226.0
8985.147,1855.0
8988.741,1670.0
8992.337,2149.0
8995.934,2421.0
8999.532,2190.0
9003.132,1722.0
9006.733,1802.0
9010.336,2234.0
9013.94,2061.0
9017.546,1737.0
9021.153,1642.0
9024.762,2082.0
9028.372,2311.0
9031.983,1725.0
9035.597,1348.0
9039.211,1605.0
9042.826,2314.0
9046.443,2081.0
9050.062,1397.0
9053.682,1233.0
9057.303,1803.0
9060.926,2852.0
9064.55,2221.0
9068.176,1277.0
9071.803,1183.0
9075.432,1643.0
9079.062,1762.0
9082.693,1329.0
9086.326,1057.0
9089.961,1094.0
9093.597,1183.0
9097.234,1159.0
9100.873,973.0
9104.514,977.0
9108.155,906.0
9111.799,869.0
9115.443,771.0
9119.09,822.0
9122.737,927.0
9126.387,832.0
9130.037,799.0
9133.689,765.0
9137.343,805.0
9140.998,938.0
9144.654,805.0
9148.3125,753.0
9151.972,782.0
9155.633,796.0
9159.295,721.0
9162.959,757.0
9166.624,831.0
9170.291,821.0
9173.959,667.0
9177.629,708.0
9181.3,891.0
9184.973,950.0
9188.646,798.0
9192.322,613.0
9195.999,683.0
9199.678,857.0
9203.357,801.0
9207.039,711.0
9210.722,620.0
9214.406,541.0
9218.092,601.0
9221.779,668.0
9225.468,686.0
9229.158,626.0
9232.85,583.0
9236.543,525.0
9240.237,581.0
9243.934,663.0
9247.631,619.0
9251.33,568.0
9255.03,482.0
9258.732,437.0
9262.436,460.0
9266.141,470.0
9269.847,438.0
9273.555,391.0
9277.264,402.0
9280.975,408.0
9284.687,428.0
9288.4,389.0
9292.116,382.0
9295.833,375.0
9299.552,417.0
9303.271,410.0
9306.993,386.0
9310.716,388.0
9314.44,395.0
9318.166,368.0
9321.894,383.0
9325.622,374.0
9329.353,383.0
9333.084,361.0
9336.817,339.0
9340.552,322.0
9344.288,375.0
9348.025,344.0
9351.765,352.0
9355.505,310.0
9359.247,354.0
9362.991,348.0
9366.736,332.0
9370.483,317.0
9374.231,319.0
9377.981,320.0
9381.732,315.0
9385.485,299.0
9389.239,298.0
9392.995,316.0
9396.752,286.0
9400.511,294.0
9404.2705,276.0
9408.032,299.0
9411.796,261.0
9415.561,276.0
9419.327,277.0
9423.095,252.0
9426.864,274.0
9430.635,286.0
9434.407,272.0
9438.181,256.0
9441.956,300.0
9445.732,292.0
9449.511,252.0
9453.291,269.0
9457.072,258.0
9460.855,256.0
9464.64,303.0
9468.426,259.0
9472.213,260.0
9476.002,247.0
9479.792,222.0
9483.584,265.0
9487.377,256.0
9491.172,267.0
9494.969,231.0
9498.767,226.0
9502.566,280.0
9506.367,261.0
9510.17,257.0
9513.974,208.0
9517.779,227.0
9521.586,211.0
9525.395,242.0
9529.205,248.0
9533.017,233.0
9536.83,242.0
9540.645,237.0
9544.461,224.0
9548.278,253.0
9552.098,262.0
9555.919,227.0
9559.741,241.0
9563.565,215.0
9567.391,246.0
9571.218,214.0
9575.046,196.0
9578.876,212.0
9582.708,212.0
9586.541,219.0
9590.376,223.0
9594.212,252.0
9598.05,225.0
9601.889,200.0
9605.7295,219.0
9609.572,203.0
9613.416,233.0
9617.262,190.0
9621.108,204.0
9624.957,204.0
9628.807,204.0
9632.658,192.0
9636.512,184.0
9640.366,192.0
9644.223,207.0
9648.08,192.0
9651.939,215.0
9655.8,207.0
9659.662,184.0
9663.526,193.0
9667.392,207.0
9671.259,181.0
9675.127,199.0
9678.997,213.0
9682.869,199.0
9686.742,221.0
9690.617,202.0
9694.493,203.0
9698.371,182.0
9702.25,193.0
9706.131,211.0
9710.014,195.0
9713.897,196.0
9717.783,161.0
9721.67,179.0
9725.559,185.0
9729.449,197.0
9733.341,182.0
9737.234,186.0
9741.129,184.0
9745.025,185.0
9748.924,176.0
9752.823,211.0
9756.725,211.0
9760.627,178.0
9764.531,176.0
9768.4375,188.0
9772.345,212.0
9776.254,191.0
9780.164,201.0
9784.076,209.0
9787.99,195.0
9791.905,199.0
9795.822,208.0
9799.74,226.0
9803.66,218.0
9807.582,210.0
9811.505,192.0
9815.43,192.0
9819.355,187.0
9823.283,194.0
9827.213,240.0
9831.144,233.0
9835.076,189.0
9839.01,164.0
9842.945,209.0
9846.883,243.0
9850.821,229.0
9854.762,216.0
9858.704,189.0
9862.647,194.0
9866.593,202.0
9870.539,180.0
9874.487,206.0
9878.4375,215.0
9882.389,190.0
9886.342,193.0
9890.296,191.0
9894.252,200.0
9898.21,195.0
9902.169,190.0
9906.13,187.0
9910.093,193.0
9914.057,185.0
9918.022,188.0
9921.989,191.0
9925.958,168.0
9929.929,177.0
9933.9,193.0
9937.874,212.0
9941.85,201.0
9945.826,197.0
9949.805,174.0
9953.784,199.0
9957.766,171.0
9961.749,180.0
9965.733,189.0
9969.72,176.0
9973.708,181.0
9977.697,188.0
9981.688,185.0
9985.681,192.0
9989.675,181.0
9993.671,168.0
9997.668,182.0
10001.667,193.0
10005.668,197.0
10009.67,177.0
10013.674,194.0
10017.68,181.0
10021.687,164.0
10025.695,186.0
10029.706,175.0
10033.718,180.0
10037.731,187.0
10041.746,184.0
10045.763,205.0
10049.781,208.0
10053.801,180.0
10057.822,177.0
10061.846,190.0
10065.87,193.0
10069.896,181.0
10073.925,189.0
10077.954,193.0
10081.985,168.0
10086.019,183.0
10090.053,189.0
10094.089,187.0
10098.127,198.0
10102.166,183.0
10106.207,181.0
10110.25,183.0
10114.294,200.0
10118.34,185.0
10122.387,165.0
10126.436,196.0
10130.486,187.0
10134.538,204.0
10138.592,206.0
10142.647,194.0
10146.704,185.0
10150.763,191.0
10154.823,182.0
10158.885,215.0
10162.948,196.0
10167.014,205.0
10171.08,197.0
10175.148,189.0
10179.219,206.0
10183.29,212.0
10187.363,188.0
10191.438,215.0
10195.515,175.0
10199.593,187.0
10203.673,232.0
10207.754,186.0
10211.837,208.0
10215.922,190.0
10220.008,189.0
10224.096,214.0
10228.186,188.0
10232.276,202.0
10236.369,186.0
10240.464,205.0
10244.56,181.0
10248.657,184.0
10252.757,184.0
10256.858,192.0
10260.961,189.0
10265.065,190.0
10269.172,200.0
10273.279,223.0
10277.389,203.0
10281.5,192.0
10285.612,211.0
10289.727,198.0
10293.843,196.0
10297.96,191.0
10302.079,194.0
10306.2,199.0
10310.322,222.0
10314.446,176.0
10318.572,193.0
10322.699,226.0
10326.828,221.0
10330.959,206.0
10335.092,202.0
10339.226,210.0
10343.361,219.0
10347.499,217.0
10351.638,236.0
10355.778,202.0
10359.921,214.0
10364.064,218.0
10368.21,217.0
10372.357,205.0
10376.507,216.0
10380.657,203.0
10384.81,222.0
10388.964,209.0
10393.119,197.0
10397.276,188.0
10401.436,202.0
10405.596,206.0
10409.758,210.0
10413.922,207.0
10418.088,208.0
10422.255,215.0
10426.424,212.0
10430.595,206.0
10434.767,203.0
10438.94,200.0
10443.116,214.0
10447.294,210.0
10451.473,219.0
10455.653,196.0
10459.836,206.0
10464.02,198.0
10468.205,186.0
10472.393,211.0
10476.581,196.0
10480.771,203.0
10484.964,209.0
10489.158,218.0
10493.354,194.0
10497.551,210.0
10501.75,212.0
10505.951,198.0
10510.153,212.0
10514.357,205.0
10518.563,197.0
10522.7705,188.0
10526.9795,213.0
10531.19,186.0
10535.403,214.0
10539.617,205.0
10543.833,215.0
10548.051,217.0
10552.27,208.0
10556.49,240.0
10560.713,192.0
10564.9375,210.0
10569.163,187.0
10573.391,193.0
10577.62,194.0
10581.852,199.0
10586.084,207.0
10590.318,183.0
10594.555,214.0
10598.793,198.0
10603.032,216.0
10607.273,222.0
10611.517,202.0
10615.761,188.0
10620.007,211.0
10624.255,181.0
10628.505,206.0
10632.756,225.0
10637.009,234.0
10641.264,199.0
10645.5205,217.0
10649.778,222.0
10654.038,206.0
10658.3,229.0
10662.563,185.0
10666.828,228.0
10671.095,219.0
10675.363,222.0
10679.634,202.0
10683.905,225.0
10688.179,217.0
10692.454,208.0
10696.731,244.0
10701.01,209.0
10705.29,229.0
10709.572,246.0
10713.856,243.0
10718.142,223.0
10722.429,260.0
10726.718,278.0
10731.009,201.0
10735.301,252.0
10739.595,269.0
10743.891,260.0
10748.188,212.0
10752.487,253.0
10756.788,294.0
10761.091,239.0
10765.3955,240.0
10769.702,248.0
10774.01,261.0
10778.319,224.0
10782.631,231.0
10786.944,217.0
10791.259,226.0
10795.575,218.0
10799.894,237.0
10804.214,226.0
10808.535,239.0
10812.858,189.0
10817.184,251.0
10821.511,238.0
10825.839,231.0
10830.169,229.0
10834.501,246.0
10838.835,229.0
10843.171,222.0
10847.508,243.0
10851.847,261.0
10856.1875,234.0
10860.53,226.0
10864.874,214.0
10869.22,246.0
10873.567,245.0
10877.917,219.0
10882.269,239.0
10886.621,229.0
10890.976,245.0
10895.332,214.0
10899.69,243.0
10904.051,289.0
10908.412,237.0
10912.775,216.0
10917.141,240.0
10921.508,235.0
10925.876,242.0
10930.246,224.0
10934.618,245.0
10938.992,237.0
10943.368,220.0
10947.745,224.0
10952.124,243.0
10956.505,245.0
10960.888,251.0
10965.272,263.0
10969.658,255.0
10974.046,247.0
10978.436,264.0
10982.827,234.0
10987.221,241.0
10991.615,244.0
10996.012,239.0
11000.41,268.0
11004.811,243.0
11009.213,273.0
11013.616,229.0
11018.021,242.0
11022.429,257.0
11026.838,243.0
11031.249,275.0
11035.661,262.0
11040.075,241.0
11044.491,232.0
11048.909,243.0
11053.329,233.0
11057.75,260.0
11062.173,254.0
11066.598,259.0
11071.024,236.0
11075.453,257.0
11079.884,259.0
11084.315,289.0
11088.749,250.0
11093.185,284.0
11097.622,265.0
11102.062,243.0
11106.502,292.0
11110.944,263.0
11115.389,274.0
11119.835,227.0
11124.283,277.0
11128.733,239.0
11133.185,261.0
11137.638,285.0
11142.093,279.0
11146.55,289.0
11151.009,260.0
11155.469,255.0
11159.931,278.0
11164.395,235.0
11168.86,253.0
11173.328,254.0
11177.798,258.0
11182.269,291.0
11186.741,248.0
11191.216,252.0
11195.692,280.0
11200.171,254.0
11204.651,273.0
11209.133,253.0
11213.616,297.0
11218.102,260.0
11222.589,282.0
11227.078,291.0
11231.569,284.0
11236.062,264.0
11240.556,293.0
11245.052,281.0
11249.55,321.0
11254.05,282.0
11258.552,278.0
11263.056,287.0
11267.561,283.0
11272.067,269.0
11276.576,303.0
11281.087,294.0
11285.6,270.0
11290.114,298.0
11294.63,282.0
11299.147,319.0
11303.667,282.0
11308.188,308.0
11312.712,296.0
11317.237,276.0
11321.765,310.0
11326.293,336.0
11330.823,317.0
11335.355,317.0
11339.89,326.0
11344.426,338.0
11348.964,369.0
11353.504,364.0
11358.045,394.0
11362.588,358.0
11367.133,394.0
11371.68,395.0
11376.229,372.0
11380.779,394.0
11385.332,405.0
11389.886,399.0
11394.441,369.0
11398.999,412.0
11403.559,428.0
11408.12,415.0
11412.684,413.0
11417.249,440.0
11421.816,468.0
11426.385,411.0
11430.955,404.0
11435.527,487.0
11440.102,465.0
11444.678,496.0
11449.256,531.0
11453.836,491.0
11458.417,497.0
11463.0,546.0
11467.585,554.0
11472.172,524.0
11476.761,549.0
11481.352,572.0
11485.944,528.0
11490.539,579.0
11495.136,567.0
11499.733,630.0
11504.333,598.0
11508.935,623.0
11513.538,672.0
11518.144,663.0
11522.751,611.0
11527.36,684.0
11531.972,689.0
11536.584,639.0
11541.198,694.0
11545.814,730.0
11550.433,766.0
11555.053,659.0
11559.675,703.0
11564.299,758.0
11568.925,679.0
11573.553,696.0
11578.183,781.0
11582.813,738.0
11587.446,693.0
11592.081,770.0
11596.718,873.0
11601.356,781.0
11605.997,748.0
11610.64,819.0
11615.284,821.0
11619.931,710.0
11624.579,794.0
11629.229,829.0
11633.88,743.0
11638.533,785.0
11643.188,951.0
11647.846,856.0
11652.505,617.0
11657.166,834.0
11661.829,900.0
11666.494,663.0
11671.161,661.0
11675.83,1066.0
11680.5,1031.0
11685.172,733.0
11689.846,648.0
11694.521,719.0
11699.199,575.0
11703.879,506.0
11708.561,602.0
11713.244,537.0
11717.93,477.0
11722.617,458.0
11727.307,470.0
11731.998,449.0
11736.69,450.0
11741.385,479.0
11746.081,370.0
11750.779,389.0
11755.4795,400.0
11760.182,373.0
11764.886,345.0
11769.592,385.0
11774.3,381.0
11779.01,335.0
11783.722,357.0
11788.436,369.0
11793.151,360.0
11797.868,332.0
11802.587,355.0
11807.308,334.0
11812.03,341.0
11816.755,346.0
11821.481,325.0
11826.21,357.0
11830.94,311.0
11835.673,317.0
11840.407,307.0
11845.144,306.0
11849.882,282.0
11854.622,298.0
11859.364,280.0
11864.108,288.0
11868.8545,286.0
11873.602,265.0
11878.351,293.0
11883.102,256.0
11887.8545,249.0
11892.609,262.0
11897.366,276.0
11902.125,261.0
11906.886,253.0
11911.648,259.0
11916.413,237.0
11921.18,236.0
11925.948,254.0
11930.719,254.0
11935.491,234.0
11940.266,255.0
11945.042,261.0
11949.82,227.0
11954.601,240.0
11959.383,241.0
11964.167,245.0
11968.953,254.0
11973.74,232.0
11978.529,270.0
11983.32,222.0
11988.113,253.0
11992.908,229.0
