M/Z,Intensity
800.0,105.0
800.32,117.0
800.64014,59.0
800.9604,171.0
801.28076,250.0
801.60126,85.0
801.9219,131.0
802.2426,192.0
802.56354,72.0
802.8846,164.0
803.20575,199.0
803.52704,57.0
803.84845,91.0
804.17,165.0
804.49164,63.0
804.8134,71.0
805.1353,173.0
805.4574,100.0
805.7796,90.0
806.1019,197.0
806.4244,158.0
806.74695,59.0
807.06964,170.0
807.39246,121.0
807.7154,63.0
808.03845,146.0
808.3617,190.0
808.68506,47.0
809.00854,129.0
809.33215,152.0
809.6559,73.0
809.97974,130.0
810.3037,162.0
810.6278,61.0
810.9521,104.0
811.2765,155.0
811.601,69.0
811.92566,113.0
812.2504,142.0
812.5753,72.0
812.9003,85.0
813.22546,165.0
813.5508,67.0
813.8762,72.0
814.2018,147.0
814.52747,58.0
814.8533,90.0
815.1792,175.0
815.50525,100.0
815.8314,64.0
816.1578,150.0
816.48425,78.0
816.81085,97.0
817.1376,145.0
817.4644,84.0
817.7914,64.0
818.11847,142.0
818.44574,71.0
818.77313,64.0
819.10065,152.0
819.4283,83.0
819.75604,48.0
820.0839,112.0
820.412,101.0
820.7402,69.0
821.0685,140.0
821.3969,108.0
821.72546,47.0
822.05414,112.0
822.38293,113.0
822.7119,63.0
823.041,193.0
823.37024,122.0
823.6996,62.0
824.02905,148.0
824.35864,136.0
824.6884,139.0
825.0183,706.0
825.3483,134.0
825.67847,92.0
826.0087,358.0
826.3391,130.0
826.6696,66.0
827.0003,200.0
827.3311,130.0
827.66205,58.0
827.9931,123.0
828.3243,142.0
828.65564,42.0
828.9871,110.0
829.3187,127.0
829.65045,49.0
829.9823,92.0
830.3143,127.0
830.6464,49.0
830.9787,111.0
831.3111,112.0
831.6436,38.0
831.97626,91.0
832.309,116.0
832.64197,59.0
832.97504,114.0
833.3082,138.0
833.64154,65.0
833.975,123.0
834.3086,156.0
834.64233,66.0
834.9762,117.0
835.3102,141.0
835.6443,68.0
835.9785,117.0
836.3129,107.0
836.64746,62.0
836.9821,129.0
837.3169,137.0
837.6518,65.0
837.9869,98.0
838.3221,115.0
838.6574,87.0
838.99286,253.0
839.3284,125.0
839.6642,70.0
840.00006,179.0
840.33606,83.0
840.6722,77.0
841.0084,229.0
841.34485,153.0
841.6814,69.0
842.01807,162.0
842.35486,123.0
842.6918,77.0
843.0289,148.0
843.3661,111.0
843.7034,71.0
844.0409,132.0
844.37854,118.0
844.7163,110.0
845.0542,298.0
845.3922,193.0
845.73035,94.0
846.06866,196.0
846.4071,138.0
846.74567,79.0
847.08435,154.0
847.42316,88.0
847.76215,75.0
848.10126,142.0
848.4405,90.0
848.77985,76.0
849.1194,152.0
849.45905,77.0
849.7988,83.0
850.13873,141.0
850.47876,85.0
850.819,76.0
851.1593,147.0
851.49976,87.0
851.84033,72.0
852.1811,160.0
852.522,86.0
852.863,77.0
853.2041,158.0
853.5454,85.0
853.88684,91.0
854.2284,147.0
854.57007,71.0
854.9119,140.0
855.2539,125.0
855.596,56.0
855.93823,132.0
856.2806,141.0
856.6231,72.0
856.96576,134.0
857.30853,130.0
857.6514,60.0
857.9945,123.0
858.3377,166.0
858.681,72.0
859.0245,125.0
859.3681,130.0
859.71185,83.0
860.0557,120.0
860.3997,109.0
860.7439,341.0
861.0882,386.0
861.4326,132.0
861.77716,248.0
862.1219,175.0
862.46674,111.0
862.8117,135.0
863.15686,129.0
863.50214,83.0
863.84753,106.0
864.19305,165.0
864.53876,79.0
864.8846,87.0
865.2305,154.0
865.5766,67.0
865.92285,87.0
866.2692,138.0
866.6157,70.0
866.96234,199.0
867.30914,123.0
867.65607,71.0
868.0031,118.0
868.35034,119.0
868.6977,68.0
869.04517,125.0
869.39276,100.0
869.74054,72.0
870.08844,136.0
870.43646,90.0
870.7846,74.0
871.13293,114.0
871.4814,81.0
871.82996,74.0
872.1787,120.0
872.5276,75.0
872.8766,93.0
873.2257,118.0
873.575,72.0
873.92444,99.0
874.274,146.0
874.6237,56.0
874.9736,115.0
875.32355,134.0
875.6737,59.0
876.024,125.0
876.3744,169.0
876.7249,138.0
877.0756,156.0
877.42645,112.0
877.7774,118.0
878.12854,158.0
878.4798,97.0
878.8312,102.0
879.18274,151.0
879.5344,78.0
879.8862,92.0
880.23816,148.0
880.5903,59.0
880.9425,100.0
881.29486,108.0
881.6474,67.0
882.00006,100.0
882.35284,113.0
882.7058,63.0
883.0589,136.0
883.4121,103.0
883.7655,71.0
884.119,122.0
884.47266,109.0
884.8264,66.0
885.18036,140.0
885.5344,82.0
885.8886,72.0
886.243,138.0
886.5975,61.0
886.9521,81.0
887.3069,128.0
887.6618,67.0
888.01685,100.0
888.3721,120.0
888.7274,59.0
889.0829,117.0
889.43854,164.0
889.7943,80.0
890.1502,129.0
890.5063,139.0
890.8625,92.0
891.2188,133.0
891.5753,86.0
891.93195,65.0
892.2887,120.0
892.6456,50.0
893.0027,100.0
893.35986,137.0
893.7172,49.0
894.0747,108.0
894.4323,96.0
894.7901,61.0
895.148,131.0
895.50604,73.0
895.86426,51.0
896.2226,133.0
896.58105,43.0
896.9397,98.0
897.29846,101.0
897.6574,48.0
898.0165,84.0
898.3757,106.0
898.73505,54.0
899.09454,130.0
899.45416,99.0
899.81396,78.0
900.1739,149.0
900.53394,66.0
900.89417,79.0
901.2545,143.0
901.615,51.0
901.97565,89.0
902.3364,123.0
902.6974,60.0
903.0585,94.0
903.4197,111.0
903.78107,50.0
904.1426,181.0
904.5042,118.0
904.866,62.0
905.22797,166.0
905.5901,65.0
905.95233,84.0
906.3147,128.0
906.67725,50.0
907.0399,90.0
907.4027,105.0
907.7657,52.0
908.1288,104.0
908.49207,79.0
908.85547,59.0
909.219,112.0
909.5827,56.0
909.94653,84.0
910.3105,94.0
910.6746,61.0
911.0389,113.0
911.4033,70.0
911.7679,48.0
912.13257,98.0
912.49744,79.0
912.8624,61.0
913.2276,74.0
913.5929,53.0
913.9583,69.0
914.3239,116.0
914.68964,47.0
915.05554,77.0
915.4216,89.0
915.7877,60.0
916.15405,95.0
916.5205,78.0
916.88715,62.0
917.2539,120.0
917.6208,54.0
917.98785,93.0
918.35504,138.0
918.7224,45.0
919.0899,101.0
919.4575,96.0
919.8253,57.0
920.19324,125.0
920.56134,59.0
920.92957,69.0
921.2979,120.0
921.66644,49.0
922.0351,95.0
922.40393,88.0
922.7729,61.0
923.14197,119.0
923.5112,78.0
923.8806,63.0
924.2502,131.0
924.6199,55.0
924.98975,105.0
925.35974,87.0
925.72986,50.0
926.10016,118.0
926.4706,57.0
926.8412,62.0
927.2119,110.0
927.5828,69.0
927.95386,81.0
928.325,98.0
928.69635,61.0
929.0678,84.0
929.43945,97.0
929.8112,46.0
930.18317,111.0
930.55524,66.0
930.9274,59.0
931.2998,84.0
931.6723,43.0
932.045,91.0
932.4178,80.0
932.7908,58.0
933.1639,102.0
933.5372,95.0
933.9106,77.0
934.2841,147.0
934.65784,39.0
935.0317,98.0
935.4057,98.0
935.77985,45.0
936.1542,119.0
936.5286,76.0
936.90326,61.0
937.278,89.0
937.65295,55.0
938.028,82.0
938.4032,71.0
938.77856,45.0
939.15405,90.0
939.5297,57.0
939.9055,58.0
940.2815,96.0
940.6576,46.0
941.0339,95.0
941.4103,86.0
941.78687,44.0
942.1636,108.0
942.54047,60.0
942.9175,56.0
943.2947,104.0
943.672,49.0
944.04944,97.0
944.42706,79.0
944.8048,71.0
945.18274,110.0
945.5608,56.0
945.939,80.0
946.3174,124.0
946.6959,53.0
947.0746,110.0
947.4534,84.0
947.8324,65.0
948.21155,125.0
948.5908,57.0
948.9703,81.0
949.34985,116.0
949.7296,51.0
950.1095,85.0
950.48956,67.0
950.86975,68.0
951.2501,90.0
951.6306,54.0
952.0113,91.0
952.3921,104.0
952.7731,41.0
953.1542,111.0
953.53546,70.0
953.9169,70.0
954.29846,102.0
954.6802,52.0
955.0621,85.0
955.4441,94.0
955.8263,70.0
956.2086,100.0
956.5911,60.0
956.97375,68.0
957.35657,110.0
957.7395,35.0
958.1226,110.0
958.50586,81.0
958.8893,57.0
959.2728,109.0
959.65656,54.0
960.0404,96.0
960.42444,93.0
960.8086,50.0
961.19293,94.0
961.5774,68.0
961.96204,78.0
962.3468,94.0
962.73175,50.0
963.1168,119.0
963.5021,61.0
963.88745,63.0
964.273,89.0
964.6587,48.0
965.04456,77.0
965.4306,88.0
965.8168,65.0
966.2031,97.0
966.5896,58.0
966.97626,92.0
967.36304,82.0
967.75,45.0
968.1371,101.0
968.52435,60.0
968.91174,74.0
969.2993,111.0
969.687,53.0
970.0749,92.0
970.4629,80.0
970.8511,64.0
971.23944,93.0
971.6279,42.0
972.0166,73.0
972.4054,101.0
972.7944,44.0
973.1835,88.0
973.57275,74.0
973.96216,64.0
974.35175,111.0
974.7415,50.0
975.1314,84.0
975.5215,90.0
975.9117,46.0
976.30206,113.0
976.69257,42.0
977.08325,86.0
977.47406,108.0
977.86505,43.0
978.2562,99.0
978.6475,65.0
979.039,72.0
979.4306,71.0
979.8224,56.0
980.2143,119.0
980.6064,65.0
980.99866,70.0
981.39105,73.0
981.7836,69.0
982.17633,95.0
982.5692,58.0
982.9622,68.0
983.3554,102.0
983.7488,54.0
984.1423,98.0
984.53595,65.0
984.92975,82.0
985.3237,97.0
985.71783,40.0
986.1121,104.0
986.5066,65.0
986.9012,57.0
987.29596,87.0
987.69086,47.0
988.08594,89.0
988.4812,73.0
988.8766,51.0
989.27216,80.0
989.66785,56.0
990.0637,81.0
990.4597,82.0
990.8559,60.0
991.25226,107.0
991.64874,48.0
992.0454,98.0
992.4422,89.0
992.8392,81.0
993.2363,98.0
993.6336,55.0
994.03107,89.0
994.42865,77.0
994.8264,53.0
995.22437,111.0
995.62244,61.0
996.0207,63.0
996.4191,87.0
996.8177,50.0
997.21643,92.0
997.6153,60.0
998.01434,76.0
998.4136,93.0
998.8129,56.0
999.21246,105.0
999.6121,57.0
1000.01196,90.0
1000.412,96.0
1000.81213,56.0
1001.21246,93.0
1001.613,45.0
1002.0136,84.0
1002.4144,86.0
1002.81537,50.0
1003.2165,90.0
1003.6178,54.0
1004.0192,77.0
1004.42084,81.0
1004.82263,55.0
1005.22455,92.0
1005.62665,61.0
1006.0289,80.0
1006.4313,95.0
1006.83386,69.0
1007.2366,108.0
1007.63947,68.0
1008.04254,85.0
1008.44574,80.0
1008.8491,52.0
1009.2527,106.0
1009.6564,55.0
1010.06024,81.0
1010.4643,116.0
1010.86847,58.0
1011.2728,85.0
1011.6773,61.0
1012.082,91.0
1012.4868,79.0
1012.8918,55.0
1013.29694,93.0
1013.7023,49.0
1014.1077,125.0
1014.51337,72.0
1014.9192,85.0
1015.32513,95.0
1015.73126,53.0
1016.1376,100.0
1016.544,77.0
1016.9506,58.0
1017.3574,98.0
1017.76434,50.0
1018.17145,113.0
1018.57874,73.0
1018.98615,59.0
1019.39374,91.0
1019.8015,55.0
1020.2094,103.0
1020.6175,52.0
1021.02576,61.0
1021.43414,121.0
1021.8427,73.0
1022.25146,104.0
1022.66034,58.0
1023.0694,57.0
1023.47864,89.0
1023.888,75.0
1024.2976,104.0
1024.7073,59.0
1025.1172,92.0
1025.5272,81.0
1025.9374,73.0
1026.3478,89.0
1026.7583,53.0
1027.169,103.0
1027.5798,77.0
1027.9908,120.0
1028.4021,87.0
1028.8135,69.0
1029.225,87.0
1029.6367,66.0
1030.0486,107.0
1030.4606,77.0
1030.8728,72.0
1031.2852,97.0
1031.6976,64.0
1032.1104,80.0
1032.5232,59.0
1032.9362,75.0
1033.3494,82.0
1033.7627,72.0
1034.1761,94.0
1034.5898,55.0
1035.0037,78.0
1035.4177,87.0
1035.8319,69.0
1036.2462,115.0
1036.6608,57.0
1037.0754,96.0
1037.4902,89.0
1037.9053,66.0
1038.3204,95.0
1038.7357,54.0
1039.1512,95.0
1039.5669,59.0
1039.9827,68.0
1040.3987,109.0
1040.8148,50.0
1041.2312,121.0
1041.6477,66.0
1042.0643,70.0
1042.4812,91.0
1042.8982,49.0
1043.3153,100.0
1043.7327,66.0
1044.1501,91.0
1044.5677,70.0
1044.9856,78.0
1045.4036,85.0
1045.8218,67.0
1046.2401,88.0
1046.6586,62.0
1047.0773,84.0
1047.4961,98.0
1047.915,53.0
1048.3342,88.0
1048.7535,51.0
1049.1731,85.0
1049.5928,94.0
1050.0126,160.0
1050.4326,93.0
1050.8528,132.0
1051.2731,110.0
1051.6936,60.0
1052.1143,103.0
1052.5352,91.0
1052.9562,70.0
1053.3773,99.0
1053.7987,59.0
1054.2202,101.0
1054.6418,68.0
1055.0637,70.0
1055.4857,75.0
1055.908,75.0
1056.3303,88.0
1056.7528,51.0
1057.1755,93.0
1057.5984,54.0
1058.0215,64.0
1058.4447,89.0
1058.868,53.0
1059.2916,102.0
1059.7153,62.0
1060.1392,108.0
1060.5632,153.0
1060.9874,66.0
1061.4119,127.0
1061.8364,70.0
1062.2611,127.0
1062.686,45.0
1063.1111,81.0
1063.5364,67.0
1063.9618,77.0
1064.3873,83.0
1064.8131,69.0
1065.239,111.0
1065.6652,91.0
1066.0914,127.0
1066.5178,85.0
1066.9445,106.0
1067.3712,88.0
1067.7982,63.0
1068.2253,85.0
1068.6526,52.0
1069.0801,68.0
1069.5077,69.0
1069.9355,62.0
1070.3635,88.0
1070.7916,49.0
1071.22,98.0
1071.6484,76.0
1072.0771,107.0
1072.506,80.0
1072.9349,93.0
1073.3641,109.0
1073.7935,75.0
1074.223,115.0
1074.6527,55.0
1075.0825,72.0
1075.5126,77.0
1075.9427,86.0
1076.3732,79.0
1076.8037,62.0
1077.2344,89.0
1077.6653,71.0
1078.0963,107.0
1078.5276,82.0
1078.959,87.0
1079.3906,82.0
1079.8224,58.0
1080.2543,80.0
1080.6864,61.0
1081.1187,69.0
1081.5511,76.0
1081.9838,78.0
1082.4165,89.0
1082.8495,59.0
1083.2826,109.0
1083.716,56.0
1084.1494,81.0
1084.5831,79.0
1085.017,64.0
1085.4509,81.0
1085.8851,57.0
1086.3195,70.0
1086.754,58.0
1087.1887,79.0
1087.6235,64.0
1088.0586,75.0
1088.4938,72.0
1088.9292,74.0
1089.3647,65.0
1089.8005,49.0
1090.2365,108.0
1090.6725,54.0
1091.1088,94.0
1091.5452,100.0
1091.9818,77.0
1092.4186,108.0
1092.8556,63.0
1093.2927,108.0
1093.7301,67.0
1094.1676,100.0
1094.6052,65.0
1095.0431,76.0
1095.4811,63.0
1095.9193,63.0
1096.3577,73.0
1096.7963,57.0
1097.235,87.0
1097.6738,57.0
1098.1129,74.0
1098.5521,64.0
1098.9916,63.0
1099.4312,81.0
1099.871,73.0
1100.3109,106.0
1100.751,67.0
1101.1913,74.0
1101.6317,58.0
1102.0724,78.0
1102.5132,60.0
1102.9542,67.0
1103.3954,78.0
1103.8368,66.0
1104.2783,95.0
1104.72,55.0
1105.1619,77.0
1105.6039,67.0
1106.0461,82.0
1106.4885,81.0
1106.9312,61.0
1107.3739,98.0
1107.8169,52.0
1108.26,98.0
1108.7034,52.0
1109.1469,86.0
1109.5905,93.0
1110.0343,75.0
1110.4783,63.0
1110.9225,59.0
1111.3668,76.0
1111.8114,61.0
1112.2561,81.0
1112.701,61.0
1113.1461,88.0
1113.5914,52.0
1114.0369,46.0
1114.4824,83.0
1114.9282,62.0
1115.3741,84.0
1115.8203,65.0
1116.2666,92.0
1116.7131,67.0
1117.1598,91.0
1117.6067,61.0
1118.0537,75.0
1118.501,69.0
1118.9484,66.0
1119.396,97.0
1119.8438,52.0
1120.2917,97.0
1120.7399,55.0
1121.1881,86.0
1121.6366,57.0
1122.0852,58.0
1122.534,70.0
1122.983,74.0
1123.4323,84.0
1123.8816,59.0
1124.3312,79.0
1124.7809,60.0
1125.2308,59.0
1125.6809,47.0
1126.1312,77.0
1126.5817,74.0
1127.0323,56.0
1127.4832,85.0
1127.9342,70.0
1128.3854,83.0
1128.8367,67.0
1129.2882,84.0
1129.7399,52.0
1130.1918,94.0
1130.6438,57.0
1131.0961,80.0
1131.5485,94.0
1132.0011,62.0
1132.4539,106.0
1132.9069,72.0
1133.36,120.0
1133.8134,50.0
1134.2668,78.0
1134.7206,41.0
1135.1744,87.0
1135.6285,55.0
1136.0828,70.0
1136.5372,74.0
1136.9918,62.0
1137.4467,92.0
1137.9016,50.0
1138.3568,84.0
1138.8121,55.0
1139.2677,84.0
1139.7234,52.0
1140.1793,91.0
1140.6354,52.0
1141.0917,62.0
1141.5481,82.0
1142.0048,62.0
1142.4615,68.0
1142.9186,73.0
1143.3757,65.0
1143.8331,57.0
1144.2906,79.0
1144.7484,54.0
1145.2063,83.0
1145.6644,63.0
1146.1227,73.0
1146.5812,66.0
1147.0398,65.0
1147.4987,71.0
1147.9576,62.0
1148.4169,126.0
1148.8762,42.0
1149.3358,128.0
1149.7955,67.0
1150.2555,92.0
1150.7156,64.0
1151.1759,91.0
1151.6364,58.0
1152.097,53.0
1152.5579,69.0
1153.0189,63.0
1153.4801,76.0
1153.9415,68.0
1154.4031,93.0
1154.8649,57.0
1155.3268,82.0
1155.789,52.0
1156.2512,91.0
1156.7137,64.0
1157.1764,84.0
1157.6393,50.0
1158.1023,76.0
1158.5656,79.0
1159.0289,63.0
1159.4926,65.0
1159.9563,63.0
1160.4203,86.0
1160.8844,62.0
1161.3488,86.0
1161.8134,47.0
1162.2781,79.0
1162.743,51.0
1163.2081,88.0
1163.6735,56.0
1164.1389,66.0
1164.6046,70.0
1165.0704,64.0
1165.5365,58.0
1166.0027,75.0
1166.4691,69.0
1166.9357,65.0
1167.4025,85.0
1167.8694,50.0
1168.3365,80.0
1168.8038,53.0
1169.2714,91.0
1169.739,58.0
1170.2069,78.0
1170.675,64.0
1171.1433,66.0
1171.6118,73.0
1172.0804,70.0
1172.5493,64.0
1173.0183,63.0
1173.4875,103.0
1173.9569,59.0
1174.4265,73.0
1174.8962,79.0
1175.3662,76.0
1175.8363,57.0
1176.3066,103.0
1176.7772,51.0
1177.2479,74.0
1177.7189,51.0
1178.19,106.0
1178.6613,55.0
1179.1327,70.0
1179.6044,49.0
1180.0762,71.0
1180.5482,64.0
1181.0204,56.0
1181.4928,76.0
1181.9655,80.0
1182.4382,83.0
1182.9113,67.0
1183.3844,80.0
1183.8578,60.0
1184.3313,79.0
1184.805,52.0
1185.2789,107.0
1185.753,52.0
1186.2273,109.0
1186.7018,62.0
1187.1765,72.0
1187.6514,67.0
1188.1265,76.0
1188.6017,71.0
1189.0771,65.0
1189.5527,69.0
1190.0286,63.0
1190.5045,71.0
1190.9807,63.0
1191.4572,60.0
1191.9337,56.0
1192.4105,68.0
1192.8875,43.0
1193.3646,72.0
1193.8419,51.0
1194.3195,82.0
1194.7972,47.0
1195.2751,86.0
1195.7533,36.0
1196.2316,73.0
1196.7101,61.0
1197.1887,101.0
1197.6676,61.0
1198.1467,69.0
1198.626,73.0
1199.1055,64.0
1199.5851,73.0
1200.065,57.0
1200.5449,85.0
1201.0251,70.0
1201.5056,64.0
1201.9862,47.0
1202.467,73.0
1202.948,57.0
1203.4292,76.0
1203.9105,60.0
1204.3921,93.0
1204.8739,51.0
1205.3558,85.0
1205.838,56.0
1206.3203,71.0
1206.8029,49.0
1207.2855,103.0
1207.7684,46.0
1208.2516,72.0
1208.7349,51.0
1209.2184,74.0
1209.702,50.0
1210.1859,80.0
1210.67,57.0
1211.1543,68.0
1211.6388,64.0
1212.1234,61.0
1212.6083,64.0
1213.0933,59.0
1213.5785,71.0
1214.064,49.0
1214.5496,54.0
1215.0354,67.0
1215.5214,74.0
1216.0076,54.0
1216.494,76.0
1216.9806,68.0
1217.4674,80.0
1217.9543,69.0
1218.4415,67.0
1218.929,63.0
1219.4165,90.0
1219.9043,54.0
1220.3922,74.0
1220.8804,61.0
1221.3688,93.0
1221.8573,44.0
1222.3461,86.0
1222.835,61.0
1223.3241,78.0
1223.8135,60.0
1224.303,89.0
1224.7927,60.0
1225.2826,96.0
1225.7727,63.0
1226.2631,72.0
1226.7535,51.0
1227.2443,66.0
1227.7351,48.0
1228.2262,80.0
1228.7175,48.0
1229.209,78.0
1229.7007,64.0
1230.1925,79.0
1230.6846,64.0
1231.1769,71.0
1231.6693,56.0
1232.162,77.0
1232.6549,79.0
1233.148,75.0
1233.6412,51.0
1234.1346,86.0
1234.6283,74.0
1235.1222,67.0
1235.6162,67.0
1236.1105,74.0
1236.6049,61.0
1237.0995,56.0
1237.5944,67.0
1238.0894,73.0
1238.5846,67.0
1239.0801,74.0
1239.5757,68.0
1240.0715,86.0
1240.5675,82.0
1241.0637,57.0
1241.5602,77.0
1242.0568,61.0
1242.5536,77.0
1243.0507,65.0
1243.5479,79.0
1244.0453,63.0
1244.5428,78.0
1245.0406,75.0
1245.5387,88.0
1246.0369,69.0
1246.5353,132.0
1247.0339,76.0
1247.5327,105.0
1248.0317,58.0
1248.531,87.0
1249.0304,61.0
1249.53,84.0
1250.0298,62.0
1250.5298,59.0
1251.03,68.0
1251.5304,66.0
1252.031,63.0
1252.5319,93.0
1253.0328,61.0
1253.534,84.0
1254.0355,66.0
1254.5371,82.0
1255.039,67.0
1255.541,64.0
1256.0432,79.0
1256.5457,67.0
1257.0482,61.0
1257.551,79.0
1258.0541,77.0
1258.5573,66.0
1259.0607,61.0
1259.5643,79.0
1260.0681,64.0
1260.5721,67.0
1261.0764,75.0
1261.5808,65.0
1262.0854,51.0
1262.5903,75.0
1263.0953,69.0
1263.6006,84.0
1264.1061,57.0
1264.6117,70.0
1265.1176,61.0
1265.6237,76.0
1266.1299,65.0
1266.6364,81.0
1267.1431,66.0
1267.6499,66.0
1268.157,67.0
1268.6642,66.0
1269.1716,73.0
1269.6793,69.0
1270.1871,66.0
1270.6952,78.0
1271.2035,81.0
1271.7119,60.0
1272.2206,80.0
1272.7295,53.0
1273.2385,82.0
1273.7478,64.0
1274.2573,82.0
1274.767,59.0
1275.2769,78.0
1275.787,51.0
1276.2972,79.0
1276.8077,92.0
1277.3185,84.0
1277.8295,68.0
1278.3406,87.0
1278.8519,64.0
1279.3635,66.0
1279.8752,52.0
1280.3872,79.0
1280.8994,57.0
1281.4117,84.0
1281.9243,68.0
1282.4371,97.0
1282.9501,92.0
1283.4633,88.0
1283.9767,64.0
1284.4902,72.0
1285.004,72.0
1285.5181,78.0
1286.0322,75.0
1286.5466,85.0
1287.0613,59.0
1287.576,80.0
1288.0911,62.0
1288.6063,85.0
1289.1218,73.0
1289.6375,75.0
1290.1533,84.0
1290.6694,77.0
1291.1857,77.0
1291.7021,63.0
1292.2189,62.0
1292.7357,68.0
1293.2528,77.0
1293.7701,73.0
1294.2876,79.0
1294.8053,70.0
1295.3232,64.0
1295.8414,65.0
1296.3597,69.0
1296.8783,53.0
1297.3971,81.0
1297.916,57.0
1298.4352,86.0
1298.9546,63.0
1299.4741,70.0
1299.9939,56.0
1300.5139,79.0
1301.0342,63.0
1301.5546,107.0
1302.0752,62.0
1302.5961,81.0
1303.1171,68.0
1303.6383,76.0
1304.1598,65.0
1304.6814,75.0
1305.2032,77.0
1305.7253,70.0
1306.2477,75.0
1306.7701,66.0
1307.2928,68.0
1307.8158,51.0
1308.3389,96.0
1308.8622,57.0
1309.3857,88.0
1309.9095,43.0
1310.4335,72.0
1310.9576,63.0
1311.482,79.0
1312.0066,61.0
1312.5314,54.0
1313.0564,64.0
1313.5817,81.0
1314.107,74.0
1314.6327,69.0
1315.1586,67.0
1315.6847,54.0
1316.2109,49.0
1316.7374,61.0
1317.2642,93.0
1317.791,65.0
1318.3181,68.0
1318.8455,56.0
1319.373,74.0
1319.9008,50.0
1320.4287,67.0
1320.9569,50.0
1321.4854,61.0
1322.0139,52.0
1322.5427,93.0
1323.0718,58.0
1323.601,82.0
1324.1304,87.0
1324.66,67.0
1325.19,86.0
1325.72,76.0
1326.2502,68.0
1326.7808,57.0
1327.3115,73.0
1327.8424,61.0
1328.3735,67.0
1328.9049,58.0
1329.4365,69.0
1329.9683,50.0
1330.5002,96.0
1331.0325,57.0
1331.565,70.0
1332.0975,61.0
1332.6304,82.0
1333.1635,79.0
1333.6968,72.0
1334.2302,78.0
1334.7639,66.0
1335.2979,92.0
1335.832,39.0
1336.3663,75.0
1336.9009,44.0
1337.4357,90.0
1337.9707,53.0
1338.5059,77.0
1339.0413,48.0
1339.5769,71.0
1340.1128,77.0
1340.6488,61.0
1341.185,66.0
1341.7216,63.0
1342.2583,87.0
1342.7952,72.0
1343.3323,74.0
1343.8696,58.0
1344.4072,70.0
1344.945,52.0
1345.4829,91.0
1346.0211,67.0
1346.5596,71.0
1347.0981,70.0
1347.637,70.0
1348.176,69.0
1348.7153,51.0
1349.2548,82.0
1349.7944,64.0
1350.3344,82.0
1350.8745,47.0
1351.4149,61.0
1351.9554,56.0
1352.4962,92.0
1353.0372,65.0
1353.5785,81.0
1354.1199,60.0
1354.6615,73.0
1355.2034,71.0
1355.7455,63.0
1356.2878,80.0
1356.8303,49.0
1357.373,74.0
1357.916,52.0
1358.4592,79.0
1359.0026,54.0
1359.5461,79.0
1360.09,61.0
1360.634,81.0
1361.1783,60.0
1361.7228,80.0
1362.2675,85.0
1362.8124,69.0
1363.3575,81.0
1363.9028,61.0
1364.4484,86.0
1364.9941,60.0
1365.5402,83.0
1366.0864,53.0
1366.6328,102.0
1367.1794,68.0
1367.7263,70.0
1368.2734,75.0
1368.8208,59.0
1369.3683,73.0
1369.916,56.0
1370.464,71.0
1371.0122,62.0
1371.5607,79.0
1372.1093,56.0
1372.6581,70.0
1373.2072,63.0
1373.7565,58.0
1374.306,79.0
1374.8557,67.0
1375.4056,102.0
1375.9558,68.0
1376.5062,98.0
1377.0569,62.0
1377.6077,92.0
1378.1587,66.0
1378.71,71.0
1379.2615,75.0
1379.8132,49.0
1380.3651,81.0
1380.9172,72.0
1381.4696,62.0
1382.0222,61.0
1382.5751,75.0
1383.128,64.0
1383.6813,86.0
1384.2347,58.0
1384.7885,82.0
1385.3424,75.0
1385.8965,46.0
1386.4508,75.0
1387.0054,74.0
1387.5602,88.0
1388.1152,60.0
1388.6705,72.0
1389.226,88.0
1389.7816,68.0
1390.3375,85.0
1390.8937,59.0
1391.4501,74.0
1392.0067,58.0
1392.5635,71.0
1393.1205,68.0
1393.6777,67.0
1394.2352,81.0
1394.793,55.0
1395.3508,86.0
1395.9089,90.0
1396.4673,107.0
1397.0259,87.0
1397.5847,112.0
1398.1438,90.0
1398.703,81.0
1399.2625,81.0
1399.8221,63.0
1400.3821,63.0
1400.9423,59.0
1401.5027,71.0
1402.0632,42.0
1402.624,61.0
1403.185,69.0
1403.7463,67.0
1404.3079,72.0
1404.8696,66.0
1405.4315,103.0
1405.9937,61.0
1406.556,85.0
1407.1187,61.0
1407.6815,98.0
1408.2446,65.0
1408.808,61.0
1409.3715,63.0
1409.9352,44.0
1410.4991,72.0
1411.0634,55.0
1411.6278,85.0
1412.1925,67.0
1412.7573,68.0
1413.3224,88.0
1413.8877,54.0
1414.4532,89.0
1415.019,66.0
1415.5851,84.0
1416.1514,80.0
1416.7178,72.0
1417.2844,81.0
1417.8513,42.0
1418.4185,79.0
1418.9858,60.0
1419.5535,87.0
1420.1213,57.0
1420.6893,83.0
1421.2576,64.0
1421.826,58.0
1422.3948,118.0
1422.9637,59.0
1423.533,91.0
1424.1024,76.0
1424.672,85.0
1425.2418,87.0
1425.8119,57.0
1426.3822,74.0
1426.9528,62.0
1427.5236,71.0
1428.0946,74.0
1428.6659,51.0
1429.2373,78.0
1429.809,66.0
1430.3809,89.0
1430.953,44.0
1431.5254,78.0
1432.098,67.0
1432.6709,76.0
1433.244,90.0
1433.8173,53.0
1434.3907,76.0
1434.9645,48.0
1435.5385,83.0
1436.1127,65.0
1436.6871,66.0
1437.2618,79.0
1437.8368,59.0
1438.412,82.0
1438.9873,59.0
1439.5629,68.0
1440.1387,54.0
1440.7147,59.0
1441.291,73.0
1441.8676,48.0
1442.4443,83.0
1443.0214,64.0
1443.5985,62.0
1444.1759,73.0
1444.7535,80.0
1445.3314,81.0
1445.9095,67.0
1446.4879,96.0
1447.0665,58.0
1447.6454,84.0
1448.2245,78.0
1448.8038,57.0
1449.3833,101.0
1449.963,60.0
1450.543,96.0
1451.1232,60.0
1451.7036,64.0
1452.2843,67.0
1452.8652,62.0
1453.4464,86.0
1454.0278,73.0
1454.6095,103.0
1455.1913,119.0
1455.7733,88.0
1456.3556,90.0
1456.9381,56.0
1457.5209,76.0
1458.1039,44.0
1458.6871,62.0
1459.2706,68.0
1459.8544,61.0
1460.4384,76.0
1461.0226,70.0
1461.6069,73.0
1462.1915,63.0
1462.7764,84.0
1463.3615,93.0
1463.9468,54.0
1464.5323,97.0
1465.1182,61.0
1465.7042,79.0
1466.2905,75.0
1466.8771,59.0
1467.4639,72.0
1468.0509,47.0
1468.6382,76.0
1469.2256,65.0
1469.8132,62.0
1470.4011,102.0
1470.9893,49.0
1471.5776,116.0
1472.1663,57.0
1472.7551,78.0
1473.3442,64.0
1473.9336,69.0
1474.5232,94.0
1475.113,90.0
1475.7031,103.0
1476.2935,85.0
1476.884,48.0
1477.4747,67.0
1478.0657,77.0
1478.6569,79.0
1479.2483,65.0
1479.84,68.0
1480.4319,84.0
1481.024,55.0
1481.6165,78.0
1482.2091,74.0
1482.802,78.0
1483.3951,87.0
1483.9885,54.0
1484.5822,61.0
1485.176,71.0
1485.7701,64.0
1486.3645,78.0
1486.9591,62.0
1487.5538,73.0
1488.1488,72.0
1488.744,81.0
1489.3395,71.0
1489.9352,48.0
1490.5311,74.0
1491.1273,61.0
1491.7238,69.0
1492.3204,76.0
1492.9174,58.0
1493.5145,89.0
1494.1119,71.0
1494.7096,79.0
1495.3075,127.0
1495.9056,84.0
1496.504,138.0
1497.1027,67.0
1497.7015,94.0
1498.3007,80.0
1498.9,62.0
1499.4996,77.0
1500.0995,74.0
1500.6996,81.0
1501.2998,65.0
1501.9003,59.0
1502.501,69.0
1503.1019,65.0
1503.7031,84.0
1504.3046,68.0
1504.9062,62.0
1505.5082,106.0
1506.1104,66.0
1506.7128,70.0
1507.3154,75.0
1507.9183,63.0
1508.5215,100.0
1509.1249,61.0
1509.7285,73.0
1510.3324,77.0
1510.9365,55.0
1511.5409,85.0
1512.1455,125.0
1512.7504,448.0
1513.3555,401.0
1513.9608,139.0
1514.5664,260.0
1515.1722,78.0
1515.7783,121.0
1516.3846,100.0
1516.9912,64.0
1517.598,78.0
1518.2051,65.0
1518.8124,60.0
1519.4199,78.0
1520.0277,52.0
1520.6357,71.0
1521.244,64.0
1521.8525,72.0
1522.4613,71.0
1523.0703,55.0
1523.6796,77.0
1524.2891,70.0
1524.8988,70.0
1525.5088,82.0
1526.119,73.0
1526.7295,85.0
1527.3402,76.0
1527.9512,54.0
1528.5624,96.0
1529.1738,51.0
1529.7855,69.0
1530.3975,66.0
1531.0096,80.0
1531.6221,87.0
1532.2347,72.0
1532.8477,68.0
1533.4608,79.0
1534.0742,55.0
1534.6879,77.0
1535.3018,86.0
1535.9159,60.0
1536.5303,77.0
1537.1449,62.0
1537.7598,66.0
1538.3749,77.0
1538.9902,62.0
1539.6058,83.0
1540.2217,61.0
1540.8378,69.0
1541.4541,83.0
1542.0707,60.0
1542.6875,69.0
1543.3046,76.0
1543.9219,60.0
1544.5394,68.0
1545.1572,56.0
1545.7753,51.0
1546.3936,74.0
1547.0121,68.0
1547.6309,65.0
1548.2499,79.0
1548.8691,75.0
1549.4886,80.0
1550.1084,65.0
1550.7284,82.0
1551.3486,79.0
1551.9691,59.0
1552.5898,84.0
1553.2109,85.0
1553.8323,69.0
1554.4539,74.0
1555.0757,58.0
1555.6978,83.0
1556.3201,80.0
1556.9426,64.0
1557.5654,61.0
1558.1885,63.0
1558.8118,79.0
1559.4353,90.0
1560.0591,62.0
1560.6831,90.0
1561.3074,67.0
1561.9319,40.0
1562.5566,82.0
1563.1816,70.0
1563.8069,58.0
1564.4324,81.0
1565.0581,62.0
1565.6841,60.0
1566.3103,58.0
1566.9368,70.0
1567.5636,75.0
1568.1907,66.0
1568.818,73.0
1569.4456,81.0
1570.0734,55.0
1570.7014,79.0
1571.3297,64.0
1571.9583,47.0
1572.587,79.0
1573.2161,57.0
1573.8453,71.0
1574.4749,89.0
1575.1046,57.0
1575.7346,54.0
1576.3649,49.0
1576.9954,62.0
1577.6261,47.0
1578.2572,70.0
1578.8885,57.0
1579.5201,84.0
1580.152,50.0
1580.784,67.0
1581.4164,84.0
1582.049,55.0
1582.6818,77.0
1583.3148,71.0
1583.9481,54.0
1584.5817,64.0
1585.2155,78.0
1585.8495,49.0
1586.4839,68.0
1587.1185,62.0
1587.7534,79.0
1588.3885,92.0
1589.0239,53.0
1589.6595,81.0
1590.2954,79.0
1590.9315,76.0
1591.5679,73.0
1592.2045,78.0
1592.8413,56.0
1593.4784,77.0
1594.1158,51.0
1594.7535,75.0
1595.3915,54.0
1596.0297,54.0
1596.6681,94.0
1597.3068,81.0
1597.9457,58.0
1598.5848,62.0
1599.2242,61.0
1599.8639,55.0
1600.5038,64.0
1601.144,65.0
1601.7845,76.0
1602.4253,83.0
1603.0663,65.0
1603.7075,77.0
1604.349,88.0
1604.9907,53.0
1605.6327,71.0
1606.2749,56.0
1606.9174,51.0
1607.5602,77.0
1608.2032,66.0
1608.8466,60.0
1609.4901,64.0
1610.1339,68.0
1610.778,68.0
1611.4222,61.0
1612.0668,55.0
1612.7115,68.0
1613.3567,70.0
1614.0021,66.0
1614.6477,71.0
1615.2936,76.0
1615.9397,54.0
1616.586,76.0
1617.2327,57.0
1617.8795,55.0
1618.5266,68.0
1619.1741,75.0
1619.8218,74.0
1620.4697,76.0
1621.1179,80.0
1621.7664,52.0
1622.415,82.0
1623.064,63.0
1623.7131,66.0
1624.3627,71.0
1625.0125,41.0
1625.6625,91.0
1626.3127,73.0
1626.9633,61.0
1627.614,61.0
1628.265,78.0
1628.9163,59.0
1629.5679,79.0
1630.2197,79.0
1630.8718,54.0
1631.5242,87.0
1632.1768,71.0
1632.8296,61.0
1633.4827,82.0
1634.1361,35.0
1634.7898,66.0
1635.4437,74.0
1636.0979,52.0
1636.7523,76.0
1637.407,71.0
1638.0619,62.0
1638.7172,60.0
1639.3727,79.0
1640.0284,60.0
1640.6844,84.0
1641.3407,72.0
1641.9972,46.0
1642.6539,81.0
1643.311,80.0
1643.9684,78.0
1644.626,164.0
1645.2838,171.0
1645.9419,59.0
1646.6002,120.0
1647.2589,79.0
1647.9178,59.0
1648.577,95.0
1649.2365,61.0
1649.8961,62.0
1650.556,65.0
1651.2163,60.0
1651.8768,54.0
1652.5376,68.0
1653.1986,60.0
1653.8599,58.0
1654.5214,73.0
1655.1832,52.0
1655.8453,49.0
1656.5077,78.0
1657.1703,67.0
1657.8331,64.0
1658.4962,73.0
1659.1597,60.0
1659.8234,70.0
1660.4873,61.0
1661.1515,64.0
1661.8159,61.0
1662.4806,74.0
1663.1456,62.0
1663.8109,64.0
1664.4764,69.0
1665.1422,67.0
1665.8082,77.0
1666.4746,81.0
1667.1412,70.0
1667.8081,71.0
1668.4752,69.0
1669.1426,49.0
1669.8102,67.0
1670.4781,88.0
1671.1464,59.0
1671.8148,55.0
1672.4835,77.0
1673.1525,60.0
1673.8218,75.0
1674.4913,79.0
1675.1611,65.0
1675.8312,67.0
1676.5015,78.0
1677.1721,56.0
1677.843,64.0
1678.5142,74.0
1679.1855,66.0
1679.8572,81.0
1680.5292,69.0
1681.2014,61.0
1681.8739,63.0
1682.5466,85.0
1683.2196,64.0
1683.893,70.0
1684.5665,73.0
1685.2404,51.0
1685.9144,63.0
1686.5887,85.0
1687.2634,60.0
1687.9384,58.0
1688.6135,74.0
1689.289,67.0
1689.9646,45.0
1690.6406,62.0
1691.3169,75.0
1691.9934,50.0
1692.6702,68.0
1693.3473,54.0
1694.0247,66.0
1694.7023,61.0
1695.3801,72.0
1696.0582,57.0
1696.7367,69.0
1697.4154,66.0
1698.0944,62.0
1698.7736,68.0
1699.4531,83.0
1700.1329,66.0
1700.813,82.0
1701.4933,98.0
1702.1738,56.0
1702.8547,57.0
1703.5359,79.0
1704.2173,53.0
1704.8989,71.0
1705.5809,74.0
1706.2632,68.0
1706.9457,73.0
1707.6284,85.0
1708.3115,68.0
1708.9949,49.0
1709.6785,52.0
1710.3623,51.0
1711.0465,48.0
1711.731,64.0
1712.4156,58.0
1713.1006,43.0
1713.7858,71.0
1714.4713,67.0
1715.1571,57.0
1715.8431,55.0
1716.5294,67.0
1717.2161,55.0
1717.903,56.0
1718.5901,60.0
1719.2775,47.0
1719.9652,60.0
1720.6532,58.0
1721.3414,67.0
1722.0299,61.0
1722.7188,83.0
1723.4078,66.0
1724.0972,53.0
1724.7869,63.0
1725.4768,79.0
1726.167,45.0
1726.8574,65.0
1727.5482,91.0
1728.2393,58.0
1728.9305,74.0
1729.6221,76.0
1730.314,73.0
1731.0061,56.0
1731.6985,64.0
1732.3911,63.0
1733.0841,43.0
1733.7773,66.0
1734.4708,67.0
1735.1647,66.0
1735.8588,70.0
1736.5531,74.0
1737.2477,56.0
1737.9426,50.0
1738.6378,58.0
1739.3333,62.0
1740.0289,49.0
1740.725,60.0
1741.4213,68.0
1742.1178,48.0
1742.8147,53.0
1743.5118,67.0
1744.2092,61.0
1744.9069,50.0
1745.6049,74.0
1746.3031,65.0
1747.0016,55.0
1747.7004,63.0
1748.3995,61.0
1749.0989,59.0
1749.7985,56.0
1750.4984,61.0
1751.1986,65.0
1751.899,61.0
1752.5999,76.0
1753.3009,61.0
1754.0022,46.0
1754.7039,62.0
1755.4058,67.0
1756.1079,47.0
1756.8103,65.0
1757.5131,68.0
1758.2161,57.0
1758.9193,52.0
1759.6229,72.0
1760.3268,76.0
1761.0309,50.0
1761.7354,66.0
1762.4401,58.0
1763.145,40.0
1763.8502,69.0
1764.5558,80.0
1765.2616,76.0
1765.9677,52.0
1766.6741,57.0
1767.3807,56.0
1768.0876,45.0
1768.7949,69.0
1769.5024,64.0
1770.2102,56.0
1770.9183,67.0
1771.6267,85.0
1772.3353,91.0
1773.0443,66.0
1773.7535,86.0
1774.463,65.0
1775.1729,57.0
1775.8829,76.0
1776.5933,40.0
1777.304,72.0
1778.0149,58.0
1778.7261,69.0
1779.4376,70.0
1780.1494,50.0
1780.8615,57.0
1781.5739,60.0
1782.2865,59.0
1782.9994,49.0
1783.7126,70.0
1784.4261,59.0
1785.1399,38.0
1785.854,72.0
1786.5684,73.0
1787.283,51.0
1787.9979,45.0
1788.7131,65.0
1789.4286,67.0
1790.1444,55.0
1790.8605,73.0
1791.5768,48.0
1792.2935,48.0
1793.0104,57.0
1793.7275,66.0
1794.4451,76.0
1795.1628,65.0
1795.8809,52.0
1796.5992,58.0
1797.3179,58.0
1798.0367,50.0
1798.756,58.0
1799.4755,69.0
1800.1953,67.0
1800.9154,63.0
1801.6357,65.0
1802.3564,64.0
1803.0774,44.0
1803.7986,79.0
1804.5201,52.0
1805.242,69.0
1805.964,89.0
1806.6864,86.0
1807.409,69.0
1808.1321,63.0
1808.8553,68.0
1809.5789,58.0
1810.3027,72.0
1811.0269,59.0
1811.7512,69.0
1812.476,66.0
1813.2009,66.0
1813.9261,62.0
1814.6517,65.0
1815.3776,77.0
1816.1038,45.0
1816.8302,83.0
1817.5569,71.0
1818.2839,59.0
1819.0112,66.0
1819.7389,72.0
1820.4668,57.0
1821.195,59.0
1821.9235,62.0
1822.6522,68.0
1823.3812,73.0
1824.1106,55.0
1824.8402,66.0
1825.5702,75.0
1826.3004,51.0
1827.0309,45.0
1827.7617,69.0
1828.4928,91.0
1829.2242,46.0
1829.9559,67.0
1830.6879,69.0
1831.4202,72.0
1832.1527,58.0
1832.8856,46.0
1833.6188,64.0
1834.3522,79.0
1835.0859,49.0
1835.82,51.0
1836.5543,69.0
1837.289,58.0
1838.0238,60.0
1838.759,76.0
1839.4945,68.0
1840.2303,48.0
1840.9664,66.0
1841.7028,76.0
1842.4395,71.0
1843.1764,44.0
1843.9137,66.0
1844.6512,63.0
1845.3892,68.0
1846.1273,50.0
1846.8657,46.0
1847.6045,67.0
1848.3435,63.0
1849.0829,60.0
1849.8225,53.0
1850.5624,71.0
1851.3026,58.0
1852.0431,53.0
1852.7839,70.0
1853.525,78.0
1854.2665,57.0
1855.0082,57.0
1855.7501,72.0
1856.4924,62.0
1857.235,61.0
1857.9779,67.0
1858.7211,82.0
1859.4646,74.0
1860.2084,58.0
1860.9525,45.0
1861.6969,64.0
1862.4415,64.0
1863.1865,45.0
1863.9318,54.0
1864.6774,63.0
1865.4232,57.0
1866.1694,61.0
1866.9159,48.0
1867.6627,79.0
1868.4098,79.0
1869.1571,66.0
1869.9048,78.0
1870.6527,71.0
1871.401,64.0
1872.1495,68.0
1872.8984,61.0
1873.6476,63.0
1874.3971,66.0
1875.1469,61.0
1875.8969,70.0
1876.6472,94.0
1877.3978,81.0
1878.1488,65.0
1878.9,67.0
1879.6516,67.0
1880.4034,63.0
1881.1556,55.0
1881.9081,51.0
1882.6609,70.0
1883.414,76.0
1884.1674,88.0
1884.921,332.0
1885.675,383.0
1886.4293,233.0
1887.1838,113.0
1887.9387,125.0
1888.6938,98.0
1889.4493,72.0
1890.2051,59.0
1890.9612,64.0
1891.7175,77.0
1892.4742,66.0
1893.2312,56.0
1893.9885,57.0
1894.7461,68.0
1895.504,74.0
1896.2622,50.0
1897.0208,49.0
1897.7795,76.0
1898.5387,75.0
1899.2981,60.0
1900.0579,56.0
1900.8179,74.0
1901.5782,73.0
1902.3389,62.0
1903.0999,47.0
1903.8611,62.0
1904.6227,73.0
1905.3845,66.0
1906.1467,56.0
1906.9092,76.0
1907.672,81.0
1908.435,74.0
1909.1985,58.0
1909.9622,48.0
1910.7262,70.0
1911.4905,91.0
1912.2551,75.0
1913.02,65.0
1913.7853,127.0
1914.5508,117.0
1915.3167,75.0
1916.0828,76.0
1916.8492,62.0
1917.616,60.0
1918.383,74.0
1919.1504,49.0
1919.9181,57.0
1920.686,61.0
1921.4543,51.0
1922.2229,64.0
1922.9918,60.0
1923.761,71.0
1924.5305,76.0
1925.3003,59.0
1926.0704,55.0
1926.8408,60.0
1927.6116,58.0
1928.3826,60.0
1929.1539,52.0
1929.9255,57.0
1930.6975,55.0
1931.4698,52.0
1932.2424,61.0
1933.0154,48.0
1933.7886,59.0
1934.5621,64.0
1935.3359,55.0
1936.1101,58.0
1936.8845,55.0
1937.6593,84.0
1938.4343,80.0
1939.2097,50.0
1939.9854,64.0
1940.7614,65.0
1941.5376,59.0
1942.3142,58.0
1943.0912,46.0
1943.8684,59.0
1944.646,61.0
1945.4238,57.0
1946.202,52.0
1946.9805,40.0
1947.7593,86.0
1948.5383,68.0
1949.3177,70.0
1950.0975,58.0
1950.8776,75.0
1951.658,64.0
1952.4386,76.0
1953.2196,48.0
1954.0009,44.0
1954.7825,59.0
1955.5643,61.0
1956.3466,60.0
1957.1292,61.0
1957.912,79.0
1958.6952,62.0
1959.4786,62.0
1960.2625,56.0
1961.0465,50.0
1961.8309,65.0
1962.6157,73.0
1963.4008,60.0
1964.1862,63.0
1964.9718,62.0
1965.7578,69.0
1966.5441,74.0
1967.3307,65.0
1968.1177,57.0
1968.9049,57.0
1969.6925,64.0
1970.4803,68.0
1971.2686,64.0
1972.057,47.0
1972.8458,63.0
1973.635,50.0
1974.4244,60.0
1975.2142,60.0
1976.0043,66.0
1976.7947,58.0
1977.5854,74.0
1978.3765,60.0
1979.1678,51.0
1979.9595,58.0
1980.7515,57.0
1981.5438,69.0
1982.3364,86.0
1983.1294,65.0
1983.9226,75.0
1984.7162,70.0
1985.5101,73.0
1986.3043,61.0
1987.0989,66.0
1987.8937,58.0
1988.6888,70.0
1989.4844,51.0
1990.2802,53.0
1991.0763,59.0
1991.8727,68.0
1992.6694,75.0
1993.4666,89.0
1994.2639,67.0
1995.0616,64.0
1995.8596,63.0
1996.658,68.0
1997.4567,71.0
1998.2556,53.0
1999.0549,54.0
1999.8546,75.0
2000.6545,74.0
2001.4548,72.0
2002.2554,50.0
2003.0563,54.0
2003.8575,70.0
2004.659,71.0
2005.4609,53.0
2006.2631,62.0
2007.0656,54.0
2007.8684,58.0
2008.6715,63.0
2009.475,94.0
2010.2788,70.0
2011.0829,62.0
2011.8873,88.0
2012.6921,82.0
2013.4972,77.0
2014.3026,52.0
2015.1083,56.0
2015.9143,49.0
2016.7207,77.0
2017.5273,62.0
2018.3344,57.0
2019.1417,47.0
2019.9493,59.0
2020.7573,49.0
2021.5657,64.0
2022.3743,49.0
2023.1832,53.0
2023.9926,53.0
2024.8021,54.0
2025.612,77.0
2026.4224,68.0
2027.2329,45.0
2028.0438,80.0
2028.855,66.0
2029.6665,70.0
2030.4784,64.0
2031.2905,65.0
2032.103,51.0
2032.9159,46.0
2033.729,75.0
2034.5425,84.0
2035.3563,75.0
2036.1704,52.0
2036.9849,53.0
2037.7997,66.0
2038.6147,58.0
2039.4302,69.0
2040.246,53.0
2041.062,56.0
2041.8784,48.0
2042.6952,60.0
2043.5123,61.0
2044.3297,47.0
2045.1475,35.0
2045.9656,75.0
2046.7839,57.0
2047.6027,54.0
2048.4216,66.0
2049.241,46.0
2050.0605,59.0
2050.8806,57.0
2051.701,70.0
2052.5217,85.0
2053.3428,74.0
2054.164,64.0
2054.9858,63.0
2055.8079,56.0
2056.6301,53.0
2057.453,73.0
2058.276,58.0
2059.099,60.0
2059.9229,58.0
2060.7468,42.0
2061.571,52.0
2062.3958,61.0
2063.2207,60.0
2064.046,54.0
2064.8716,70.0
2065.6975,63.0
2066.5237,59.0
2067.3503,68.0
2068.1772,60.0
2069.0046,55.0
2069.8323,68.0
2070.6602,66.0
2071.4885,62.0
2072.3171,74.0
2073.146,52.0
2073.9753,59.0
2074.805,73.0
2075.6348,74.0
2076.465,57.0
2077.2957,60.0
2078.1265,57.0
2078.9578,61.0
2079.7893,59.0
2080.6213,70.0
2081.4536,54.0
2082.2861,66.0
2083.1191,61.0
2083.9524,71.0
2084.786,65.0
2085.6199,61.0
2086.454,67.0
2087.2886,61.0
2088.1235,47.0
2088.9587,65.0
2089.7944,64.0
2090.6304,58.0
2091.4666,54.0
2092.3032,51.0
2093.1401,43.0
2093.9773,55.0
2094.815,57.0
2095.6528,81.0
2096.4912,73.0
2097.3298,65.0
2098.1687,66.0
2099.008,59.0
2099.8477,77.0
2100.6875,65.0
2101.5278,72.0
2102.3684,58.0
2103.2095,54.0
2104.0508,50.0
2104.8923,61.0
2105.7344,58.0
2106.5767,68.0
2107.4192,54.0
2108.2622,53.0
2109.1055,54.0
2109.9492,55.0
2110.7932,63.0
2111.6375,59.0
2112.4822,83.0
2113.3271,57.0
2114.1724,77.0
2115.018,72.0
2115.864,63.0
2116.7104,69.0
2117.5571,67.0
2118.404,66.0
2119.2515,56.0
2120.099,60.0
2120.9473,54.0
2121.7957,53.0
2122.6443,78.0
2123.4934,61.0
2124.3428,63.0
2125.1926,69.0
2126.0427,68.0
2126.893,68.0
2127.744,68.0
2128.595,80.0
2129.4463,47.0
2130.298,58.0
2131.1501,58.0
2132.0027,67.0
2132.8555,51.0
2133.7085,56.0
2134.562,73.0
2135.4158,67.0
2136.27,72.0
2137.1245,84.0
2137.9792,66.0
2138.8345,61.0
2139.69,71.0
2140.546,70.0
2141.402,84.0
2142.2585,58.0
2143.1155,61.0
2143.9727,73.0
2144.8303,70.0
2145.6882,64.0
2146.5464,68.0
2147.405,56.0
2148.264,55.0
2149.1233,58.0
2149.983,58.0
2150.843,46.0
2151.7034,57.0
2152.564,73.0
2153.425,80.0
2154.2864,50.0
2155.1482,59.0
2156.0103,50.0
2156.8726,60.0
2157.7354,76.0
2158.5984,49.0
2159.462,71.0
2160.3257,82.0
2161.1897,64.0
2162.0542,59.0
2162.919,59.0
2163.7842,63.0
2164.6497,72.0
2165.5156,57.0
2166.3818,64.0
2167.2483,61.0
2168.1152,65.0
2168.9824,63.0
2169.85,74.0
2170.718,87.0
2171.5864,65.0
2172.455,60.0
2173.324,56.0
2174.1934,59.0
2175.063,56.0
2175.933,73.0
2176.8035,62.0
2177.674,66.0
2178.5452,76.0
2179.4165,97.0
2180.2883,57.0
2181.1604,63.0
2182.033,70.0
2182.9058,63.0
2183.7788,71.0
2184.6523,50.0
2185.5261,79.0
2186.4004,69.0
2187.275,64.0
2188.15,58.0
2189.0251,60.0
2189.9006,68.0
2190.7766,65.0
2191.6528,71.0
2192.5295,61.0
2193.4065,68.0
2194.284,77.0
2195.1616,47.0
2196.0398,66.0
2196.9182,57.0
2197.7969,74.0
2198.676,68.0
2199.5554,91.0
2200.4353,78.0
2201.3154,60.0
2202.196,55.0
2203.077,50.0
2203.9583,53.0
2204.8398,84.0
2205.7217,76.0
2206.604,67.0
2207.4866,67.0
2208.3696,70.0
2209.253,63.0
2210.1367,57.0
2211.0208,62.0
2211.9053,59.0
2212.79,78.0
2213.675,83.0
2214.5605,80.0
2215.4463,74.0
2216.3325,66.0
2217.219,87.0
2218.106,86.0
2218.9932,79.0
2219.8809,78.0
2220.7688,78.0
2221.6572,57.0
2222.546,59.0
2223.4348,79.0
2224.3242,57.0
2225.2139,69.0
2226.104,59.0
2226.9944,63.0
2227.8853,66.0
2228.7764,66.0
2229.668,73.0
2230.5598,78.0
2231.4521,98.0
2232.3447,78.0
2233.2375,71.0
2234.1309,83.0
2235.0244,90.0
2235.9185,66.0
2236.8127,87.0
2237.7075,65.0
2238.6025,78.0
2239.498,79.0
2240.3938,64.0
2241.29,72.0
2242.1865,65.0
2243.0835,76.0
2243.9807,64.0
2244.8784,65.0
2245.7764,92.0
2246.6746,71.0
2247.5732,75.0
2248.4722,71.0
2249.3716,72.0
2250.2712,59.0
2251.1714,71.0
2252.0718,63.0
2252.9727,64.0
2253.8738,67.0
2254.7754,92.0
2255.6772,77.0
2256.5796,80.0
2257.4822,84.0
2258.3853,96.0
2259.2886,89.0
2260.1924,74.0
2261.0964,73.0
2262.001,89.0
2262.9058,74.0
2263.811,91.0
2264.7166,77.0
2265.6226,92.0
2266.5288,86.0
2267.4353,77.0
2268.3423,66.0
2269.2495,70.0
2270.1572,71.0
2271.0652,78.0
2271.9736,73.0
2272.8823,89.0
2273.7915,86.0
2274.701,85.0
2275.6108,110.0
2276.521,128.0
2277.4316,117.0
2278.3425,97.0
2279.254,80.0
2280.1655,87.0
2281.0776,78.0
2281.99,81.0
2282.9028,85.0
2283.816,67.0
2284.7295,82.0
2285.6433,90.0
2286.5576,85.0
2287.4722,97.0
2288.3872,73.0
2289.3025,81.0
2290.2183,92.0
2291.1343,82.0
2292.0508,82.0
2292.9675,87.0
2293.8848,87.0
2294.8022,72.0
2295.7202,72.0
2296.6384,81.0
2297.5571,89.0
2298.476,79.0
2299.3955,79.0
2300.3152,84.0
2301.2354,80.0
2302.1558,92.0
2303.0767,97.0
2303.9978,96.0
2304.9194,70.0
2305.8413,74.0
2306.7637,83.0
2307.6863,85.0
2308.6094,83.0
2309.5327,102.0
2310.4565,85.0
2311.3806,78.0
2312.3052,67.0
2313.23,92.0
2314.1553,84.0
2315.081,90.0
2316.007,96.0
2316.9336,76.0
2317.8604,83.0
2318.7876,102.0
2319.715,123.0
2320.643,94.0
2321.5713,94.0
2322.5,90.0
2323.429,81.0
2324.3584,82.0
2325.288,75.0
2326.2183,84.0
2327.1487,85.0
2328.0796,96.0
2329.0107,98.0
2329.9424,86.0
2330.8743,83.0
2331.8066,88.0
2332.7393,84.0
2333.6724,89.0
2334.6057,97.0
2335.5396,97.0
2336.4739,73.0
2337.4084,104.0
2338.3435,78.0
2339.2788,73.0
2340.2146,69.0
2341.1506,74.0
2342.0872,74.0
2343.024,75.0
2343.9612,80.0
2344.8987,122.0
2345.8367,125.0
2346.775,92.0
2347.7136,106.0
2348.6526,86.0
2349.592,84.0
2350.532,72.0
2351.4722,88.0
2352.4128,75.0
2353.3538,68.0
2354.2952,77.0
2355.2368,79.0
2356.179,81.0
2357.1213,74.0
2358.0642,86.0
2359.0073,80.0
2359.951,77.0
2360.895,79.0
2361.8394,79.0
2362.7842,89.0
2363.7292,64.0
2364.6748,85.0
2365.6206,79.0
2366.567,74.0
2367.5134,84.0
2368.4604,71.0
2369.4077,71.0
2370.3555,85.0
2371.3037,63.0
2372.2522,73.0
2373.2012,80.0
2374.1504,80.0
2375.1,100.0
2376.05,58.0
2377.0005,75.0
2377.9512,68.0
2378.9023,80.0
2379.854,86.0
2380.806,67.0
2381.7583,78.0
2382.711,76.0
2383.664,59.0
2384.6174,72.0
2385.5713,70.0
2386.5256,75.0
2387.4802,107.0
2388.4353,86.0
2389.3906,95.0
2390.3464,86.0
2391.3025,74.0
2392.259,70.0
2393.2158,58.0
2394.173,77.0
2395.1309,69.0
2396.0889,75.0
2397.0474,104.0
2398.006,78.0
2398.9653,69.0
2399.9248,60.0
2400.8848,51.0
2401.8452,80.0
2402.806,77.0
2403.767,72.0
2404.7285,72.0
2405.6904,72.0
2406.6526,67.0
2407.6152,84.0
2408.5784,69.0
2409.5417,65.0
2410.5056,57.0
2411.4697,85.0
2412.4343,71.0
2413.3994,85.0
2414.3647,92.0
2415.3306,82.0
2416.2966,77.0
2417.2632,76.0
2418.23,67.0
2419.1973,70.0
2420.165,61.0
2421.133,72.0
2422.1016,71.0
2423.0703,78.0
2424.0396,85.0
2425.0093,74.0
2425.9792,67.0
2426.9497,77.0
2427.9204,75.0
2428.8916,79.0
2429.863,85.0
2430.835,96.0
2431.8074,92.0
2432.78,99.0
2433.7532,68.0
2434.7266,76.0
2435.7004,86.0
2436.6748,64.0
2437.6494,58.0
2438.6245,58.0
2439.5999,68.0
2440.5757,67.0
2441.552,75.0
2442.5286,64.0
2443.5056,76.0
2444.483,65.0
2445.4607,74.0
2446.439,73.0
2447.4175,85.0
2448.3965,94.0
2449.3757,85.0
2450.3555,67.0
2451.3357,70.0
2452.3162,73.0
2453.297,66.0
2454.2783,57.0
2455.26,79.0
2456.2422,55.0
2457.2246,58.0
2458.2075,67.0
2459.191,75.0
2460.1746,54.0
2461.1587,60.0
2462.143,70.0
2463.128,71.0
2464.1133,84.0
2465.0989,92.0
2466.085,91.0
2467.0713,80.0
2468.058,87.0
2469.0454,70.0
2470.033,69.0
2471.021,61.0
2472.0095,80.0
2472.9983,72.0
2473.9875,64.0
2474.977,76.0
2475.967,70.0
2476.9575,61.0
2477.9482,64.0
2478.9395,60.0
2479.931,79.0
2480.9229,77.0
2481.9153,80.0
2482.908,82.0
2483.9011,66.0
2484.8948,73.0
2485.8887,58.0
2486.883,78.0
2487.878,74.0
2488.873,69.0
2489.8687,60.0
2490.8645,78.0
2491.8608,66.0
2492.8577,85.0
2493.8547,71.0
2494.8523,86.0
2495.8503,71.0
2496.8486,84.0
2497.8474,112.0
2498.8464,91.0
2499.846,100.0
2500.846,103.0
2501.8462,60.0
2502.847,76.0
2503.8481,60.0
2504.8496,67.0
2505.8516,47.0
2506.854,67.0
2507.8567,76.0
2508.8599,76.0
2509.8635,65.0
2510.8674,69.0
2511.8718,59.0
2512.8765,89.0
2513.8816,75.0
2514.8872,68.0
2515.893,81.0
2516.8994,73.0
2517.9062,63.0
2518.9133,69.0
2519.921,70.0
2520.929,69.0
2521.9373,79.0
2522.946,82.0
2523.9553,61.0
2524.9648,70.0
2525.9749,70.0
2526.9854,70.0
2527.996,58.0
2529.0073,56.0
2530.019,80.0
2531.031,84.0
2532.0435,84.0
2533.0562,71.0
2534.0693,57.0
2535.083,77.0
2536.097,69.0
2537.1113,79.0
2538.1262,72.0
2539.1414,74.0
2540.157,68.0
2541.173,60.0
2542.1895,63.0
2543.2063,62.0
2544.2236,62.0
2545.2412,71.0
2546.2593,66.0
2547.2778,65.0
2548.2966,79.0
2549.316,76.0
2550.3357,87.0
2551.3557,70.0
2552.3762,71.0
2553.3972,62.0
2554.4185,72.0
2555.4402,76.0
2556.4624,68.0
2557.485,57.0
2558.508,67.0
2559.5315,67.0
2560.5554,68.0
2561.5796,58.0
2562.6042,84.0
2563.6294,81.0
2564.6548,84.0
2565.6807,90.0
2566.707,58.0
2567.7336,68.0
2568.7607,76.0
2569.7883,70.0
2570.8162,51.0
2571.8445,77.0
2572.8733,69.0
2573.9023,66.0
2574.932,79.0
2575.962,59.0
2576.9922,80.0
2578.023,84.0
2579.0542,93.0
2580.086,97.0
2581.118,68.0
2582.1504,61.0
2583.1833,66.0
2584.2166,74.0
2585.2502,73.0
2586.2844,76.0
2587.3188,69.0
2588.3538,62.0
2589.3892,75.0
2590.4248,73.0
2591.461,79.0
2592.4976,92.0
2593.5347,100.0
2594.572,86.0
2595.6099,89.0
2596.6482,49.0
2597.6868,86.0
2598.7258,67.0
2599.7654,82.0
2600.8052,62.0
2601.8455,75.0
2602.8862,83.0
2603.9275,89.0
2604.969,81.0
2606.011,72.0
2607.0535,63.0
2608.0962,83.0
2609.1394,86.0
2610.183,70.0
2611.2273,81.0
2612.2717,82.0
2613.3167,77.0
2614.362,65.0
2615.4077,69.0
2616.4539,66.0
2617.5005,70.0
2618.5476,71.0
2619.595,74.0
2620.6428,100.0
2621.6912,62.0
2622.7397,84.0
2623.7888,77.0
2624.8384,67.0
2625.8884,68.0
2626.9387,90.0
2627.9895,92.0
2629.0408,85.0
2630.0923,84.0
2631.1443,82.0
2632.1968,78.0
2633.2498,78.0
2634.303,93.0
2635.3567,88.0
2636.411,106.0
2637.4653,88.0
2638.5203,68.0
2639.5757,70.0
2640.6316,59.0
2641.6877,76.0
2642.7444,63.0
2643.8015,52.0
2644.8591,76.0
2645.917,63.0
2646.9753,89.0
2648.0342,78.0
2649.0935,76.0
2650.153,64.0
2651.2131,73.0
2652.2737,77.0
2653.3345,70.0
2654.3958,67.0
2655.4575,70.0
2656.5198,75.0
2657.5823,77.0
2658.6453,68.0
2659.7087,74.0
2660.7727,76.0
2661.837,96.0
2662.9016,95.0
2663.9668,116.0
2665.0325,131.0
2666.0984,98.0
2667.1648,104.0
2668.2317,84.0
2669.299,92.0
2670.3667,70.0
2671.4348,84.0
2672.5034,75.0
2673.5725,80.0
2674.6418,65.0
2675.7117,83.0
2676.782,59.0
2677.8528,79.0
2678.9238,86.0
2679.9954,76.0
2681.0674,82.0
2682.14,89.0
2683.2126,77.0
2684.286,74.0
2685.3596,76.0
2686.4338,65.0
2687.5083,80.0
2688.5833,85.0
2689.6587,69.0
2690.7346,74.0
2691.8108,89.0
2692.8875,86.0
2693.9646,90.0
2695.0422,87.0
2696.1204,92.0
2697.1987,84.0
2698.2776,64.0
2699.357,74.0
2700.4368,77.0
2701.5168,76.0
2702.5974,82.0
2703.6785,71.0
2704.76,67.0
2705.8418,74.0
2706.924,102.0
2708.0068,83.0
2709.09,91.0
2710.1738,76.0
2711.2578,75.0
2712.3423,96.0
2713.4272,82.0
2714.5127,73.0
2715.5984,67.0
2716.6846,78.0
2717.7712,98.0
2718.8584,76.0
2719.946,74.0
2721.034,76.0
2722.1223,80.0
2723.2112,99.0
2724.3005,82.0
2725.3901,88.0
2726.4802,87.0
2727.5708,92.0
2728.6619,69.0
2729.7534,79.0
2730.8452,77.0
2731.9375,86.0
2733.0303,75.0
2734.1235,62.0
2735.2173,116.0
2736.3113,101.0
2737.4058,81.0
2738.5007,78.0
2739.5962,66.0
2740.6921,67.0
2741.7883,58.0
2742.885,67.0
2743.9822,75.0
2745.0798,71.0
2746.178,83.0
2747.2764,85.0
2748.3752,79.0
2749.4746,80.0
2750.5745,107.0
2751.6748,72.0
2752.7754,76.0
2753.8765,67.0
2754.978,59.0
2756.08,66.0
2757.1826,72.0
2758.2854,73.0
2759.3887,74.0
2760.4924,71.0
2761.5967,86.0
2762.7014,78.0
2763.8064,88.0
2764.9119,75.0
2766.0178,73.0
2767.1243,79.0
2768.2312,74.0
2769.3384,78.0
2770.446,72.0
2771.5542,80.0
2772.6628,81.0
2773.772,76.0
2774.8816,99.0
2775.9915,120.0
2777.1018,99.0
2778.2126,103.0
2779.324,89.0
2780.4358,77.0
2781.5479,94.0
2782.6604,91.0
2783.7734,89.0
2784.887,86.0
2786.001,72.0
2787.1155,72.0
2788.2302,81.0
2789.3455,82.0
2790.4612,99.0
2791.5774,242.0
2792.694,369.0
2793.8113,527.0
2794.9287,419.0
2796.0466,249.0
2797.165,160.0
2798.284,138.0
2799.4033,141.0
2800.5232,96.0
2801.6433,99.0
2802.764,115.0
2803.885,105.0
2805.0066,110.0
2806.1287,110.0
2807.2512,212.0
2808.374,191.0
2809.4973,172.0
2810.621,133.0
2811.7454,96.0
2812.87,102.0
2813.9954,149.0
2815.1208,133.0
2816.2468,162.0
2817.3733,143.0
2818.5002,124.0
2819.6277,102.0
2820.7556,105.0
2821.884,110.0
2823.0127,118.0
2824.1418,132.0
2825.2715,119.0
2826.4016,101.0
2827.5322,118.0
2828.6633,110.0
2829.7947,113.0
2830.9265,132.0
2832.0588,123.0
2833.1917,109.0
2834.325,126.0
2835.4587,117.0
2836.593,110.0
2837.7275,114.0
2838.8625,98.0
2839.998,106.0
2841.134,121.0
2842.2705,93.0
2843.4075,122.0
2844.545,91.0
2845.6829,112.0
2846.821,140.0
2847.9597,162.0
2849.0989,163.0
2850.2385,145.0
2851.3787,130.0
2852.5193,127.0
2853.6604,124.0
2854.8018,110.0
2855.9436,104.0
2857.086,120.0
2858.2288,134.0
2859.372,110.0
2860.5159,120.0
2861.6602,102.0
2862.805,102.0
2863.95,158.0
2865.0955,167.0
2866.2415,224.0
2867.388,176.0
2868.535,129.0
2869.6824,114.0
2870.8303,108.0
2871.9788,137.0
2873.1274,144.0
2874.2766,134.0
2875.4263,138.0
2876.5764,119.0
2877.727,117.0
2878.8782,99.0
2880.0298,108.0
2881.182,101.0
2882.3345,110.0
2883.4873,102.0
2884.6406,94.0
2885.7944,126.0
2886.9487,110.0
2888.1035,135.0
2889.2588,165.0
2890.4146,197.0
2891.5708,214.0
2892.7275,173.0
2893.8845,149.0
2895.042,144.0
2896.2,111.0
2897.3584,109.0
2898.5173,108.0
2899.6768,96.0
2900.8367,72.0
2901.997,85.0
2903.158,100.0
2904.3193,118.0
2905.481,143.0
2906.643,129.0
2907.8057,298.0
2908.9688,432.0
2910.1323,363.0
2911.2964,266.0
2912.461,176.0
2913.626,130.0
2914.7915,105.0
2915.9575,128.0
2917.124,113.0
2918.2908,116.0
2919.458,115.0
2920.6257,109.0
2921.794,144.0
2922.9626,166.0
2924.1318,174.0
2925.3015,148.0
2926.4717,128.0
2927.6423,132.0
2928.8135,88.0
2929.985,117.0
2931.157,169.0
2932.3293,177.0
2933.5022,148.0
2934.6755,133.0
2935.8494,115.0
2937.0237,104.0
2938.1985,134.0
2939.3738,115.0
2940.5496,104.0
2941.7258,123.0
2942.9026,126.0
2944.0798,120.0
2945.2576,138.0
2946.4358,105.0
2947.6143,195.0
2948.7932,295.0
2949.9727,289.0
2951.1526,201.0
2952.333,194.0
2953.514,151.0
2954.6953,105.0
2955.8772,123.0
2957.0596,99.0
2958.2424,115.0
2959.4258,112.0
2960.6096,101.0
2961.794,97.0
2962.9788,116.0
2964.164,116.0
2965.3496,142.0
2966.5356,99.0
2967.7222,79.0
2968.9092,95.0
2970.0967,116.0
2971.2847,121.0
2972.4731,128.0
2973.662,120.0
2974.8516,126.0
2976.0415,112.0
2977.232,92.0
2978.4229,125.0
2979.6143,120.0
2980.8062,108.0
2981.9985,128.0
2983.1914,126.0
2984.3848,112.0
2985.5786,113.0
2986.773,104.0
2987.9678,95.0
2989.1628,131.0
2990.3584,130.0
2991.5544,107.0
2992.751,111.0
2993.948,119.0
2995.1455,117.0
2996.3435,105.0
2997.542,96.0
2998.741,102.0
2999.9404,116.0
3001.1404,104.0
3002.3408,105.0
3003.5417,117.0
3004.7432,107.0
3005.945,106.0
3007.1475,124.0
3008.3503,128.0
3009.5537,132.0
3010.7576,133.0
3011.962,130.0
3013.1667,107.0
3014.372,132.0
3015.578,136.0
3016.7842,88.0
3017.991,102.0
3019.1982,99.0
3020.406,156.0
3021.6143,157.0
3022.823,124.0
3024.0322,117.0
3025.242,115.0
3026.4521,116.0
3027.6628,130.0
3028.874,104.0
3030.0857,105.0
3031.2976,121.0
3032.51,104.0
3033.723,106.0
3034.9363,93.0
3036.1501,106.0
3037.3645,102.0
3038.5793,102.0
3039.7947,99.0
3041.0105,111.0
3042.2268,106.0
3043.4436,100.0
3044.661,110.0
3045.8787,122.0
3047.097,90.0
3048.3157,120.0
3049.535,104.0
3050.7546,113.0
3051.9749,120.0
3053.1956,116.0
3054.4167,117.0
3055.6384,112.0
3056.8606,106.0
3058.0833,102.0
3059.3064,120.0
3060.53,114.0
3061.7542,103.0
3062.9788,113.0
3064.2039,89.0
3065.4294,129.0
3066.6555,146.0
3067.882,128.0
3069.1091,127.0
3070.3367,110.0
3071.5647,127.0
3072.7932,109.0
3074.0222,101.0
3075.2517,107.0
3076.4817,106.0
3077.7124,109.0
3078.9436,124.0
3080.1753,127.0
3081.4075,131.0
3082.6401,118.0
3083.8733,113.0
3085.107,124.0
3086.341,112.0
3087.5757,92.0
3088.8108,100.0
3090.0464,104.0
3091.2825,91.0
3092.519,128.0
3093.756,128.0
3094.9937,126.0
3096.2317,145.0
3097.4702,141.0
3098.7092,126.0
3099.9487,105.0
3101.1887,116.0
3102.4292,99.0
3103.6702,114.0
3104.9116,70.0
3106.1536,89.0
3107.396,97.0
3108.639,124.0
3109.8823,157.0
3111.1262,225.0
3112.3706,211.0
3113.6155,155.0
3114.8608,122.0
3116.1067,113.0
3117.353,135.0
3118.5999,122.0
3119.8474,114.0
3121.0955,126.0
3122.344,108.0
3123.593,105.0
3124.8425,87.0
3126.0925,124.0
3127.343,112.0
3128.594,122.0
3129.8455,117.0
3131.0974,113.0
3132.3499,106.0
3133.6028,108.0
3134.8562,103.0
3136.11,109.0
3137.3645,125.0
3138.6194,125.0
3139.8748,94.0
3141.1306,103.0
3142.387,107.0
3143.6438,91.0
3144.9014,106.0
3146.1594,93.0
3147.418,104.0
3148.677,117.0
3149.9365,103.0
3151.1965,120.0
3152.457,119.0
3153.718,115.0
3154.9795,111.0
3156.2415,89.0
3157.504,114.0
3158.7668,94.0
3160.0303,101.0
3161.2942,102.0
3162.5586,101.0
3163.8237,87.0
3165.0894,104.0
3166.3555,117.0
3167.622,107.0
3168.8892,117.0
3170.1567,90.0
3171.4248,106.0
3172.6934,101.0
3173.9624,102.0
3175.232,119.0
3176.502,85.0
3177.7725,102.0
3179.0435,99.0
3180.3152,95.0
3181.5874,119.0
3182.86,101.0
3184.1333,109.0
3185.407,124.0
3186.6812,94.0
3187.9558,99.0
3189.231,128.0
3190.5066,137.0
3191.7827,94.0
3193.0593,100.0
3194.3367,102.0
3195.6145,98.0
3196.8928,117.0
3198.1716,110.0
3199.451,100.0
3200.7307,110.0
3202.011,106.0
3203.2917,121.0
3204.573,100.0
3205.8547,92.0
3207.137,108.0
3208.42,100.0
3209.7034,94.0
3210.9873,82.0
3212.2717,101.0
3213.5566,115.0
3214.842,132.0
3216.128,122.0
3217.4143,124.0
3218.7012,125.0
3219.9888,109.0
3221.2769,113.0
3222.5654,124.0
3223.8545,117.0
3225.144,98.0
3226.434,126.0
3227.7246,119.0
3229.0156,110.0
3230.3071,93.0
3231.5994,116.0
3232.892,86.0
3234.1853,94.0
3235.479,125.0
3236.7732,125.0
3238.0679,131.0
3239.363,134.0
3240.6587,108.0
3241.9548,96.0
3243.2517,130.0
3244.549,116.0
3245.847,107.0
3247.1453,94.0
3248.444,99.0
3249.7434,110.0
3251.0432,78.0
3252.3438,106.0
3253.6448,117.0
3254.9463,91.0
3256.2483,118.0
3257.5508,109.0
3258.8538,113.0
3260.1572,82.0
3261.4612,97.0
3262.7659,94.0
3264.071,95.0
3265.3767,99.0
3266.6829,89.0
3267.9895,104.0
3269.2966,126.0
3270.6042,140.0
3271.9126,117.0
3273.2214,97.0
3274.5308,104.0
3275.8406,90.0
3277.151,89.0
3278.4617,113.0
3279.773,97.0
3281.085,87.0
3282.3975,99.0
3283.7104,88.0
3285.024,100.0
3286.338,116.0
3287.6523,101.0
3288.9673,95.0
3290.283,98.0
3291.599,99.0
3292.9158,92.0
3294.233,135.0
3295.5505,117.0
3296.8687,106.0
3298.1875,99.0
3299.5068,105.0
3300.8267,113.0
3302.147,108.0
3303.4678,103.0
3304.789,100.0
3306.111,104.0
3307.4336,113.0
3308.7566,102.0
3310.08,105.0
3311.404,96.0
3312.7285,92.0
3314.0537,95.0
3315.3794,110.0
3316.7056,113.0
3318.0322,115.0
3319.3594,107.0
3320.687,106.0
3322.0154,100.0
3323.3442,106.0
3324.6736,114.0
3326.0034,104.0
3327.3337,109.0
3328.6648,125.0
3329.9963,98.0
3331.3284,94.0
3332.661,97.0
3333.994,100.0
3335.3274,109.0
3336.6616,108.0
3337.9963,89.0
3339.3315,98.0
3340.6672,111.0
3342.0034,93.0
3343.3403,120.0
3344.6777,94.0
3346.0156,87.0
3347.354,118.0
3348.6929,99.0
3350.0322,94.0
3351.3723,124.0
3352.713,102.0
3354.054,85.0
3355.3955,134.0
3356.7375,88.0
3358.0803,107.0
3359.4236,130.0
3360.7673,111.0
3362.1116,103.0
3363.4563,101.0
3364.8018,112.0
3366.1477,102.0
3367.4941,132.0
3368.841,106.0
3370.1887,126.0
3371.5369,120.0
3372.8855,95.0
3374.2346,113.0
3375.5842,134.0
3376.9346,101.0
3378.2854,110.0
3379.6367,99.0
3380.9885,92.0
3382.3408,111.0
3383.6938,96.0
3385.0474,100.0
3386.4014,105.0
3387.7559,99.0
3389.1108,102.0
3390.4666,106.0
3391.8228,116.0
3393.1794,94.0
3394.5366,145.0
3395.8945,94.0
3397.253,96.0
3398.6118,115.0
3399.9712,98.0
3401.3313,115.0
3402.692,124.0
3404.053,111.0
3405.4146,114.0
3406.7766,124.0
3408.1394,111.0
3409.5027,108.0
3410.8665,133.0
3412.2307,213.0
3413.5957,179.0
3414.9612,140.0
3416.3271,122.0
3417.6936,105.0
3419.0608,106.0
3420.4285,113.0
3421.7966,108.0
3423.1653,107.0
3424.5347,119.0
3425.9045,103.0
3427.275,98.0
3428.6458,115.0
3430.017,109.0
3431.3892,105.0
3432.7617,100.0
3434.1348,97.0
3435.5083,123.0
3436.8826,101.0
3438.2573,111.0
3439.6326,109.0
3441.0083,112.0
3442.3848,124.0
3443.7617,99.0
3445.1392,114.0
3446.5173,128.0
3447.896,91.0
3449.2751,102.0
3450.6548,111.0
3452.0352,100.0
3453.416,103.0
3454.7974,101.0
3456.1792,100.0
3457.5618,116.0
3458.9448,106.0
3460.3284,125.0
3461.7124,97.0
3463.0972,106.0
3464.4824,111.0
3465.8682,128.0
3467.2544,112.0
3468.6414,113.0
3470.0288,89.0
3471.4167,114.0
3472.8054,103.0
3474.1946,87.0
3475.5842,111.0
3476.9744,91.0
3478.3652,94.0
3479.7566,107.0
3481.1484,96.0
3482.541,117.0
3483.934,126.0
3485.3276,119.0
3486.7217,118.0
3488.1165,98.0
3489.5117,138.0
3490.9075,120.0
3492.304,95.0
3493.701,105.0
3495.0984,105.0
3496.4963,124.0
3497.895,127.0
3499.2942,112.0
3500.6938,120.0
3502.0942,114.0
3503.495,117.0
3504.8965,132.0
3506.2983,113.0
3507.701,122.0
3509.104,95.0
3510.5076,102.0
3511.9119,108.0
3513.3167,106.0
3514.722,104.0
3516.128,104.0
3517.5344,112.0
3518.9414,114.0
3520.3489,129.0
3521.757,115.0
3523.1658,103.0
3524.575,124.0
3525.9849,104.0
3527.3953,115.0
3528.8062,112.0
3530.2178,118.0
3531.63,116.0
3533.0425,107.0
3534.4558,122.0
3535.8696,90.0
3537.284,113.0
3538.6987,116.0
3540.1143,96.0
3541.5303,126.0
3542.9468,124.0
3544.364,102.0
3545.7817,106.0
3547.2,102.0
3548.619,127.0
3550.0383,96.0
3551.4583,113.0
3552.879,126.0
3554.3,128.0
3555.7217,112.0
3557.144,116.0
3558.567,147.0
3559.9902,109.0
3561.4143,116.0
3562.8389,121.0
3564.264,126.0
3565.6897,121.0
3567.116,123.0
3568.5427,119.0
3569.9702,124.0
3571.3982,131.0
3572.8267,112.0
3574.2559,120.0
3575.6855,136.0
3577.1157,122.0
3578.5466,147.0
3579.978,140.0
3581.41,99.0
3582.8425,120.0
3584.2756,97.0
3585.7092,128.0
3587.1436,116.0
3588.5784,122.0
3590.014,106.0
3591.45,118.0
3592.8865,99.0
3594.3237,134.0
3595.7615,151.0
3597.1997,146.0
3598.6387,176.0
3600.0781,126.0
3601.518,113.0
3602.9587,129.0
3604.4,123.0
3605.8416,114.0
3607.284,118.0
3608.7268,136.0
3610.1704,128.0
3611.6145,119.0
3613.059,120.0
3614.5044,119.0
3615.9502,151.0
3617.3965,164.0
3618.8435,131.0
3620.291,106.0
3621.739,135.0
3623.1877,120.0
3624.637,130.0
3626.087,126.0
3627.5374,138.0
3628.9883,128.0
3630.44,120.0
3631.892,133.0
3633.3447,127.0
3634.798,125.0
3636.252,132.0
3637.7065,140.0
3639.1616,105.0
3640.6172,127.0
3642.0735,112.0
3643.5303,141.0
3644.9878,134.0
3646.4458,135.0
3647.9043,110.0
3649.3635,121.0
3650.8232,153.0
3652.2837,115.0
3653.7446,114.0
3655.206,113.0
3656.6682,129.0
3658.1309,117.0
3659.594,128.0
3661.0579,123.0
3662.5222,133.0
3663.9873,142.0
3665.453,140.0
3666.919,121.0
3668.3857,125.0
3669.853,118.0
3671.321,113.0
3672.7896,134.0
3674.2585,117.0
3675.7283,135.0
3677.1985,121.0
3678.6694,132.0
3680.1409,139.0
3681.613,134.0
3683.0857,137.0
3684.5588,129.0
3686.0327,113.0
3687.507,130.0
3688.9822,118.0
3690.4578,131.0
3691.9338,147.0
3693.4106,127.0
3694.888,129.0
3696.366,148.0
3697.8445,141.0
3699.3237,151.0
3700.8035,146.0
3702.2837,135.0
3703.7646,141.0
3705.246,120.0
3706.7283,127.0
3708.211,144.0
3709.6943,164.0
3711.1782,169.0
3712.6626,140.0
3714.1477,158.0
3715.6333,129.0
3717.1196,143.0
3718.6064,151.0
3720.094,142.0
3721.582,179.0
3723.0706,133.0
3724.5598,164.0
3726.0496,139.0
3727.54,146.0
3729.031,152.0
3730.5227,166.0
3732.015,136.0
3733.5078,203.0
3735.0012,223.0
3736.495,193.0
3737.9897,165.0
3739.4849,143.0
3740.9807,140.0
3742.477,191.0
3743.974,205.0
3745.4717,168.0
3746.97,142.0
3748.4688,193.0
3749.968,294.0
3751.468,529.0
3752.9685,586.0
3754.4697,376.0
3755.9714,222.0
3757.4739,199.0
3758.9768,157.0
3760.4805,174.0
3761.9846,123.0
3763.4895,126.0
3764.9949,143.0
3766.501,148.0
3768.0076,175.0
3769.515,148.0
3771.0227,143.0
3772.531,140.0
3774.04,171.0
3775.5496,186.0
3777.0598,172.0
3778.5706,161.0
3780.082,131.0
3781.594,162.0
3783.1067,149.0
3784.6199,194.0
3786.1338,143.0
3787.6482,146.0
3789.1633,137.0
3790.679,163.0
3792.1953,163.0
3793.7122,148.0
3795.2297,168.0
3796.7478,154.0
3798.2666,138.0
3799.786,166.0
3801.306,162.0
3802.8264,132.0
3804.3477,151.0
3805.8694,153.0
3807.3918,174.0
3808.9148,175.0
3810.4385,176.0
3811.9626,147.0
3813.4875,163.0
3815.013,167.0
3816.539,169.0
3818.0657,160.0
3819.593,165.0
3821.1208,135.0
3822.6494,161.0
3824.1785,152.0
3825.7083,142.0
3827.2385,132.0
3828.7695,169.0
3830.301,154.0
3831.8333,134.0
3833.366,153.0
3834.8994,169.0
3836.4333,153.0
3837.968,160.0
3839.5032,158.0
3841.039,172.0
3842.5754,173.0
3844.1125,155.0
3845.6501,159.0
3847.1885,186.0
3848.7273,199.0
3850.2668,176.0
3851.807,166.0
3853.3477,174.0
3854.889,169.0
3856.431,156.0
3857.9734,165.0
3859.5166,131.0
3861.0603,164.0
3862.6047,166.0
3864.1497,175.0
3865.6953,184.0
3867.2417,162.0
3868.7886,175.0
3870.3362,160.0
3871.8843,175.0
3873.433,171.0
3874.9824,183.0
3876.5325,144.0
3878.083,175.0
3879.6343,196.0
3881.186,173.0
3882.7385,159.0
3884.2915,183.0
3885.8452,179.0
3887.3997,186.0
3888.9546,163.0
3890.5103,205.0
3892.0664,154.0
3893.6233,223.0
3895.1807,200.0
3896.7388,188.0
3898.2974,175.0
3899.8567,168.0
3901.4167,179.0
3902.9773,160.0
3904.5386,191.0
3906.1003,188.0
3907.6628,164.0
3909.2258,173.0
3910.7896,214.0
3912.3538,150.0
3913.9187,162.0
3915.4844,184.0
3917.0505,174.0
3918.6174,151.0
3920.1848,202.0
3921.753,179.0
3923.3215,176.0
3924.8909,158.0
3926.461,184.0
3928.0315,174.0
3929.6028,177.0
3931.1746,177.0
3932.747,170.0
3934.32,149.0
3935.8938,167.0
3937.4683,156.0
3939.0432,192.0
3940.619,191.0
3942.195,184.0
3943.772,167.0
3945.3494,147.0
3946.9275,145.0
3948.5063,166.0
3950.0857,146.0
3951.6658,161.0
3953.2463,159.0
3954.8276,166.0
3956.4097,162.0
3957.9922,172.0
3959.5754,171.0
3961.1592,160.0
3962.7437,176.0
3964.3289,174.0
3965.9146,167.0
3967.501,176.0
3969.088,139.0
3970.6755,188.0
3972.264,147.0
3973.8528,147.0
3975.4424,139.0
3977.0325,164.0
3978.6233,171.0
3980.2148,147.0
3981.807,154.0
3983.3997,180.0
3984.993,175.0
3986.587,157.0
3988.1816,151.0
3989.7769,186.0
3991.3728,218.0
3992.9692,231.0
3994.5664,171.0
3996.1643,165.0
3997.7627,190.0
3999.3618,159.0
4000.9617,151.0
4002.562,144.0
4004.163,171.0
4005.7646,189.0
4007.367,167.0
4008.97,175.0
4010.5735,202.0
4012.1777,186.0
4013.7827,210.0
4015.3882,192.0
4016.9944,202.0
4018.601,222.0
4020.2085,208.0
4021.8167,239.0
4023.4253,202.0
4025.0347,215.0
4026.6448,225.0
4028.2554,243.0
4029.8667,280.0
4031.4788,224.0
4033.0913,195.0
4034.7046,233.0
4036.3184,242.0
4037.9329,314.0
4039.548,332.0
4041.1638,285.0
4042.7803,325.0
4044.3975,326.0
4046.0151,244.0
4047.6335,207.0
4049.2527,259.0
4050.8723,517.0
4052.4927,461.0
4054.1138,287.0
4055.7354,219.0
4057.3577,276.0
4058.9807,846.0
4060.6042,1161.0
4062.2285,612.0
4063.8535,346.0
4065.479,235.0
4067.1052,263.0
4068.7322,318.0
4070.3596,302.0
4071.9878,320.0
4073.6167,287.0
4075.246,225.0
4076.8762,242.0
4078.507,219.0
4080.1384,224.0
4081.7705,267.0
4083.4033,255.0
4085.0366,273.0
4086.6707,277.0
4088.3054,271.0
4089.9407,214.0
4091.5767,219.0
4093.2134,373.0
4094.8506,510.0
4096.489,324.0
4098.1274,241.0
4099.7666,213.0
4101.4067,419.0
4103.0474,933.0
4104.6885,692.0
4106.3306,344.0
4107.973,234.0
4109.616,213.0
4111.2603,182.0
4112.905,234.0
4114.55,238.0
4116.196,209.0
4117.8423,176.0
4119.4893,182.0
4121.137,188.0
4122.7856,204.0
4124.4346,204.0
4126.0845,162.0
4127.735,184.0
4129.3857,186.0
4131.0376,249.0
4132.69,224.0
4134.343,219.0
4135.9966,175.0
4137.651,155.0
4139.306,189.0
4140.962,172.0
4142.618,177.0
4144.2754,217.0
4145.933,228.0
4147.5913,199.0
4149.2505,144.0
4150.91,194.0
4152.5703,210.0
4154.2314,210.0
4155.893,189.0
4157.5557,199.0
4159.2188,160.0
4160.8823,182.0
4162.547,188.0
4164.212,150.0
4165.8774,176.0
4167.544,195.0
4169.211,145.0
4170.8784,178.0
4172.547,198.0
4174.216,216.0
4175.8857,265.0
4177.556,249.0
4179.227,202.0
4180.899,173.0
4182.5713,168.0
4184.244,143.0
4185.918,159.0
4187.5923,174.0
4189.267,214.0
4190.943,332.0
4192.619,453.0
4194.2964,326.0
4195.974,263.0
4197.6523,238.0
4199.3315,216.0
4201.011,179.0
4202.6914,164.0
4204.3726,183.0
4206.054,209.0
4207.737,221.0
4209.42,187.0
4211.1035,172.0
4212.788,160.0
4214.473,171.0
4216.1587,200.0
4217.845,188.0
4219.532,173.0
4221.22,153.0
4222.9087,173.0
4224.5977,178.0
4226.2876,165.0
4227.978,166.0
4229.6694,162.0
4231.3613,186.0
4233.0537,175.0
4234.747,174.0
4236.441,194.0
4238.1353,178.0
4239.8306,184.0
4241.5264,154.0
4243.223,148.0
4244.9204,174.0
4246.618,164.0
4248.317,161.0
4250.016,179.0
4251.7163,167.0
4253.417,143.0
4255.118,162.0
4256.8203,160.0
4258.523,213.0
4260.2266,179.0
4261.9307,175.0
4263.6353,172.0
4265.341,181.0
4267.047,189.0
4268.754,210.0
4270.4614,153.0
4272.1694,147.0
4273.8784,211.0
4275.588,184.0
4277.2983,245.0
4279.0093,225.0
4280.7207,203.0
4282.433,211.0
4284.146,214.0
4285.86,321.0
4287.574,245.0
4289.289,192.0
4291.005,142.0
4292.721,159.0
4294.4385,159.0
4296.1562,127.0
4297.8745,163.0
4299.5938,172.0
4301.3135,169.0
4303.034,162.0
4304.7554,154.0
4306.477,148.0
4308.1997,136.0
4309.923,143.0
4311.647,144.0
4313.3716,140.0
4315.097,111.0
4316.823,148.0
4318.55,144.0
4320.2773,156.0
4322.0054,131.0
4323.7344,133.0
4325.464,136.0
4327.194,164.0
4328.925,197.0
4330.6562,158.0
4332.3887,160.0
4334.1216,149.0
4335.8555,148.0
4337.59,169.0
4339.3247,144.0
4341.0605,168.0
4342.797,150.0
4344.534,163.0
4346.272,132.0
4348.0103,161.0
4349.7495,134.0
4351.4893,159.0
4353.23,150.0
4354.971,149.0
4356.7134,162.0
4358.456,166.0
4360.199,164.0
4361.9434,181.0
4363.688,181.0
4365.4336,165.0
4367.1797,163.0
4368.927,145.0
4370.6743,155.0
4372.4224,170.0
4374.1714,168.0
4375.921,180.0
4377.6714,178.0
4379.4224,178.0
4381.1743,172.0
4382.927,157.0
4384.6797,164.0
4386.4336,168.0
4388.188,193.0
4389.9434,223.0
4391.699,200.0
4393.456,175.0
4395.2134,187.0
4396.9717,169.0
4398.7305,177.0
4400.4897,177.0
4402.25,178.0
4404.0107,198.0
4405.7725,177.0
4407.5347,222.0
4409.298,173.0
4411.0615,198.0
4412.826,207.0
4414.5913,202.0
4416.357,244.0
4418.1235,290.0
4419.8906,247.0
4421.6587,268.0
4423.4272,224.0
4425.197,223.0
4426.967,245.0
4428.738,231.0
4430.5093,240.0
4432.2812,196.0
4434.054,241.0
4435.8276,213.0
4437.602,247.0
4439.377,283.0
4441.153,239.0
4442.929,212.0
4444.7065,250.0
4446.4844,236.0
4448.263,263.0
4450.0425,227.0
4451.8223,249.0
4453.603,242.0
4455.3843,259.0
4457.1665,247.0
4458.949,274.0
4460.733,284.0
4462.517,272.0
4464.3022,238.0
4466.088,283.0
4467.8745,286.0
4469.6616,284.0
4471.4497,302.0
4473.2383,279.0
4475.0273,308.0
4476.8174,262.0
4478.608,290.0
4480.3994,304.0
4482.1914,334.0
4483.9844,261.0
4485.778,266.0
4487.5723,306.0
4489.367,349.0
4491.163,362.0
4492.9595,325.0
4494.757,266.0
4496.5547,340.0
4498.3535,352.0
4500.153,377.0
4501.953,318.0
4503.754,348.0
4505.555,374.0
4507.3574,319.0
4509.16,333.0
4510.964,301.0
4512.768,418.0
4514.573,449.0
4516.379,300.0
4518.1855,270.0
4519.9927,329.0
4521.801,499.0
4523.6094,472.0
4525.419,319.0
4527.229,230.0
4529.04,367.0
4530.8516,704.0
4532.664,560.0
4534.477,309.0
4536.291,262.0
4538.1055,261.0
4539.921,303.0
4541.737,246.0
4543.5537,221.0
4545.371,236.0
4547.1895,202.0
4549.0083,215.0
4550.828,229.0
4552.6484,233.0
4554.4697,205.0
4556.2915,215.0
4558.1143,210.0
4559.9375,204.0
4561.7617,214.0
4563.5864,201.0
4565.4116,181.0
4567.238,184.0
4569.0645,207.0
4570.892,225.0
4572.72,223.0
4574.5493,220.0
4576.379,185.0
4578.2095,197.0
4580.0405,197.0
4581.8726,222.0
4583.705,213.0
4585.5386,237.0
4587.3726,200.0
4589.2075,216.0
4591.043,186.0
4592.8794,235.0
4594.7163,264.0
4596.554,218.0
4598.3926,215.0
4600.232,195.0
4602.0723,221.0
4603.913,257.0
4605.755,247.0
4607.597,235.0
4609.4404,223.0
4611.284,231.0
4613.129,212.0
4614.974,205.0
4616.8203,217.0
4618.667,196.0
4620.5146,202.0
4622.363,205.0
4624.212,235.0
4626.0615,236.0
4627.912,230.0
4629.763,221.0
4631.615,216.0
4633.468,201.0
4635.3213,186.0
4637.1753,211.0
4639.0303,201.0
4640.8857,169.0
4642.742,193.0
4644.599,207.0
4646.457,185.0
4648.3154,216.0
4650.175,192.0
4652.0347,191.0
4653.8955,230.0
4655.757,174.0
4657.619,198.0
4659.4824,188.0
4661.346,206.0
4663.211,214.0
4665.076,228.0
4666.9424,221.0
4668.809,236.0
4670.677,200.0
4672.545,210.0
4674.414,200.0
4676.2837,197.0
4678.1543,234.0
4680.0254,222.0
4681.8975,221.0
4683.77,190.0
4685.6436,193.0
4687.5176,222.0
4689.3926,183.0
4691.2686,209.0
4693.145,203.0
4695.0225,230.0
4696.9004,221.0
4698.7793,215.0
4700.6587,199.0
4702.539,182.0
4704.42,201.0
4706.302,189.0
4708.184,253.0
4710.0674,235.0
4711.951,243.0
4713.836,200.0
4715.7217,212.0
4717.608,172.0
4719.495,180.0
4721.383,196.0
4723.2715,166.0
4725.1606,180.0
4727.051,208.0
4728.9414,241.0
4730.833,232.0
4732.725,166.0
4734.618,219.0
4736.512,186.0
4738.4067,189.0
4740.3022,170.0
4742.198,190.0
4744.095,181.0
4745.9927,197.0
4747.891,193.0
4749.79,190.0
4751.69,203.0
4753.591,199.0
4755.492,189.0
4757.3945,161.0
4759.2974,189.0
4761.201,205.0
4763.1055,195.0
4765.0107,208.0
4766.9165,162.0
4768.823,177.0
4770.731,138.0
4772.639,159.0
4774.5483,140.0
4776.458,158.0
4778.3687,155.0
4780.28,173.0
4782.192,163.0
4784.105,141.0
4786.0186,167.0
4787.933,144.0
4789.848,135.0
4791.764,152.0
4793.6807,143.0
4795.598,203.0
4797.5166,161.0
4799.4355,154.0
4801.3555,144.0
4803.276,157.0
4805.1973,135.0
4807.119,141.0
4809.042,141.0
4810.966,162.0
4812.89,147.0
4814.8154,163.0
4816.741,139.0
4818.668,132.0
4820.595,131.0
4822.5234,131.0
4824.4526,118.0
4826.3823,141.0
4828.313,138.0
4830.244,150.0
4832.1763,127.0
4834.1094,152.0
4836.043,145.0
4837.9775,132.0
4839.9126,135.0
4841.8486,126.0
4843.785,134.0
4845.7227,111.0
4847.661,131.0
4849.6,139.0
4851.54,123.0
4853.4805,125.0
4855.422,119.0
4857.3643,135.0
4859.307,133.0
4861.251,130.0
4863.1953,148.0
4865.1406,128.0
4867.087,149.0
4869.0337,135.0
4870.9814,145.0
4872.9297,135.0
4874.879,143.0
4876.829,132.0
4878.78,129.0
4880.7314,125.0
4882.6836,128.0
4884.6367,159.0
4886.5903,116.0
4888.545,117.0
4890.5005,128.0
4892.4565,137.0
4894.4136,114.0
4896.3716,125.0
4898.33,121.0
4900.2896,131.0
4902.2495,141.0
4904.2104,137.0
4906.1724,119.0
4908.135,132.0
4910.098,121.0
4912.062,126.0
4914.027,123.0
4915.9927,131.0
4917.959,118.0
4919.9263,118.0
4921.894,120.0
4923.863,175.0
4925.8325,142.0
4927.8027,108.0
4929.774,151.0
4931.7456,142.0
4933.7183,130.0
4935.692,146.0
4937.666,122.0
4939.641,141.0
4941.617,160.0
4943.5938,137.0
4945.5713,136.0
4947.5493,128.0
4949.5283,111.0
4951.5083,117.0
4953.489,127.0
4955.47,115.0
4957.4526,114.0
4959.4355,128.0
4961.4194,135.0
4963.404,133.0
4965.389,134.0
4967.3755,126.0
4969.3623,135.0
4971.35,125.0
4973.339,139.0
4975.328,132.0
4977.3184,151.0
4979.309,153.0
4981.301,138.0
4983.2935,152.0
4985.2866,139.0
4987.281,144.0
4989.276,111.0
4991.2715,151.0
4993.268,146.0
4995.265,141.0
4997.263,120.0
4999.262,151.0
5001.2617,125.0
5003.262,131.0
5005.2637,119.0
5007.2656,144.0
5009.2686,145.0
5011.2725,136.0
5013.277,139.0
5015.282,117.0
5017.2886,147.0
5019.2954,123.0
5021.303,151.0
5023.3115,168.0
5025.321,201.0
5027.331,163.0
5029.342,135.0
5031.3535,141.0
5033.366,131.0
5035.3794,139.0
5037.3936,160.0
5039.4087,124.0
5041.4243,120.0
5043.441,132.0
5045.4585,134.0
5047.4766,138.0
5049.4956,136.0
5051.5156,149.0
5053.536,125.0
5055.5576,143.0
5057.58,155.0
5059.603,136.0
5061.627,127.0
5063.6514,141.0
5065.677,131.0
5067.703,143.0
5069.73,125.0
5071.758,158.0
5073.7866,133.0
5075.816,126.0
5077.846,133.0
5079.8774,135.0
5081.909,141.0
5083.942,142.0
5085.9756,125.0
5088.01,111.0
5090.045,145.0
5092.081,122.0
5094.1177,155.0
5096.1553,123.0
5098.194,140.0
5100.233,139.0
5102.273,162.0
5104.314,133.0
5106.3555,141.0
5108.398,129.0
5110.4414,146.0
5112.4854,138.0
5114.5303,145.0
5116.576,129.0
5118.6226,137.0
5120.67,137.0
5122.7183,139.0
5124.7676,130.0
5126.8174,127.0
5128.868,138.0
5130.92,131.0
5132.972,158.0
5135.0254,132.0
5137.0796,143.0
5139.1343,154.0
5141.19,152.0
5143.2466,156.0
5145.3037,124.0
5147.362,151.0
5149.421,156.0
5151.4805,143.0
5153.541,130.0
5155.6025,163.0
5157.6646,151.0
5159.7275,159.0
5161.7915,120.0
5163.8564,134.0
5165.922,138.0
5167.9883,154.0
5170.0557,148.0
5172.1235,132.0
5174.1924,139.0
5176.262,129.0
5178.3325,143.0
5180.404,136.0
5182.476,140.0
5184.549,144.0
5186.6226,154.0
5188.6973,149.0
5190.773,145.0
5192.849,155.0
5194.9263,160.0
5197.0044,155.0
5199.083,133.0
5201.1626,147.0
5203.243,138.0
5205.324,174.0
5207.4062,145.0
5209.4893,161.0
5211.573,141.0
5213.6577,135.0
5215.743,164.0
5217.8296,156.0
5219.9165,163.0
5222.0044,164.0
5224.0933,170.0
5226.183,166.0
5228.2734,142.0
5230.3647,180.0
5232.457,135.0
5234.55,159.0
5236.6436,159.0
5238.7383,143.0
5240.834,140.0
5242.93,131.0
5245.0273,151.0
5247.1255,159.0
5249.224,176.0
5251.3237,152.0
5253.4243,164.0
5255.526,164.0
5257.628,166.0
5259.731,154.0
5261.835,132.0
5263.9395,163.0
5266.045,162.0
5268.1514,148.0
5270.259,197.0
5272.3667,145.0
5274.4756,144.0
5276.5854,149.0
5278.6963,163.0
5280.8076,156.0
5282.92,182.0
5285.033,176.0
5287.147,155.0
5289.2617,164.0
5291.3774,158.0
5293.494,137.0
5295.6113,158.0
5297.7295,178.0
5299.8486,160.0
5301.9688,153.0
5304.0894,176.0
5306.211,158.0
5308.3335,191.0
5310.457,158.0
5312.581,189.0
5314.706,155.0
5316.832,172.0
5318.959,179.0
5321.0864,153.0
5323.215,184.0
5325.344,172.0
5327.4746,180.0
5329.6055,174.0
5331.7373,167.0
5333.87,185.0
5336.004,169.0
5338.138,181.0
5340.2734,186.0
5342.4097,179.0
5344.547,175.0
5346.6846,188.0
5348.823,177.0
5350.963,164.0
5353.1035,163.0
5355.2446,183.0
5357.3867,172.0
5359.53,210.0
5361.674,206.0
5363.8184,192.0
5365.964,183.0
5368.1104,188.0
5370.258,213.0
5372.406,212.0
5374.5547,197.0
5376.7046,178.0
5378.8555,223.0
5381.007,199.0
5383.159,162.0
5385.3125,163.0
5387.467,186.0
5389.6216,192.0
5391.7773,210.0
5393.934,192.0
5396.092,214.0
5398.25,230.0
5400.409,173.0
5402.5693,185.0
5404.7305,191.0
5406.8926,221.0
5409.055,185.0
5411.2188,230.0
5413.3833,192.0
5415.549,208.0
5417.715,221.0
5419.882,205.0
5422.05,176.0
5424.2188,206.0
5426.3887,196.0
5428.559,217.0
5430.7305,186.0
5432.903,192.0
5435.076,189.0
5437.25,198.0
5439.425,205.0
5441.6006,211.0
5443.7773,234.0
5445.955,221.0
5448.1333,209.0
5450.3125,208.0
5452.4927,196.0
5454.674,224.0
5456.8555,195.0
5459.038,198.0
5461.2217,203.0
5463.4062,226.0
5465.592,195.0
5467.778,197.0
5469.965,206.0
5472.153,203.0
5474.342,196.0
5476.5317,180.0
5478.722,216.0
5480.9136,207.0
5483.106,211.0
5485.2993,224.0
5487.4937,225.0
5489.6885,220.0
5491.8843,203.0
5494.081,198.0
5496.279,223.0
5498.4775,204.0
5500.677,244.0
5502.877,235.0
5505.078,235.0
5507.2803,220.0
5509.4834,228.0
5511.687,261.0
5513.8916,218.0
5516.097,214.0
5518.3037,207.0
5520.511,227.0
5522.719,213.0
5524.928,227.0
5527.138,208.0
5529.349,208.0
5531.561,222.0
5533.7734,229.0
5535.987,196.0
5538.201,224.0
5540.4165,235.0
5542.633,232.0
5544.85,208.0
5547.068,207.0
5549.2866,229.0
5551.5063,189.0
5553.727,224.0
5555.9487,222.0
5558.171,253.0
5560.394,217.0
5562.618,238.0
5564.8433,221.0
5567.0693,250.0
5569.2964,214.0
5571.524,226.0
5573.7524,220.0
5575.982,221.0
5578.2124,190.0
5580.444,230.0
5582.676,234.0
5584.9087,242.0
5587.1426,210.0
5589.3774,237.0
5591.6133,209.0
5593.85,220.0
5596.0874,200.0
5598.3257,250.0
5600.565,260.0
5602.805,231.0
5605.0464,211.0
5607.2886,232.0
5609.5312,220.0
5611.775,210.0
5614.0195,227.0
5616.265,199.0
5618.5117,204.0
5620.7593,178.0
5623.008,199.0
5625.257,235.0
5627.507,213.0
5629.758,211.0
5632.01,197.0
5634.2627,188.0
5636.5166,172.0
5638.771,192.0
5641.0264,212.0
5643.2827,183.0
5645.54,204.0
5647.7983,208.0
5650.0576,234.0
5652.318,177.0
5654.5786,194.0
5656.8403,173.0
5659.103,184.0
5661.3667,196.0
5663.6313,175.0
5665.897,208.0
5668.1636,184.0
5670.4307,214.0
5672.6987,203.0
5674.968,201.0
5677.238,222.0
5679.509,221.0
5681.781,197.0
5684.0537,179.0
5686.327,182.0
5688.6016,199.0
5690.877,213.0
5693.1533,215.0
5695.4307,228.0
5697.709,244.0
5699.9883,216.0
5702.268,182.0
5704.549,210.0
5706.8306,200.0
5709.1133,210.0
5711.397,206.0
5713.6816,200.0
5715.9673,208.0
5718.254,198.0
5720.541,192.0
5722.829,197.0
5725.118,197.0
5727.408,205.0
5729.699,217.0
5731.991,222.0
5734.284,211.0
5736.578,230.0
5738.8726,201.0
5741.168,207.0
5743.4644,237.0
5745.7617,200.0
5748.06,221.0
5750.3594,217.0
5752.6597,205.0
5754.961,224.0
5757.2627,214.0
5759.5654,219.0
5761.869,241.0
5764.174,221.0
5766.4795,214.0
5768.786,230.0
5771.0938,216.0
5773.4023,249.0
5775.712,275.0
5778.022,238.0
5780.333,225.0
5782.645,265.0
5784.958,241.0
5787.272,238.0
5789.587,248.0
5791.903,203.0
5794.2197,202.0
5796.5376,252.0
5798.8564,258.0
5801.176,243.0
5803.496,227.0
5805.8174,234.0
5808.1396,237.0
5810.463,230.0
5812.787,258.0
5815.1123,272.0
5817.4385,268.0
5819.7656,245.0
5822.0938,294.0
5824.4224,264.0
5826.752,254.0
5829.0825,289.0
5831.414,285.0
5833.7466,245.0
5836.08,238.0
5838.4146,344.0
5840.75,360.0
5843.0864,304.0
5845.424,280.0
5847.762,291.0
5850.101,261.0
5852.441,236.0
5854.7817,246.0
5857.1235,265.0
5859.4663,244.0
5861.81,246.0
5864.155,229.0
5866.5005,247.0
5868.847,253.0
5871.195,247.0
5873.5435,238.0
5875.893,232.0
5878.2437,244.0
5880.5947,241.0
5882.947,253.0
5885.3,261.0
5887.654,282.0
5890.009,264.0
5892.3647,231.0
5894.7217,257.0
5897.0796,230.0
5899.4385,226.0
5901.7983,259.0
5904.159,306.0
5906.521,280.0
5908.884,305.0
5911.2476,315.0
5913.612,287.0
5915.977,283.0
5918.3433,289.0
5920.7104,277.0
5923.0786,307.0
5925.4478,264.0
5927.818,266.0
5930.189,297.0
5932.561,254.0
5934.934,295.0
5937.308,276.0
5939.683,291.0
5942.059,282.0
5944.436,301.0
5946.814,276.0
5949.193,271.0
5951.5728,290.0
5953.9536,303.0
5956.335,276.0
5958.7173,268.0
5961.1006,279.0
5963.485,267.0
5965.87,276.0
5968.2563,275.0
5970.6436,299.0
5973.0317,286.0
5975.421,312.0
5977.811,301.0
5980.202,303.0
5982.594,289.0
5984.9873,294.0
5987.3813,300.0
5989.7764,344.0
5992.1724,271.0
5994.5693,286.0
5996.9673,264.0
5999.366,309.0
6001.766,311.0
6004.167,322.0
6006.569,305.0
6008.9717,328.0
6011.3755,316.0
6013.7803,262.0
6016.1855,279.0
6018.592,320.0
6020.999,337.0
6023.407,274.0
6025.8164,321.0
6028.2266,293.0
6030.6377,290.0
6033.05,296.0
6035.463,325.0
6037.877,336.0
6040.292,289.0
6042.708,321.0
6045.125,299.0
6047.543,316.0
6049.962,293.0
6052.382,338.0
6054.8027,361.0
6057.2246,320.0
6059.6475,360.0
6062.0713,273.0
6064.496,325.0
6066.922,325.0
6069.3486,336.0
6071.7764,317.0
6074.205,304.0
6076.635,335.0
6079.0654,295.0
6081.497,338.0
6083.9297,328.0
6086.3633,352.0
6088.798,372.0
6091.2334,345.0
6093.67,367.0
6096.1074,336.0
6098.546,340.0
6100.9854,393.0
6103.426,386.0
6105.867,377.0
6108.3096,335.0
6110.753,335.0
6113.1973,356.0
6115.6426,393.0
6118.089,441.0
6120.536,431.0
6122.9844,336.0
6125.4336,339.0
6127.884,389.0
6130.335,402.0
6132.787,416.0
6135.24,492.0
6137.6943,515.0
6140.1494,441.0
6142.6055,415.0
6145.0625,399.0
6147.5205,451.0
6149.9795,448.0
6152.4395,443.0
6154.9004,495.0
6157.3623,459.0
6159.825,451.0
6162.289,396.0
6164.754,403.0
6167.2197,414.0
6169.6865,481.0
6172.1543,530.0
6174.623,580.0
6177.093,502.0
6179.5635,457.0
6182.035,454.0
6184.508,435.0
6186.9814,475.0
6189.456,590.0
6191.9316,722.0
6194.408,596.0
6196.8857,555.0
6199.3643,650.0
6201.844,585.0
6204.325,518.0
6206.807,430.0
6209.29,373.0
6211.774,415.0
6214.259,579.0
6216.7446,822.0
6219.2314,726.0
6221.719,520.0
6224.208,403.0
6226.6978,412.0
6229.1885,382.0
6231.68,778.0
6234.173,1160.0
6236.6665,898.0
6239.161,591.0
6241.6567,442.0
6244.1533,403.0
6246.651,456.0
6249.1494,465.0
6251.649,441.0
6254.1494,443.0
6256.651,514.0
6259.1533,422.0
6261.6567,416.0
6264.1616,376.0
6266.6675,394.0
6269.1743,418.0
6271.682,450.0
6274.191,495.0
6276.7007,459.0
6279.2114,398.0
6281.723,423.0
6284.236,349.0
6286.7495,441.0
6289.264,509.0
6291.78,619.0
6294.2964,542.0
6296.814,442.0
6299.3325,379.0
6301.852,384.0
6304.3726,380.0
6306.8945,349.0
6309.4175,331.0
6311.9414,360.0
6314.4663,355.0
6316.992,396.0
6319.519,359.0
6322.047,372.0
6324.5757,368.0
6327.1055,316.0
6329.636,370.0
6332.168,373.0
6334.7007,367.0
6337.2344,398.0
6339.769,376.0
6342.305,405.0
6344.8423,416.0
6347.3804,423.0
6349.9194,413.0
6352.4595,368.0
6355.0005,421.0
6357.5425,393.0
6360.0854,381.0
6362.6294,418.0
6365.1743,409.0
6367.72,376.0
6370.267,380.0
6372.8154,387.0
6375.3647,400.0
6377.915,405.0
6380.4663,436.0
6383.0186,437.0
6385.572,400.0
6388.126,420.0
6390.681,425.0
6393.2373,407.0
6395.7944,359.0
6398.3525,382.0
6400.912,413.0
6403.4727,458.0
6406.034,407.0
6408.5967,451.0
6411.16,401.0
6413.7246,392.0
6416.29,385.0
6418.8564,405.0
6421.424,412.0
6423.992,391.0
6426.562,386.0
6429.133,396.0
6431.7046,383.0
6434.2773,383.0
6436.851,444.0
6439.426,390.0
6442.0015,406.0
6444.578,401.0
6447.156,411.0
6449.735,353.0
6452.315,371.0
6454.896,377.0
6457.478,357.0
6460.061,397.0
6462.645,370.0
6465.23,349.0
6467.816,374.0
6470.403,379.0
6472.991,343.0
6475.5806,318.0
6478.171,359.0
6480.762,403.0
6483.3545,357.0
6485.9478,395.0
6488.542,383.0
6491.137,364.0
6493.734,356.0
6496.3315,364.0
6498.93,380.0
6501.53,332.0
6504.1304,356.0
6506.732,349.0
6509.3345,352.0
6511.938,426.0
6514.543,426.0
6517.149,443.0
6519.756,407.0
6522.364,380.0
6524.9727,393.0
6527.5825,388.0
6530.1934,406.0
6532.8057,455.0
6535.419,429.0
6538.033,396.0
6540.6484,371.0
6543.2646,395.0
6545.882,419.0
6548.5,403.0
6551.1196,469.0
6553.74,454.0
6556.362,473.0
6558.9844,446.0
6561.608,449.0
6564.2324,397.0
6566.858,402.0
6569.485,430.0
6572.113,435.0
6574.7417,435.0
6577.3716,458.0
6580.0024,424.0
6582.6343,441.0
6585.267,422.0
6587.9014,446.0
6590.5366,459.0
6593.173,555.0
6595.81,542.0
6598.448,487.0
6601.0874,459.0
6603.728,426.0
6606.3696,401.0
6609.012,407.0
6611.656,472.0
6614.3003,481.0
6616.946,497.0
6619.593,409.0
6622.2407,455.0
6624.8896,388.0
6627.5396,401.0
6630.1904,456.0
6632.8423,441.0
6635.4956,511.0
6638.15,590.0
6640.805,516.0
6643.4614,479.0
6646.1187,494.0
6648.7773,448.0
6651.437,390.0
6654.0977,408.0
6656.7593,432.0
6659.422,418.0
6662.0854,434.0
6664.7505,454.0
6667.4165,389.0
6670.0835,377.0
6672.7515,350.0
6675.4204,375.0
6678.091,424.0
6680.762,493.0
6683.4346,391.0
6686.108,304.0
6688.782,316.0
6691.4575,303.0
6694.1343,413.0
6696.812,471.0
6699.4907,427.0
6702.1704,346.0
6704.851,365.0
6707.533,327.0
6710.2163,324.0
6712.9004,376.0
6715.5854,378.0
6718.2715,412.0
6720.959,343.0
6723.6475,306.0
6726.337,336.0
6729.0273,306.0
6731.7188,286.0
6734.4116,318.0
6737.1055,324.0
6739.8003,367.0
6742.496,409.0
6745.193,339.0
6747.891,310.0
6750.5903,340.0
6753.2905,305.0
6755.9917,348.0
6758.6943,335.0
6761.398,406.0
6764.1025,365.0
6766.808,340.0
6769.5146,332.0
6772.2227,297.0
6774.9316,300.0
6777.6416,423.0
6780.3525,490.0
6783.0645,413.0
6785.778,411.0
6788.492,403.0
6791.2075,367.0
6793.924,322.0
6796.6416,304.0
6799.3604,373.0
6802.08,375.0
6804.801,558.0
6807.5225,590.0
6810.2456,452.0
6812.9697,327.0
6815.695,306.0
6818.421,354.0
6821.1484,832.0
6823.877,1332.0
6826.6064,922.0
6829.337,540.0
6832.069,377.0
6834.802,309.0
6837.5356,344.0
6840.2705,434.0
6843.007,455.0
6845.744,419.0
6848.4824,370.0
6851.2217,315.0
6853.9624,358.0
6856.704,379.0
6859.447,376.0
6862.1904,343.0
6864.9355,327.0
6867.6816,327.0
6870.4287,292.0
6873.177,311.0
6875.9263,299.0
6878.677,288.0
6881.428,300.0
6884.1807,306.0
6886.9346,297.0
6889.6895,330.0
6892.4453,302.0
6895.202,282.0
6897.9604,287.0
6900.7197,288.0
6903.48,315.0
6906.241,254.0
6909.004,304.0
6911.7676,336.0
6914.532,286.0
6917.298,322.0
6920.065,312.0
6922.833,309.0
6925.602,303.0
6928.372,325.0
6931.1436,319.0
6933.916,302.0
6936.6895,312.0
6939.4644,288.0
6942.24,313.0
6945.017,317.0
6947.795,369.0
6950.574,354.0
6953.3545,347.0
6956.1357,315.0
6958.918,332.0
6961.7017,296.0
6964.4863,326.0
6967.272,342.0
6970.059,326.0
6972.847,384.0
6975.636,371.0
6978.4263,381.0
6981.218,361.0
6984.0103,348.0
6986.8037,336.0
6989.5986,469.0
6992.3945,630.0
6995.1914,422.0
6997.9893,360.0
7000.7886,363.0
7003.589,327.0
7006.39,338.0
7009.193,338.0
7011.9966,353.0
7014.8013,353.0
7017.6074,390.0
7020.4146,342.0
7023.2227,346.0
7026.0317,372.0
7028.8423,336.0
7031.654,324.0
7034.4663,323.0
7037.2803,318.0
7040.095,342.0
7042.911,378.0
7045.7285,343.0
7048.547,311.0
7051.366,281.0
7054.1865,276.0
7057.0083,337.0
7059.831,460.0
7062.655,440.0
7065.48,345.0
7068.306,306.0
7071.1333,314.0
7073.962,280.0
7076.7915,301.0
7079.622,278.0
7082.454,305.0
7085.287,302.0
7088.121,293.0
7090.9565,324.0
7093.793,306.0
7096.6304,292.0
7099.469,297.0
7102.309,263.0
7105.15,287.0
7107.992,284.0
7110.8354,335.0
7113.6797,337.0
7116.5254,348.0
7119.372,284.0
7122.2197,309.0
7125.069,299.0
7127.919,309.0
7130.77,313.0
7133.6226,308.0
7136.476,302.0
7139.3306,372.0
7142.1865,336.0
7145.0435,301.0
7147.9014,298.0
7150.7607,305.0
7153.621,367.0
7156.4824,385.0
7159.345,448.0
7162.209,344.0
7165.0737,326.0
7167.94,322.0
7170.807,352.0
7173.6753,387.0
7176.545,336.0
7179.4155,353.0
7182.287,342.0
7185.16,365.0
7188.034,361.0
7190.909,335.0
7193.7856,309.0
7196.663,395.0
7199.542,379.0
7202.422,336.0
7205.3027,320.0
7208.185,279.0
7211.0684,343.0
7213.9526,445.0
7216.8384,486.0
7219.725,339.0
7222.613,330.0
7225.502,299.0
7228.392,376.0
7231.283,604.0
7234.176,649.0
7237.0693,456.0
7239.9644,364.0
7242.8604,289.0
7245.7573,293.0
7248.656,287.0
7251.555,265.0
7254.4556,299.0
7257.3574,262.0
7260.2603,263.0
7263.1646,290.0
7266.07,282.0
7268.976,268.0
7271.884,310.0
7274.7925,262.0
7277.7026,273.0
7280.614,293.0
7283.526,313.0
7286.4395,307.0
7289.354,308.0
7292.2695,298.0
7295.1865,311.0
7298.1045,321.0
7301.024,300.0
7303.9443,280.0
7306.8657,309.0
7309.7886,346.0
7312.7124,358.0
7315.6377,339.0
7318.564,353.0
7321.491,329.0
7324.42,276.0
7327.3496,354.0
7330.281,407.0
7333.213,400.0
7336.146,346.0
7339.0806,324.0
7342.016,312.0
7344.953,369.0
7347.891,400.0
7350.83,336.0
7353.7705,355.0
7356.712,359.0
7359.655,402.0
7362.5986,362.0
7365.5435,367.0
7368.4897,348.0
7371.437,393.0
7374.3857,389.0
7377.3354,414.0
7380.2866,404.0
7383.239,410.0
7386.192,470.0
7389.1465,474.0
7392.102,444.0
7395.059,433.0
7398.017,435.0
7400.976,499.0
7403.9365,523.0
7406.898,527.0
7409.861,615.0
7412.8247,672.0
7415.79,529.0
7418.7563,504.0
7421.7236,536.0
7424.6924,533.0
7427.662,469.0
7430.6333,406.0
7433.6055,493.0
7436.579,467.0
7439.5537,466.0
7442.5293,564.0
7445.5063,468.0
7448.4844,473.0
7451.464,508.0
7454.4443,518.0
7457.4263,406.0
7460.409,346.0
7463.3936,354.0
7466.379,506.0
7469.365,633.0
7472.353,430.0
7475.342,360.0
7478.332,326.0
7481.323,475.0
7484.316,872.0
7487.3096,964.0
7490.3047,620.0
7493.301,359.0
7496.2983,330.0
7499.297,347.0
7502.2964,351.0
7505.2974,391.0
7508.2993,339.0
7511.3027,350.0
7514.307,319.0
7517.313,309.0
7520.32,349.0
7523.328,347.0
7526.3374,322.0
7529.348,357.0
7532.36,322.0
7535.373,321.0
7538.387,358.0
7541.4023,369.0
7544.419,363.0
7547.4365,379.0
7550.4556,341.0
7553.4756,335.0
7556.497,410.0
7559.5195,387.0
7562.5435,387.0
7565.5684,420.0
7568.5947,379.0
7571.622,387.0
7574.651,430.0
7577.6807,365.0
7580.712,426.0
7583.744,456.0
7586.778,393.0
7589.8125,387.0
7592.8486,340.0
7595.8857,380.0
7598.9243,500.0
7601.964,468.0
7605.005,368.0
7608.047,354.0
7611.0903,334.0
7614.135,474.0
7617.18,654.0
7620.227,583.0
7623.275,344.0
7626.324,392.0
7629.3745,396.0
7632.4263,429.0
7635.479,351.0
7638.533,381.0
7641.5884,375.0
7644.645,317.0
7647.7026,347.0
7650.7617,330.0
7653.8223,326.0
7656.884,328.0
7659.947,322.0
7663.0107,359.0
7666.076,332.0
7669.1426,362.0
7672.2104,375.0
7675.2793,377.0
7678.3496,363.0
7681.421,364.0
7684.4937,361.0
7687.5674,387.0
7690.6426,355.0
7693.7188,371.0
7696.7964,395.0
7699.875,389.0
7702.955,408.0
7706.036,413.0
7709.1187,449.0
7712.202,429.0
7715.287,402.0
7718.373,397.0
7721.4604,391.0
7724.549,442.0
7727.6387,485.0
7730.7295,465.0
7733.822,441.0
7736.9155,451.0
7740.0103,506.0
7743.1064,487.0
7746.2036,561.0
7749.3022,495.0
7752.402,514.0
7755.503,514.0
7758.605,478.0
7761.7085,444.0
7764.813,429.0
7767.919,454.0
7771.026,589.0
7774.1343,526.0
7777.244,434.0
7780.355,453.0
7783.4673,482.0
7786.5806,712.0
7789.6953,869.0
7792.811,659.0
7795.928,508.0
7799.0464,416.0
7802.166,458.0
7805.287,527.0
7808.409,510.0
7811.5327,516.0
7814.657,474.0
7817.783,476.0
7820.91,472.0
7824.0386,440.0
7827.168,433.0
7830.299,546.0
7833.431,498.0
7836.5645,452.0
7839.699,471.0
7842.835,459.0
7845.972,490.0
7849.1104,524.0
7852.25,557.0
7855.391,491.0
7858.533,503.0
7861.677,496.0
7864.8213,505.0
7867.9673,507.0
7871.1143,498.0
7874.2627,486.0
7877.4126,562.0
7880.5635,571.0
7883.716,633.0
7886.869,554.0
7890.024,599.0
7893.18,551.0
7896.3374,555.0
7899.496,622.0
7902.656,643.0
7905.817,638.0
7908.979,563.0
7912.1426,517.0
7915.3076,582.0
7918.4736,663.0
7921.641,718.0
7924.8096,665.0
7927.9795,661.0
7931.151,625.0
7934.323,654.0
7937.497,821.0
7940.672,803.0
7943.848,749.0
7947.026,729.0
7950.2046,799.0
7953.385,700.0
7956.566,812.0
7959.7485,838.0
7962.9326,988.0
7966.1177,1093.0
7969.304,931.0
7972.4917,849.0
7975.6807,977.0
7978.871,1172.0
7982.0625,1621.0
7985.2554,1337.0
7988.4497,1135.0
7991.645,1144.0
7994.842,1130.0
7998.0396,1214.0
8001.239,1133.0
8004.4395,1242.0
8007.641,1304.0
8010.844,1442.0
8014.0483,1445.0
8017.254,1505.0
8020.461,1518.0
8023.669,1620.0
8026.8784,1435.0
8030.0894,1633.0
8033.3013,1785.0
8036.5146,2042.0
8039.7295,2268.0
8042.9453,2100.0
8046.1626,1638.0
8049.381,1776.0
8052.6006,2494.0
8055.822,3157.0
8059.044,3080.0
8062.2676,2222.0
8065.4927,2256.0
8068.7188,2682.0
8071.9463,2923.0
8075.1753,3940.0
8078.4053,3396.0
8081.6367,3310.0
8084.869,4334.0
8088.103,3279.0
8091.3384,2181.0
8094.5747,1759.0
8097.8125,3108.0
8101.052,6100.0
8104.292,4972.0
8107.5337,2696.0
8110.777,1810.0
8114.021,2810.0
8117.2666,10900.0
8120.5137,13089.0
8123.7617,6307.0
8127.011,2971.0
8130.262,2013.0
8133.514,2545.0
8136.7676,2680.0
8140.0225,2763.0
8143.2783,2891.0
8146.5356,2317.0
8149.7944,1911.0
8153.054,2176.0
8156.3154,1965.0
8159.578,2177.0
8162.842,2513.0
8166.107,2290.0
8169.3735,3123.0
8172.641,2943.0
8175.91,2022.0
8179.1807,1394.0
8182.452,1686.0
8185.725,4558.0
8188.9995,5509.0
8192.275,2730.0
8195.553,1461.0
8198.831,1499.0
8202.11,4993.0
8205.392,10429.0
8208.674,6609.0
8211.957,2663.0
8215.242,1480.0
8218.528,1333.0
8221.815,1192.0
8225.1045,1385.0
8228.395,1732.0
8231.686,1405.0
8234.979,969.0
8238.272,786.0
8241.567,952.0
8244.864,1374.0
8248.162,1210.0
8251.461,914.0
8254.762,812.0
8258.063,958.0
8261.367,1359.0
8264.672,1585.0
8267.978,1157.0
8271.285,995.0
8274.594,854.0
8277.903,776.0
8281.215,738.0
8284.527,742.0
8287.841,1024.0
8291.156,1047.0
8294.473,776.0
8297.79,648.0
8301.109,672.0
8304.43,788.0
8307.751,974.0
8311.074,842.0
8314.398,743.0
8317.725,696.0
8321.052,707.0
8324.38,660.0
8327.71,715.0
8331.041,739.0
8334.373,714.0
8337.707,668.0
8341.042,611.0
8344.378,660.0
8347.716,775.0
8351.055,802.0
8354.3955,690.0
8357.737,650.0
8361.08,618.0
8364.425,554.0
8367.7705,557.0
8371.117,589.0
8374.466,671.0
8377.815,705.0
8381.167,507.0
8384.52,485.0
8387.873,545.0
8391.229,654.0
8394.585,713.0
8397.942,592.0
8401.302,534.0
8404.662,560.0
8408.024,545.0
8411.388,492.0
8414.752,484.0
8418.118,495.0
8421.485,464.0
8424.854,385.0
8428.224,482.0
8431.595,515.0
8434.968,466.0
8438.342,429.0
8441.717,386.0
8445.094,416.0
8448.472,460.0
8451.851,437.0
8455.231,430.0
8458.613,478.0
8461.997,426.0
8465.382,463.0
8468.768,418.0
8472.155,424.0
8475.544,460.0
8478.935,407.0
8482.326,425.0
8485.719,452.0
8489.113,515.0
8492.509,527.0
8495.906,492.0
8499.305,486.0
8502.704,522.0
8506.105,527.0
8509.508,567.0
8512.911,534.0
8516.316,574.0
8519.723,605.0
8523.131,558.0
8526.54,602.0
8529.95,618.0
8533.362,807.0
8536.775,908.0
8540.19,626.0
8543.606,537.0
8547.023,504.0
8550.442,945.0
8553.862,1230.0
8557.284,849.0
8560.707,577.0
8564.131,551.0
8567.557,1150.0
8570.983,1873.0
8574.412,1257.0
8577.842,726.0
8581.272,587.0
8584.705,469.0
8588.139,449.0
8591.574,520.0
8595.011,672.0
8598.449,610.0
8601.889,502.0
8605.329,412.0
8608.771,419.0
8612.215,404.0
8615.66,415.0
8619.106,426.0
8622.554,386.0
8626.003,419.0
8629.453,348.0
8632.905,378.0
8636.358,407.0
8639.8125,421.0
8643.269,416.0
8646.726,401.0
8650.185,404.0
8653.645,413.0
8657.106,418.0
8660.569,410.0
8664.033,459.0
8667.499,438.0
8670.966,500.0
8674.435,444.0
8677.904,455.0
8681.375,466.0
8684.848,419.0
8688.321,492.0
8691.797,490.0
8695.273,518.0
8698.752,534.0
8702.231,571.0
8705.712,658.0
8709.194,664.0
8712.678,700.0
8716.163,879.0
8719.649,779.0
8723.138,672.0
8726.627,610.0
8730.117,681.0
8733.609,696.0
8737.103,645.0
8740.598,706.0
8744.094,673.0
8747.592,646.0
8751.091,719.0
8754.591,692.0
8758.093,782.0
8761.596,743.0
8765.101,730.0
8768.606,775.0
8772.114,905.0
8775.623,904.0
8779.133,823.0
8782.645,897.0
8786.157,890.0
8789.672,873.0
8793.1875,1001.0
8796.705,1072.0
8800.224,1144.0
8803.744,1032.0
8807.266,996.0
8810.788,1037.0
8814.3125,1430.0
8817.838,1451.0
8821.365,1214.0
8824.894,1179.0
8828.424,1261.0
8831.955,1666.0
8835.488,1772.0
8839.022,1468.0
8842.558,1378.0
8846.095,1320.0
8849.633,1278.0
8853.173,1348.0
8856.714,1573.0
8860.257,1708.0
8863.801,1610.0
8867.347,1596.0
8870.894,1546.0
8874.442,1836.0
8877.992,2208.0
8881.543,1871.0
8885.096,1766.0
8888.649,1653.0
8892.205,1784.0
8895.762,1828.0
8899.32,2039.0
8902.88,1956.0
8906.441,1842.0
8910.004,2052.0
8913.568,2044.0
8917.134,2141.0
8920.7,2111.0
8924.269,2137.0
8927.838,2177.0
8931.409,2262.0
8934.981,2304.0
8938.556,2220.0
8942.131,2354.0
8945.708,2437.0
8949.286,2156.0
8952.866,1904.0
8956.447,2084.0
8960.03,2599.0
8963.614,2664.0
8967.199,2166.0
8970.786,1772.0
8974.374,2167.0
8977.964,2685.0
8981.555,2412.0
8985.147,1966.0
8988.741,1851.0
8992.337,2478.0
8995.934,2820.0
8999.532,2318.0
9003.132,1880.0
9006.733,2042.0
9010.336,2489.0
9013.94,2167.0
9017.546,1906.0
9021.153,1817.0
9024.762,2603.0
9028.372,2804.0
9031.983,1852.0
9035.597,1272.0
9039.211,1692.0
9042.826,2749.0
9046.443,2315.0
9050.062,1383.0
9053.682,1168.0
9057.303,2196.0
9060.926,3932.0
9064.55,2814.0
9068.176,1551.0
9071.803,1062.0
9075.432,1309.0
9079.062,1361.0
9082.693,1290.0
9086.326,1002.0
9089.961,933.0
9093.597,941.0
9097.234,957.0
9100.873,852.0
9104.514,860.0
9108.155,898.0
9111.799,761.0
9115.443,680.0
9119.09,830.0
9122.737,857.0
9126.387,806.0
9130.037,727.0
9133.689,744.0
9137.343,793.0
9140.998,827.0
9144.654,772.0
9148.3125,796.0
9151.972,706.0
9155.633,749.0
9159.295,675.0
9162.959,798.0
9166.624,845.0
9170.291,899.0
9173.959,662.0
9177.629,701.0
9181.3,800.0
9184.973,922.0
9188.646,852.0
9192.322,690.0
9195.999,656.0
9199.678,784.0
9203.357,792.0
9207.039,800.0
9210.722,616.0
9214.406,601.0
9218.092,572.0
9221.779,535.0
9225.468,567.0
9229.158,607.0
9232.85,588.0
9236.543,530.0
9240.237,488.0
9243.934,558.0
9247.631,613.0
9251.33,659.0
9255.03,468.0
9258.732,357.0
9262.436,389.0
9266.141,464.0
9269.847,444.0
9273.555,379.0
9277.264,354.0
9280.975,377.0
9284.687,398.0
9288.4,408.0
9292.116,375.0
9295.833,363.0
9299.552,363.0
9303.271,332.0
9306.993,325.0
9310.716,344.0
9314.44,386.0
9318.166,369.0
9321.894,332.0
9325.622,324.0
9329.353,337.0
9333.084,305.0
9336.817,309.0
9340.552,321.0
9344.288,334.0
9348.025,326.0
9351.765,296.0
9355.505,297.0
9359.247,315.0
9362.991,283.0
9366.736,283.0
9370.483,250.0
9374.231,316.0
9377.981,301.0
9381.732,271.0
9385.485,255.0
9389.239,255.0
9392.995,250.0
9396.752,240.0
9400.511,258.0
9404.2705,225.0
9408.032,271.0
9411.796,223.0
9415.561,229.0
9419.327,211.0
9423.095,204.0
9426.864,231.0
9430.635,217.0
9434.407,199.0
9438.181,234.0
9441.956,244.0
9445.732,220.0
9449.511,181.0
9453.291,215.0
9457.072,220.0
9460.855,236.0
9464.64,229.0
9468.426,203.0
9472.213,212.0
9476.002,204.0
9479.792,206.0
9483.584,205.0
9487.377,211.0
9491.172,221.0
9494.969,202.0
9498.767,196.0
9502.566,213.0
9506.367,229.0
9510.17,195.0
9513.974,202.0
9517.779,188.0
9521.586,198.0
9525.395,191.0
9529.205,181.0
9533.017,170.0
9536.83,190.0
9540.645,199.0
9544.461,167.0
9548.278,214.0
9552.098,212.0
9555.919,196.0
9559.741,184.0
9563.565,167.0
9567.391,175.0
9571.218,185.0
9575.046,182.0
9578.876,163.0
9582.708,180.0
9586.541,165.0
9590.376,182.0
9594.212,198.0
9598.05,151.0
9601.889,168.0
9605.7295,161.0
9609.572,181.0
9613.416,184.0
9617.262,169.0
9621.108,151.0
9624.957,157.0
9628.807,178.0
9632.658,151.0
9636.512,156.0
9640.366,170.0
9644.223,168.0
9648.08,155.0
9651.939,159.0
9655.8,136.0
9659.662,169.0
9663.526,171.0
9667.392,195.0
9671.259,155.0
9675.127,176.0
9678.997,193.0
9682.869,174.0
9686.742,179.0
9690.617,197.0
9694.493,164.0
9698.371,165.0
9702.25,160.0
9706.131,196.0
9710.014,179.0
9713.897,162.0
9717.783,156.0
9721.67,163.0
9725.559,163.0
9729.449,190.0
9733.341,157.0
9737.234,167.0
9741.129,182.0
9745.025,161.0
9748.924,176.0
9752.823,161.0
9756.725,173.0
9760.627,177.0
9764.531,166.0
9768.4375,144.0
9772.345,151.0
9776.254,153.0
9780.164,162.0
9784.076,171.0
9787.99,164.0
9791.905,188.0
9795.822,142.0
9799.74,192.0
9803.66,177.0
9807.582,195.0
9811.505,187.0
9815.43,170.0
9819.355,195.0
9823.283,178.0
9827.213,209.0
9831.144,190.0
9835.076,149.0
9839.01,168.0
9842.945,239.0
9846.883,269.0
9850.821,208.0
9854.762,193.0
9858.704,148.0
9862.647,176.0
9866.593,166.0
9870.539,174.0
9874.487,167.0
9878.4375,150.0
9882.389,168.0
9886.342,154.0
9890.296,163.0
9894.252,192.0
9898.21,156.0
9902.169,167.0
9906.13,168.0
9910.093,170.0
9914.057,166.0
9918.022,159.0
9921.989,158.0
9925.958,182.0
9929.929,160.0
9933.9,174.0
9937.874,179.0
9941.85,159.0
9945.826,159.0
9949.805,203.0
9953.784,185.0
9957.766,170.0
9961.749,172.0
9965.733,198.0
9969.72,247.0
9973.708,187.0
9977.697,174.0
9981.688,163.0
9985.681,190.0
9989.675,194.0
9993.671,174.0
9997.668,159.0
10001.667,160.0
10005.668,133.0
10009.67,149.0
10013.674,195.0
10017.68,164.0
10021.687,144.0
10025.695,155.0
10029.706,174.0
10033.718,167.0
10037.731,176.0
10041.746,133.0
10045.763,171.0
10049.781,175.0
10053.801,163.0
10057.822,179.0
10061.846,161.0
10065.87,170.0
10069.896,171.0
10073.925,149.0
10077.954,152.0
10081.985,158.0
10086.019,164.0
10090.053,139.0
10094.089,171.0
10098.127,196.0
10102.166,193.0
10106.207,183.0
10110.25,176.0
10114.294,165.0
10118.34,174.0
10122.387,176.0
10126.436,179.0
10130.486,177.0
10134.538,193.0
10138.592,177.0
10142.647,179.0
10146.704,187.0
10150.763,159.0
10154.823,167.0
10158.885,238.0
10162.948,230.0
10167.014,202.0
10171.08,167.0
10175.148,179.0
10179.219,184.0
10183.29,188.0
10187.363,161.0
10191.438,156.0
10195.515,155.0
10199.593,180.0
10203.673,192.0
10207.754,182.0
10211.837,139.0
10215.922,178.0
10220.008,161.0
10224.096,179.0
10228.186,170.0
10232.276,175.0
10236.369,164.0
10240.464,158.0
10244.56,181.0
10248.657,158.0
10252.757,176.0
10256.858,176.0
10260.961,164.0
10265.065,152.0
10269.172,173.0
10273.279,178.0
10277.389,183.0
10281.5,172.0
10285.612,176.0
10289.727,192.0
10293.843,192.0
10297.96,169.0
10302.079,192.0
10306.2,182.0
10310.322,173.0
10314.446,195.0
10318.572,179.0
10322.699,190.0
10326.828,216.0
10330.959,195.0
10335.092,181.0
10339.226,182.0
10343.361,185.0
10347.499,204.0
10351.638,171.0
10355.778,211.0
10359.921,216.0
10364.064,206.0
10368.21,189.0
10372.357,221.0
10376.507,222.0
10380.657,192.0
10384.81,175.0
10388.964,210.0
10393.119,195.0
10397.276,203.0
10401.436,176.0
10405.596,161.0
10409.758,191.0
10413.922,195.0
10418.088,186.0
10422.255,202.0
10426.424,169.0
10430.595,183.0
10434.767,176.0
10438.94,156.0
10443.116,185.0
10447.294,205.0
10451.473,175.0
10455.653,143.0
10459.836,142.0
10464.02,189.0
10468.205,177.0
10472.393,175.0
10476.581,179.0
10480.771,191.0
10484.964,168.0
10489.158,188.0
10493.354,174.0
10497.551,150.0
10501.75,194.0
10505.951,198.0
10510.153,176.0
10514.357,180.0
10518.563,175.0
10522.7705,175.0
10526.9795,194.0
10531.19,185.0
10535.403,165.0
10539.617,169.0
10543.833,161.0
10548.051,170.0
10552.27,208.0
10556.49,199.0
10560.713,169.0
10564.9375,180.0
10569.163,179.0
10573.391,195.0
10577.62,198.0
10581.852,186.0
10586.084,199.0
10590.318,162.0
10594.555,178.0
10598.793,168.0
10603.032,176.0
10607.273,185.0
10611.517,187.0
10615.761,189.0
10620.007,189.0
10624.255,202.0
10628.505,223.0
10632.756,214.0
10637.009,197.0
10641.264,207.0
10645.5205,195.0
10649.778,203.0
10654.038,214.0
10658.3,217.0
10662.563,204.0
10666.828,207.0
10671.095,190.0
10675.363,196.0
10679.634,219.0
10683.905,190.0
10688.179,203.0
10692.454,201.0
10696.731,222.0
10701.01,208.0
10705.29,222.0
10709.572,201.0
10713.856,245.0
10718.142,221.0
10722.429,254.0
10726.718,209.0
10731.009,205.0
10735.301,239.0
10739.595,338.0
10743.891,251.0
10748.188,235.0
10752.487,249.0
10756.788,367.0
10761.091,291.0
10765.3955,242.0
10769.702,223.0
10774.01,191.0
10778.319,225.0
10782.631,228.0
10786.944,222.0
10791.259,211.0
10795.575,195.0
10799.894,208.0
10804.214,171.0
10808.535,187.0
10812.858,199.0
10817.184,198.0
10821.511,190.0
10825.839,182.0
10830.169,181.0
10834.501,201.0
10838.835,194.0
10843.171,189.0
10847.508,177.0
10851.847,202.0
10856.1875,201.0
10860.53,209.0
10864.874,201.0
10869.22,189.0
10873.567,189.0
10877.917,211.0
10882.269,248.0
10886.621,212.0
10890.976,203.0
10895.332,237.0
10899.69,193.0
10904.051,221.0
10908.412,219.0
10912.775,218.0
10917.141,222.0
10921.508,195.0
10925.876,191.0
10930.246,211.0
10934.618,229.0
10938.992,209.0
10943.368,213.0
10947.745,229.0
10952.124,223.0
10956.505,206.0
10960.888,233.0
10965.272,232.0
10969.658,218.0
10974.046,197.0
10978.436,197.0
10982.827,244.0
10987.221,214.0
10991.615,221.0
10996.012,248.0
11000.41,247.0
11004.811,244.0
11009.213,208.0
11013.616,246.0
11018.021,232.0
11022.429,268.0
11026.838,234.0
11031.249,179.0
11035.661,215.0
11040.075,233.0
11044.491,240.0
11048.909,233.0
11053.329,229.0
11057.75,224.0
11062.173,264.0
11066.598,259.0
11071.024,222.0
11075.453,242.0
11079.884,209.0
11084.315,211.0
11088.749,224.0
11093.185,185.0
11097.622,221.0
11102.062,187.0
11106.502,228.0
11110.944,212.0
11115.389,212.0
11119.835,234.0
11124.283,212.0
11128.733,223.0
11133.185,206.0
11137.638,211.0
11142.093,200.0
11146.55,229.0
11151.009,230.0
11155.469,240.0
11159.931,222.0
11164.395,217.0
11168.86,227.0
11173.328,188.0
11177.798,233.0
11182.269,206.0
11186.741,198.0
11191.216,231.0
11195.692,215.0
11200.171,212.0
11204.651,205.0
11209.133,221.0
11213.616,221.0
11218.102,212.0
11222.589,193.0
11227.078,202.0
11231.569,200.0
11236.062,204.0
11240.556,211.0
11245.052,227.0
11249.55,193.0
11254.05,235.0
11258.552,222.0
11263.056,213.0
11267.561,214.0
11272.067,191.0
11276.576,214.0
11281.087,215.0
11285.6,236.0
11290.114,200.0
11294.63,194.0
11299.147,232.0
11303.667,204.0
11308.188,231.0
11312.712,221.0
11317.237,236.0
11321.765,245.0
11326.293,234.0
11330.823,223.0
11335.355,246.0
11339.89,222.0
11344.426,237.0
11348.964,278.0
11353.504,249.0
11358.045,270.0
11362.588,279.0
11367.133,279.0
11371.68,290.0
11376.229,278.0
11380.779,297.0
11385.332,285.0
11389.886,303.0
11394.441,320.0
11398.999,295.0
11403.559,263.0
11408.12,288.0
11412.684,335.0
11417.249,302.0
11421.816,287.0
11426.385,309.0
11430.955,318.0
11435.527,367.0
11440.102,324.0
11444.678,383.0
11449.256,365.0
11453.836,350.0
11458.417,342.0
11463.0,376.0
11467.585,381.0
11472.172,383.0
11476.761,387.0
11481.352,418.0
11485.944,411.0
11490.539,399.0
11495.136,438.0
11499.733,396.0
11504.333,407.0
11508.935,407.0
11513.538,492.0
11518.144,418.0
11522.751,416.0
11527.36,499.0
11531.972,485.0
11536.584,473.0
11541.198,473.0
11545.814,520.0
11550.433,522.0
11555.053,456.0
11559.675,524.0
11564.299,517.0
11568.925,496.0
11573.553,494.0
11578.183,571.0
11582.813,560.0
11587.446,496.0
11592.081,578.0
11596.718,597.0
11601.356,507.0
11605.997,511.0
11610.64,606.0
11615.284,571.0
11619.931,545.0
11624.579,552.0
11629.229,615.0
11633.88,601.0
11638.533,567.0
11643.188,705.0
11647.846,558.0
11652.505,454.0
11657.166,642.0
11661.829,756.0
11666.494,463.0
11671.161,494.0
11675.83,772.0
11680.5,796.0
11685.172,500.0
11689.846,462.0
11694.521,414.0
11699.199,408.0
11703.879,328.0
11708.561,341.0
11713.244,355.0
11717.93,353.0
11722.617,302.0
11727.307,292.0
11731.998,284.0
11736.69,321.0
11741.385,301.0
11746.081,279.0
11750.779,305.0
11755.4795,267.0
11760.182,304.0
11764.886,285.0
11769.592,292.0
11774.3,299.0
11779.01,319.0
11783.722,299.0
11788.436,320.0
11793.151,276.0
11797.868,249.0
11802.587,309.0
11807.308,278.0
11812.03,266.0
11816.755,260.0
11821.481,308.0
11826.21,309.0
11830.94,251.0
11835.673,255.0
11840.407,239.0
11845.144,253.0
11849.882,253.0
11854.622,250.0
11859.364,217.0
11864.108,234.0
11868.8545,256.0
11873.602,230.0
11878.351,236.0
11883.102,205.0
11887.8545,195.0
11892.609,190.0
11897.366,224.0
11902.125,213.0
11906.886,239.0
11911.648,232.0
11916.413,212.0
11921.18,235.0
11925.948,237.0
11930.719,199.0
11935.491,210.0
11940.266,205.0
11945.042,211.0
11949.82,232.0
11954.601,223.0
11959.383,215.0
11964.167,201.0
11968.953,192.0
11973.74,219.0
11978.529,207.0
11983.32,189.0
11988.113,219.0
11992.908,191.0
