M/Z,Intensity
800.0,134.0
800.32,211.0
800.64014,93.0
800.9604,171.0
801.28076,267.0
801.60126,106.0
801.9219,114.0
802.2426,175.0
802.56354,129.0
802.8846,210.0
803.20575,173.0
803.52704,83.0
803.84845,114.0
804.17,164.0
804.49164,147.0
804.8134,93.0
805.1353,164.0
805.4574,125.0
805.7796,136.0
806.1019,233.0
806.4244,374.0
806.74695,84.0
807.06964,226.0
807.39246,259.0
807.7154,74.0
808.03845,172.0
808.3617,318.0
808.68506,84.0
809.00854,136.0
809.33215,253.0
809.6559,96.0
809.97974,155.0
810.3037,259.0
810.6278,121.0
810.9521,149.0
811.2765,187.0
811.601,108.0
811.92566,126.0
812.2504,178.0
812.5753,127.0
812.9003,128.0
813.22546,175.0
813.5508,135.0
813.8762,94.0
814.2018,158.0
814.52747,121.0
814.8533,109.0
815.1792,209.0
815.50525,121.0
815.8314,82.0
816.1578,172.0
816.48425,115.0
816.81085,111.0
817.1376,181.0
817.4644,116.0
817.7914,87.0
818.11847,153.0
818.44574,118.0
818.77313,88.0
819.10065,164.0
819.4283,120.0
819.75604,74.0
820.0839,181.0
820.412,126.0
820.7402,73.0
821.0685,157.0
821.3969,137.0
821.72546,74.0
822.05414,139.0
822.38293,156.0
822.7119,70.0
823.041,208.0
823.37024,135.0
823.6996,65.0
824.02905,202.0
824.35864,168.0
824.6884,254.0
825.0183,1917.0
825.3483,161.0
825.67847,149.0
826.0087,860.0
826.3391,161.0
826.6696,90.0
827.0003,362.0
827.3311,134.0
827.66205,66.0
827.9931,152.0
828.3243,164.0
828.65564,79.0
828.9871,108.0
829.3187,149.0
829.65045,80.0
829.9823,104.0
830.3143,153.0
830.6464,65.0
830.9787,112.0
831.3111,160.0
831.6436,68.0
831.97626,131.0
832.309,165.0
832.64197,88.0
832.97504,121.0
833.3082,148.0
833.64154,78.0
833.975,125.0
834.3086,233.0
834.64233,102.0
834.9762,155.0
835.3102,197.0
835.6443,89.0
835.9785,133.0
836.3129,155.0
836.64746,78.0
836.9821,156.0
837.3169,146.0
837.6518,68.0
837.9869,126.0
838.3221,130.0
838.6574,103.0
838.99286,338.0
839.3284,132.0
839.6642,69.0
840.00006,254.0
840.33606,156.0
840.6722,100.0
841.0084,410.0
841.34485,139.0
841.6814,94.0
842.01807,248.0
842.35486,151.0
842.6918,82.0
843.0289,186.0
843.3661,142.0
843.7034,82.0
844.0409,152.0
844.37854,113.0
844.7163,113.0
845.0542,335.0
845.3922,169.0
845.73035,99.0
846.06866,215.0
846.4071,133.0
846.74567,92.0
847.08435,179.0
847.42316,125.0
847.76215,78.0
848.10126,149.0
848.4405,110.0
848.77985,81.0
849.1194,124.0
849.45905,103.0
849.7988,53.0
850.13873,134.0
850.47876,96.0
850.819,98.0
851.1593,140.0
851.49976,98.0
851.84033,89.0
852.1811,143.0
852.522,96.0
852.863,98.0
853.2041,160.0
853.5454,80.0
853.88684,96.0
854.2284,136.0
854.57007,75.0
854.9119,231.0
855.2539,140.0
855.596,65.0
855.93823,178.0
856.2806,170.0
856.6231,81.0
856.96576,181.0
857.30853,162.0
857.6514,79.0
857.9945,137.0
858.3377,145.0
858.681,86.0
859.0245,167.0
859.3681,142.0
859.71185,65.0
860.0557,126.0
860.3997,124.0
860.7439,550.0
861.0882,496.0
861.4326,131.0
861.77716,377.0
862.1219,213.0
862.46674,97.0
862.8117,192.0
863.15686,172.0
863.50214,98.0
863.84753,101.0
864.19305,149.0
864.53876,90.0
864.8846,103.0
865.2305,156.0
865.5766,73.0
865.92285,100.0
866.2692,118.0
866.6157,73.0
866.96234,247.0
867.30914,140.0
867.65607,60.0
868.0031,173.0
868.35034,117.0
868.6977,72.0
869.04517,123.0
869.39276,101.0
869.74054,76.0
870.08844,125.0
870.43646,93.0
870.7846,58.0
871.13293,121.0
871.4814,105.0
871.82996,70.0
872.1787,154.0
872.5276,57.0
872.8766,134.0
873.2257,125.0
873.575,84.0
873.92444,109.0
874.274,141.0
874.6237,51.0
874.9736,105.0
875.32355,127.0
875.6737,72.0
876.024,128.0
876.3744,159.0
876.7249,183.0
877.0756,199.0
877.42645,125.0
877.7774,136.0
878.12854,133.0
878.4798,93.0
878.8312,111.0
879.18274,134.0
879.5344,86.0
879.8862,115.0
880.23816,142.0
880.5903,76.0
880.9425,120.0
881.29486,108.0
881.6474,65.0
882.00006,114.0
882.35284,105.0
882.7058,84.0
883.0589,142.0
883.4121,124.0
883.7655,75.0
884.119,141.0
884.47266,96.0
884.8264,86.0
885.18036,105.0
885.5344,66.0
885.8886,107.0
886.243,107.0
886.5975,70.0
886.9521,94.0
887.3069,126.0
887.6618,65.0
888.01685,113.0
888.3721,104.0
888.7274,94.0
889.0829,136.0
889.43854,134.0
889.7943,73.0
890.1502,134.0
890.5063,126.0
890.8625,93.0
891.2188,148.0
891.5753,94.0
891.93195,99.0
892.2887,154.0
892.6456,70.0
893.0027,131.0
893.35986,130.0
893.7172,66.0
894.0747,117.0
894.4323,114.0
894.7901,86.0
895.148,129.0
895.50604,65.0
895.86426,80.0
896.2226,130.0
896.58105,65.0
896.9397,95.0
897.29846,115.0
897.6574,50.0
898.0165,107.0
898.3757,112.0
898.73505,76.0
899.09454,110.0
899.45416,87.0
899.81396,72.0
900.1739,153.0
900.53394,70.0
900.89417,102.0
901.2545,137.0
901.615,80.0
901.97565,118.0
902.3364,123.0
902.6974,63.0
903.0585,128.0
903.4197,118.0
903.78107,74.0
904.1426,134.0
904.5042,95.0
904.866,85.0
905.22797,151.0
905.5901,59.0
905.95233,108.0
906.3147,139.0
906.67725,61.0
907.0399,110.0
907.4027,105.0
907.7657,67.0
908.1288,115.0
908.49207,98.0
908.85547,84.0
909.219,113.0
909.5827,73.0
909.94653,64.0
910.3105,134.0
910.6746,63.0
911.0389,107.0
911.4033,93.0
911.7679,77.0
912.13257,114.0
912.49744,85.0
912.8624,79.0
913.2276,125.0
913.5929,77.0
913.9583,108.0
914.3239,137.0
914.68964,62.0
915.05554,96.0
915.4216,87.0
915.7877,56.0
916.15405,120.0
916.5205,72.0
916.88715,63.0
917.2539,120.0
917.6208,61.0
917.98785,109.0
918.35504,110.0
918.7224,51.0
919.0899,102.0
919.4575,84.0
919.8253,70.0
920.19324,140.0
920.56134,55.0
920.92957,86.0
921.2979,102.0
921.66644,50.0
922.0351,118.0
922.40393,105.0
922.7729,54.0
923.14197,105.0
923.5112,82.0
923.8806,94.0
924.2502,114.0
924.6199,66.0
924.98975,96.0
925.35974,112.0
925.72986,77.0
926.10016,113.0
926.4706,92.0
926.8412,92.0
927.2119,133.0
927.5828,68.0
927.95386,110.0
928.325,113.0
928.69635,59.0
929.0678,119.0
929.43945,88.0
929.8112,65.0
930.18317,126.0
930.55524,80.0
930.9274,91.0
931.2998,114.0
931.6723,51.0
932.045,91.0
932.4178,96.0
932.7908,60.0
933.1639,118.0
933.5372,99.0
933.9106,91.0
934.2841,122.0
934.65784,66.0
935.0317,93.0
935.4057,115.0
935.77985,63.0
936.1542,124.0
936.5286,80.0
936.90326,76.0
937.278,111.0
937.65295,67.0
938.028,95.0
938.4032,89.0
938.77856,67.0
939.15405,98.0
939.5297,66.0
939.9055,69.0
940.2815,118.0
940.6576,44.0
941.0339,91.0
941.4103,85.0
941.78687,73.0
942.1636,109.0
942.54047,56.0
942.9175,93.0
943.2947,106.0
943.672,61.0
944.04944,113.0
944.42706,82.0
944.8048,58.0
945.18274,109.0
945.5608,78.0
945.939,73.0
946.3174,99.0
946.6959,54.0
947.0746,110.0
947.4534,139.0
947.8324,90.0
948.21155,132.0
948.5908,76.0
948.9703,94.0
949.34985,112.0
949.7296,58.0
950.1095,103.0
950.48956,94.0
950.86975,68.0
951.2501,110.0
951.6306,62.0
952.0113,97.0
952.3921,96.0
952.7731,50.0
953.1542,115.0
953.53546,83.0
953.9169,79.0
954.29846,99.0
954.6802,68.0
955.0621,93.0
955.4441,83.0
955.8263,79.0
956.2086,112.0
956.5911,75.0
956.97375,90.0
957.35657,114.0
957.7395,47.0
958.1226,99.0
958.50586,81.0
958.8893,78.0
959.2728,114.0
959.65656,69.0
960.0404,90.0
960.42444,85.0
960.8086,56.0
961.19293,107.0
961.5774,66.0
961.96204,98.0
962.3468,103.0
962.73175,53.0
963.1168,109.0
963.5021,93.0
963.88745,80.0
964.273,100.0
964.6587,65.0
965.04456,104.0
965.4306,91.0
965.8168,70.0
966.2031,128.0
966.5896,59.0
966.97626,99.0
967.36304,86.0
967.75,66.0
968.1371,120.0
968.52435,82.0
968.91174,74.0
969.2993,104.0
969.687,44.0
970.0749,119.0
970.4629,124.0
970.8511,95.0
971.23944,132.0
971.6279,66.0
972.0166,100.0
972.4054,93.0
972.7944,51.0
973.1835,114.0
973.57275,100.0
973.96216,93.0
974.35175,127.0
974.7415,69.0
975.1314,102.0
975.5215,108.0
975.9117,91.0
976.30206,118.0
976.69257,66.0
977.08325,111.0
977.47406,119.0
977.86505,72.0
978.2562,109.0
978.6475,60.0
979.039,82.0
979.4306,93.0
979.8224,77.0
980.2143,112.0
980.6064,57.0
980.99866,100.0
981.39105,96.0
981.7836,60.0
982.17633,127.0
982.5692,55.0
982.9622,94.0
983.3554,99.0
983.7488,64.0
984.1423,96.0
984.53595,66.0
984.92975,87.0
985.3237,89.0
985.71783,56.0
986.1121,118.0
986.5066,80.0
986.9012,99.0
987.29596,112.0
987.69086,61.0
988.08594,111.0
988.4812,82.0
988.8766,74.0
989.27216,94.0
989.66785,69.0
990.0637,98.0
990.4597,89.0
990.8559,79.0
991.25226,130.0
991.64874,66.0
992.0454,134.0
992.4422,107.0
992.8392,93.0
993.2363,117.0
993.6336,84.0
994.03107,132.0
994.42865,96.0
994.8264,90.0
995.22437,121.0
995.62244,83.0
996.0207,102.0
996.4191,102.0
996.8177,73.0
997.21643,111.0
997.6153,73.0
998.01434,91.0
998.4136,84.0
998.8129,68.0
999.21246,121.0
999.6121,63.0
1000.01196,86.0
1000.412,91.0
1000.81213,68.0
1001.21246,109.0
1001.613,81.0
1002.0136,101.0
1002.4144,109.0
1002.81537,71.0
1003.2165,100.0
1003.6178,76.0
1004.0192,96.0
1004.42084,87.0
1004.82263,71.0
1005.22455,121.0
1005.62665,76.0
1006.0289,122.0
1006.4313,95.0
1006.83386,74.0
1007.2366,105.0
1007.63947,83.0
1008.04254,151.0
1008.44574,79.0
1008.8491,96.0
1009.2527,133.0
1009.6564,55.0
1010.06024,118.0
1010.4643,80.0
1010.86847,89.0
1011.2728,119.0
1011.6773,69.0
1012.082,110.0
1012.4868,92.0
1012.8918,92.0
1013.29694,108.0
1013.7023,76.0
1014.1077,167.0
1014.51337,104.0
1014.9192,116.0
1015.32513,107.0
1015.73126,64.0
1016.1376,89.0
1016.544,92.0
1016.9506,98.0
1017.3574,105.0
1017.76434,74.0
1018.17145,130.0
1018.57874,77.0
1018.98615,97.0
1019.39374,108.0
1019.8015,67.0
1020.2094,98.0
1020.6175,64.0
1021.02576,70.0
1021.43414,132.0
1021.8427,90.0
1022.25146,114.0
1022.66034,56.0
1023.0694,94.0
1023.47864,83.0
1023.888,75.0
1024.2976,115.0
1024.7073,56.0
1025.1172,98.0
1025.5272,78.0
1025.9374,85.0
1026.3478,90.0
1026.7583,65.0
1027.169,112.0
1027.5798,78.0
1027.9908,136.0
1028.4021,85.0
1028.8135,99.0
1029.225,112.0
1029.6367,78.0
1030.0486,165.0
1030.4606,93.0
1030.8728,115.0
1031.2852,98.0
1031.6976,76.0
1032.1104,116.0
1032.5232,83.0
1032.9362,89.0
1033.3494,124.0
1033.7627,106.0
1034.1761,120.0
1034.5898,66.0
1035.0037,131.0
1035.4177,92.0
1035.8319,101.0
1036.2462,148.0
1036.6608,78.0
1037.0754,107.0
1037.4902,87.0
1037.9053,89.0
1038.3204,110.0
1038.7357,63.0
1039.1512,103.0
1039.5669,76.0
1039.9827,79.0
1040.3987,112.0
1040.8148,65.0
1041.2312,95.0
1041.6477,78.0
1042.0643,95.0
1042.4812,78.0
1042.8982,72.0
1043.3153,124.0
1043.7327,111.0
1044.1501,114.0
1044.5677,89.0
1044.9856,119.0
1045.4036,90.0
1045.8218,80.0
1046.2401,118.0
1046.6586,60.0
1047.0773,124.0
1047.4961,87.0
1047.915,98.0
1048.3342,97.0
1048.7535,75.0
1049.1731,101.0
1049.5928,102.0
1050.0126,236.0
1050.4326,99.0
1050.8528,171.0
1051.2731,119.0
1051.6936,104.0
1052.1143,158.0
1052.5352,103.0
1052.9562,108.0
1053.3773,87.0
1053.7987,157.0
1054.2202,103.0
1054.6418,68.0
1055.0637,119.0
1055.4857,87.0
1055.908,112.0
1056.3303,97.0
1056.7528,85.0
1057.1755,133.0
1057.5984,95.0
1058.0215,99.0
1058.4447,118.0
1058.868,94.0
1059.2916,108.0
1059.7153,87.0
1060.1392,119.0
1060.5632,107.0
1060.9874,90.0
1061.4119,131.0
1061.8364,76.0
1062.2611,127.0
1062.686,74.0
1063.1111,109.0
1063.5364,92.0
1063.9618,87.0
1064.3873,98.0
1064.8131,85.0
1065.239,96.0
1065.6652,151.0
1066.0914,186.0
1066.5178,114.0
1066.9445,197.0
1067.3712,110.0
1067.7982,131.0
1068.2253,109.0
1068.6526,80.0
1069.0801,106.0
1069.5077,107.0
1069.9355,99.0
1070.3635,127.0
1070.7916,78.0
1071.22,101.0
1071.6484,117.0
1072.0771,133.0
1072.506,97.0
1072.9349,125.0
1073.3641,109.0
1073.7935,88.0
1074.223,124.0
1074.6527,74.0
1075.0825,105.0
1075.5126,92.0
1075.9427,93.0
1076.3732,123.0
1076.8037,82.0
1077.2344,114.0
1077.6653,113.0
1078.0963,140.0
1078.5276,85.0
1078.959,118.0
1079.3906,80.0
1079.8224,93.0
1080.2543,108.0
1080.6864,85.0
1081.1187,84.0
1081.5511,104.0
1081.9838,120.0
1082.4165,84.0
1082.8495,84.0
1083.2826,106.0
1083.716,80.0
1084.1494,95.0
1084.5831,87.0
1085.017,97.0
1085.4509,114.0
1085.8851,73.0
1086.3195,92.0
1086.754,64.0
1087.1887,132.0
1087.6235,74.0
1088.0586,123.0
1088.4938,87.0
1088.9292,106.0
1089.3647,75.0
1089.8005,97.0
1090.2365,161.0
1090.6725,92.0
1091.1088,100.0
1091.5452,94.0
1091.9818,84.0
1092.4186,103.0
1092.8556,78.0
1093.2927,116.0
1093.7301,93.0
1094.1676,116.0
1094.6052,89.0
1095.0431,111.0
1095.4811,107.0
1095.9193,103.0
1096.3577,87.0
1096.7963,76.0
1097.235,114.0
1097.6738,86.0
1098.1129,99.0
1098.5521,85.0
1098.9916,100.0
1099.4312,78.0
1099.871,96.0
1100.3109,114.0
1100.751,82.0
1101.1913,101.0
1101.6317,97.0
1102.0724,96.0
1102.5132,96.0
1102.9542,87.0
1103.3954,79.0
1103.8368,92.0
1104.2783,119.0
1104.72,66.0
1105.1619,103.0
1105.6039,100.0
1106.0461,110.0
1106.4885,94.0
1106.9312,69.0
1107.3739,100.0
1107.8169,70.0
1108.26,123.0
1108.7034,65.0
1109.1469,107.0
1109.5905,89.0
1110.0343,80.0
1110.4783,92.0
1110.9225,87.0
1111.3668,99.0
1111.8114,78.0
1112.2561,117.0
1112.701,67.0
1113.1461,105.0
1113.5914,82.0
1114.0369,86.0
1114.4824,77.0
1114.9282,77.0
1115.3741,99.0
1115.8203,77.0
1116.2666,115.0
1116.7131,78.0
1117.1598,108.0
1117.6067,92.0
1118.0537,93.0
1118.501,100.0
1118.9484,80.0
1119.396,106.0
1119.8438,80.0
1120.2917,102.0
1120.7399,74.0
1121.1881,99.0
1121.6366,94.0
1122.0852,85.0
1122.534,90.0
1122.983,91.0
1123.4323,90.0
1123.8816,84.0
1124.3312,98.0
1124.7809,72.0
1125.2308,100.0
1125.6809,76.0
1126.1312,84.0
1126.5817,79.0
1127.0323,86.0
1127.4832,111.0
1127.9342,87.0
1128.3854,113.0
1128.8367,73.0
1129.2882,99.0
1129.7399,62.0
1130.1918,97.0
1130.6438,84.0
1131.0961,114.0
1131.5485,105.0
1132.0011,99.0
1132.4539,96.0
1132.9069,84.0
1133.36,110.0
1133.8134,60.0
1134.2668,131.0
1134.7206,62.0
1135.1744,96.0
1135.6285,100.0
1136.0828,111.0
1136.5372,123.0
1136.9918,90.0
1137.4467,109.0
1137.9016,95.0
1138.3568,125.0
1138.8121,72.0
1139.2677,131.0
1139.7234,78.0
1140.1793,82.0
1140.6354,73.0
1141.0917,83.0
1141.5481,103.0
1142.0048,94.0
1142.4615,98.0
1142.9186,73.0
1143.3757,96.0
1143.8331,81.0
1144.2906,81.0
1144.7484,68.0
1145.2063,108.0
1145.6644,65.0
1146.1227,109.0
1146.5812,87.0
1147.0398,84.0
1147.4987,84.0
1147.9576,89.0
1148.4169,120.0
1148.8762,69.0
1149.3358,112.0
1149.7955,77.0
1150.2555,106.0
1150.7156,84.0
1151.1759,99.0
1151.6364,77.0
1152.097,89.0
1152.5579,88.0
1153.0189,87.0
1153.4801,84.0
1153.9415,82.0
1154.4031,96.0
1154.8649,93.0
1155.3268,101.0
1155.789,86.0
1156.2512,101.0
1156.7137,88.0
1157.1764,92.0
1157.6393,92.0
1158.1023,85.0
1158.5656,107.0
1159.0289,85.0
1159.4926,91.0
1159.9563,85.0
1160.4203,83.0
1160.8844,72.0
1161.3488,103.0
1161.8134,73.0
1162.2781,104.0
1162.743,77.0
1163.2081,94.0
1163.6735,93.0
1164.1389,97.0
1164.6046,96.0
1165.0704,103.0
1165.5365,92.0
1166.0027,77.0
1166.4691,95.0
1166.9357,89.0
1167.4025,98.0
1167.8694,89.0
1168.3365,112.0
1168.8038,72.0
1169.2714,111.0
1169.739,88.0
1170.2069,90.0
1170.675,78.0
1171.1433,98.0
1171.6118,87.0
1172.0804,104.0
1172.5493,95.0
1173.0183,73.0
1173.4875,113.0
1173.9569,75.0
1174.4265,91.0
1174.8962,98.0
1175.3662,106.0
1175.8363,84.0
1176.3066,93.0
1176.7772,73.0
1177.2479,110.0
1177.7189,60.0
1178.19,88.0
1178.6613,68.0
1179.1327,91.0
1179.6044,87.0
1180.0762,109.0
1180.5482,94.0
1181.0204,94.0
1181.4928,88.0
1181.9655,86.0
1182.4382,99.0
1182.9113,71.0
1183.3844,98.0
1183.8578,94.0
1184.3313,101.0
1184.805,75.0
1185.2789,117.0
1185.753,76.0
1186.2273,95.0
1186.7018,101.0
1187.1765,116.0
1187.6514,82.0
1188.1265,75.0
1188.6017,89.0
1189.0771,82.0
1189.5527,77.0
1190.0286,90.0
1190.5045,86.0
1190.9807,79.0
1191.4572,110.0
1191.9337,90.0
1192.4105,84.0
1192.8875,82.0
1193.3646,94.0
1193.8419,82.0
1194.3195,114.0
1194.7972,71.0
1195.2751,104.0
1195.7533,67.0
1196.2316,99.0
1196.7101,86.0
1197.1887,96.0
1197.6676,86.0
1198.1467,87.0
1198.626,99.0
1199.1055,105.0
1199.5851,100.0
1200.065,77.0
1200.5449,89.0
1201.0251,95.0
1201.5056,88.0
1201.9862,91.0
1202.467,96.0
1202.948,88.0
1203.4292,89.0
1203.9105,93.0
1204.3921,71.0
1204.8739,77.0
1205.3558,103.0
1205.838,83.0
1206.3203,91.0
1206.8029,73.0
1207.2855,109.0
1207.7684,66.0
1208.2516,89.0
1208.7349,76.0
1209.2184,98.0
1209.702,84.0
1210.1859,85.0
1210.67,70.0
1211.1543,87.0
1211.6388,87.0
1212.1234,110.0
1212.6083,89.0
1213.0933,88.0
1213.5785,94.0
1214.064,102.0
1214.5496,95.0
1215.0354,77.0
1215.5214,89.0
1216.0076,69.0
1216.494,87.0
1216.9806,90.0
1217.4674,89.0
1217.9543,84.0
1218.4415,96.0
1218.929,85.0
1219.4165,104.0
1219.9043,95.0
1220.3922,116.0
1220.8804,82.0
1221.3688,95.0
1221.8573,66.0
1222.3461,81.0
1222.835,84.0
1223.3241,110.0
1223.8135,88.0
1224.303,97.0
1224.7927,78.0
1225.2826,83.0
1225.7727,79.0
1226.2631,113.0
1226.7535,82.0
1227.2443,81.0
1227.7351,83.0
1228.2262,105.0
1228.7175,67.0
1229.209,92.0
1229.7007,97.0
1230.1925,99.0
1230.6846,85.0
1231.1769,109.0
1231.6693,85.0
1232.162,100.0
1232.6549,84.0
1233.148,88.0
1233.6412,85.0
1234.1346,115.0
1234.6283,78.0
1235.1222,83.0
1235.6162,83.0
1236.1105,78.0
1236.6049,98.0
1237.0995,86.0
1237.5944,90.0
1238.0894,101.0
1238.5846,82.0
1239.0801,107.0
1239.5757,61.0
1240.0715,101.0
1240.5675,99.0
1241.0637,115.0
1241.5602,123.0
1242.0568,90.0
1242.5536,88.0
1243.0507,114.0
1243.5479,82.0
1244.0453,84.0
1244.5428,100.0
1245.0406,79.0
1245.5387,84.0
1246.0369,81.0
1246.5353,101.0
1247.0339,109.0
1247.5327,108.0
1248.0317,88.0
1248.531,97.0
1249.0304,130.0
1249.53,94.0
1250.0298,100.0
1250.5298,92.0
1251.03,89.0
1251.5304,90.0
1252.031,93.0
1252.5319,70.0
1253.0328,76.0
1253.534,86.0
1254.0355,84.0
1254.5371,67.0
1255.039,93.0
1255.541,111.0
1256.0432,96.0
1256.5457,106.0
1257.0482,107.0
1257.551,88.0
1258.0541,65.0
1258.5573,102.0
1259.0607,87.0
1259.5643,94.0
1260.0681,76.0
1260.5721,74.0
1261.0764,124.0
1261.5808,94.0
1262.0854,125.0
1262.5903,102.0
1263.0953,112.0
1263.6006,85.0
1264.1061,91.0
1264.6117,103.0
1265.1176,84.0
1265.6237,86.0
1266.1299,95.0
1266.6364,107.0
1267.1431,107.0
1267.6499,98.0
1268.157,98.0
1268.6642,81.0
1269.1716,94.0
1269.6793,78.0
1270.1871,96.0
1270.6952,92.0
1271.2035,96.0
1271.7119,96.0
1272.2206,89.0
1272.7295,76.0
1273.2385,83.0
1273.7478,88.0
1274.2573,115.0
1274.767,89.0
1275.2769,97.0
1275.787,75.0
1276.2972,99.0
1276.8077,140.0
1277.3185,92.0
1277.8295,108.0
1278.3406,100.0
1278.8519,115.0
1279.3635,109.0
1279.8752,113.0
1280.3872,99.0
1280.8994,93.0
1281.4117,72.0
1281.9243,90.0
1282.4371,108.0
1282.9501,117.0
1283.4633,89.0
1283.9767,88.0
1284.4902,85.0
1285.004,108.0
1285.5181,94.0
1286.0322,85.0
1286.5466,96.0
1287.0613,87.0
1287.576,102.0
1288.0911,79.0
1288.6063,107.0
1289.1218,122.0
1289.6375,105.0
1290.1533,108.0
1290.6694,79.0
1291.1857,85.0
1291.7021,79.0
1292.2189,105.0
1292.7357,86.0
1293.2528,104.0
1293.7701,88.0
1294.2876,78.0
1294.8053,80.0
1295.3232,102.0
1295.8414,83.0
1296.3597,92.0
1296.8783,78.0
1297.3971,88.0
1297.916,85.0
1298.4352,91.0
1298.9546,77.0
1299.4741,83.0
1299.9939,111.0
1300.5139,91.0
1301.0342,77.0
1301.5546,113.0
1302.0752,85.0
1302.5961,109.0
1303.1171,95.0
1303.6383,102.0
1304.1598,83.0
1304.6814,97.0
1305.2032,108.0
1305.7253,99.0
1306.2477,95.0
1306.7701,108.0
1307.2928,83.0
1307.8158,75.0
1308.3389,89.0
1308.8622,91.0
1309.3857,105.0
1309.9095,73.0
1310.4335,81.0
1310.9576,95.0
1311.482,93.0
1312.0066,88.0
1312.5314,97.0
1313.0564,85.0
1313.5817,96.0
1314.107,79.0
1314.6327,106.0
1315.1586,88.0
1315.6847,81.0
1316.2109,83.0
1316.7374,87.0
1317.2642,68.0
1317.791,74.0
1318.3181,98.0
1318.8455,70.0
1319.373,103.0
1319.9008,84.0
1320.4287,108.0
1320.9569,74.0
1321.4854,77.0
1322.0139,77.0
1322.5427,96.0
1323.0718,86.0
1323.601,94.0
1324.1304,94.0
1324.66,89.0
1325.19,95.0
1325.72,80.0
1326.2502,115.0
1326.7808,84.0
1327.3115,88.0
1327.8424,82.0
1328.3735,99.0
1328.9049,73.0
1329.4365,90.0
1329.9683,79.0
1330.5002,91.0
1331.0325,71.0
1331.565,117.0
1332.0975,74.0
1332.6304,90.0
1333.1635,84.0
1333.6968,95.0
1334.2302,67.0
1334.7639,87.0
1335.2979,103.0
1335.832,87.0
1336.3663,100.0
1336.9009,92.0
1337.4357,99.0
1337.9707,76.0
1338.5059,90.0
1339.0413,67.0
1339.5769,93.0
1340.1128,82.0
1340.6488,97.0
1341.185,92.0
1341.7216,90.0
1342.2583,90.0
1342.7952,76.0
1343.3323,111.0
1343.8696,90.0
1344.4072,91.0
1344.945,78.0
1345.4829,93.0
1346.0211,88.0
1346.5596,93.0
1347.0981,74.0
1347.637,99.0
1348.176,88.0
1348.7153,81.0
1349.2548,109.0
1349.7944,74.0
1350.3344,91.0
1350.8745,80.0
1351.4149,80.0
1351.9554,83.0
1352.4962,95.0
1353.0372,91.0
1353.5785,100.0
1354.1199,81.0
1354.6615,95.0
1355.2034,86.0
1355.7455,81.0
1356.2878,92.0
1356.8303,88.0
1357.373,95.0
1357.916,64.0
1358.4592,98.0
1359.0026,81.0
1359.5461,87.0
1360.09,82.0
1360.634,76.0
1361.1783,78.0
1361.7228,82.0
1362.2675,78.0
1362.8124,80.0
1363.3575,108.0
1363.9028,80.0
1364.4484,92.0
1364.9941,85.0
1365.5402,83.0
1366.0864,78.0
1366.6328,97.0
1367.1794,89.0
1367.7263,96.0
1368.2734,78.0
1368.8208,79.0
1369.3683,67.0
1369.916,66.0
1370.464,87.0
1371.0122,96.0
1371.5607,89.0
1372.1093,97.0
1372.6581,90.0
1373.2072,88.0
1373.7565,85.0
1374.306,97.0
1374.8557,85.0
1375.4056,104.0
1375.9558,85.0
1376.5062,99.0
1377.0569,83.0
1377.6077,87.0
1378.1587,102.0
1378.71,77.0
1379.2615,91.0
1379.8132,71.0
1380.3651,81.0
1380.9172,69.0
1381.4696,97.0
1382.0222,78.0
1382.5751,93.0
1383.128,94.0
1383.6813,80.0
1384.2347,113.0
1384.7885,81.0
1385.3424,80.0
1385.8965,91.0
1386.4508,93.0
1387.0054,77.0
1387.5602,99.0
1388.1152,93.0
1388.6705,85.0
1389.226,90.0
1389.7816,91.0
1390.3375,86.0
1390.8937,70.0
1391.4501,85.0
1392.0067,79.0
1392.5635,89.0
1393.1205,88.0
1393.6777,91.0
1394.2352,89.0
1394.793,76.0
1395.3508,105.0
1395.9089,99.0
1396.4673,113.0
1397.0259,80.0
1397.5847,104.0
1398.1438,94.0
1398.703,77.0
1399.2625,105.0
1399.8221,88.0
1400.3821,101.0
1400.9423,62.0
1401.5027,112.0
1402.0632,78.0
1402.624,97.0
1403.185,88.0
1403.7463,87.0
1404.3079,94.0
1404.8696,74.0
1405.4315,114.0
1405.9937,55.0
1406.556,94.0
1407.1187,87.0
1407.6815,95.0
1408.2446,89.0
1408.808,78.0
1409.3715,93.0
1409.9352,69.0
1410.4991,100.0
1411.0634,87.0
1411.6278,105.0
1412.1925,78.0
1412.7573,90.0
1413.3224,109.0
1413.8877,98.0
1414.4532,98.0
1415.019,78.0
1415.5851,101.0
1416.1514,85.0
1416.7178,103.0
1417.2844,90.0
1417.8513,88.0
1418.4185,91.0
1418.9858,53.0
1419.5535,116.0
1420.1213,76.0
1420.6893,118.0
1421.2576,75.0
1421.826,73.0
1422.3948,111.0
1422.9637,86.0
1423.533,115.0
1424.1024,95.0
1424.672,88.0
1425.2418,110.0
1425.8119,76.0
1426.3822,90.0
1426.9528,89.0
1427.5236,90.0
1428.0946,102.0
1428.6659,93.0
1429.2373,83.0
1429.809,88.0
1430.3809,103.0
1430.953,92.0
1431.5254,119.0
1432.098,91.0
1432.6709,96.0
1433.244,116.0
1433.8173,100.0
1434.3907,98.0
1434.9645,95.0
1435.5385,104.0
1436.1127,99.0
1436.6871,107.0
1437.2618,99.0
1437.8368,101.0
1438.412,99.0
1438.9873,82.0
1439.5629,95.0
1440.1387,80.0
1440.7147,91.0
1441.291,90.0
1441.8676,90.0
1442.4443,82.0
1443.0214,100.0
1443.5985,96.0
1444.1759,97.0
1444.7535,110.0
1445.3314,87.0
1445.9095,102.0
1446.4879,105.0
1447.0665,89.0
1447.6454,91.0
1448.2245,98.0
1448.8038,73.0
1449.3833,85.0
1449.963,77.0
1450.543,115.0
1451.1232,89.0
1451.7036,106.0
1452.2843,104.0
1452.8652,87.0
1453.4464,121.0
1454.0278,85.0
1454.6095,103.0
1455.1913,79.0
1455.7733,91.0
1456.3556,101.0
1456.9381,73.0
1457.5209,90.0
1458.1039,90.0
1458.6871,97.0
1459.2706,101.0
1459.8544,60.0
1460.4384,78.0
1461.0226,76.0
1461.6069,113.0
1462.1915,77.0
1462.7764,97.0
1463.3615,107.0
1463.9468,86.0
1464.5323,101.0
1465.1182,77.0
1465.7042,99.0
1466.2905,98.0
1466.8771,71.0
1467.4639,107.0
1468.0509,84.0
1468.6382,86.0
1469.2256,81.0
1469.8132,89.0
1470.4011,99.0
1470.9893,81.0
1471.5776,92.0
1472.1663,86.0
1472.7551,97.0
1473.3442,97.0
1473.9336,105.0
1474.5232,101.0
1475.113,84.0
1475.7031,96.0
1476.2935,94.0
1476.884,92.0
1477.4747,109.0
1478.0657,106.0
1478.6569,118.0
1479.2483,80.0
1479.84,76.0
1480.4319,107.0
1481.024,79.0
1481.6165,90.0
1482.2091,107.0
1482.802,93.0
1483.3951,98.0
1483.9885,87.0
1484.5822,81.0
1485.176,70.0
1485.7701,96.0
1486.3645,95.0
1486.9591,92.0
1487.5538,86.0
1488.1488,88.0
1488.744,88.0
1489.3395,97.0
1489.9352,113.0
1490.5311,82.0
1491.1273,84.0
1491.7238,84.0
1492.3204,85.0
1492.9174,84.0
1493.5145,92.0
1494.1119,90.0
1494.7096,94.0
1495.3075,120.0
1495.9056,112.0
1496.504,107.0
1497.1027,88.0
1497.7015,89.0
1498.3007,100.0
1498.9,89.0
1499.4996,94.0
1500.0995,84.0
1500.6996,105.0
1501.2998,93.0
1501.9003,87.0
1502.501,93.0
1503.1019,108.0
1503.7031,88.0
1504.3046,88.0
1504.9062,107.0
1505.5082,100.0
1506.1104,93.0
1506.7128,83.0
1507.3154,112.0
1507.9183,77.0
1508.5215,97.0
1509.1249,77.0
1509.7285,88.0
1510.3324,95.0
1510.9365,93.0
1511.5409,99.0
1512.1455,118.0
1512.7504,197.0
1513.3555,189.0
1513.9608,103.0
1514.5664,140.0
1515.1722,94.0
1515.7783,119.0
1516.3846,93.0
1516.9912,89.0
1517.598,101.0
1518.2051,73.0
1518.8124,85.0
1519.4199,77.0
1520.0277,72.0
1520.6357,101.0
1521.244,78.0
1521.8525,75.0
1522.4613,100.0
1523.0703,79.0
1523.6796,79.0
1524.2891,103.0
1524.8988,81.0
1525.5088,106.0
1526.119,79.0
1526.7295,99.0
1527.3402,95.0
1527.9512,87.0
1528.5624,85.0
1529.1738,75.0
1529.7855,75.0
1530.3975,87.0
1531.0096,77.0
1531.6221,98.0
1532.2347,78.0
1532.8477,82.0
1533.4608,86.0
1534.0742,74.0
1534.6879,95.0
1535.3018,91.0
1535.9159,87.0
1536.5303,96.0
1537.1449,79.0
1537.7598,72.0
1538.3749,88.0
1538.9902,105.0
1539.6058,106.0
1540.2217,79.0
1540.8378,84.0
1541.4541,90.0
1542.0707,90.0
1542.6875,68.0
1543.3046,80.0
1543.9219,80.0
1544.5394,92.0
1545.1572,76.0
1545.7753,82.0
1546.3936,84.0
1547.0121,82.0
1547.6309,76.0
1548.2499,75.0
1548.8691,76.0
1549.4886,89.0
1550.1084,91.0
1550.7284,97.0
1551.3486,77.0
1551.9691,79.0
1552.5898,87.0
1553.2109,93.0
1553.8323,66.0
1554.4539,100.0
1555.0757,76.0
1555.6978,80.0
1556.3201,85.0
1556.9426,79.0
1557.5654,88.0
1558.1885,70.0
1558.8118,91.0
1559.4353,86.0
1560.0591,73.0
1560.6831,82.0
1561.3074,84.0
1561.9319,100.0
1562.5566,84.0
1563.1816,77.0
1563.8069,76.0
1564.4324,101.0
1565.0581,70.0
1565.6841,89.0
1566.3103,68.0
1566.9368,69.0
1567.5636,73.0
1568.1907,74.0
1568.818,98.0
1569.4456,84.0
1570.0734,100.0
1570.7014,88.0
1571.3297,95.0
1571.9583,84.0
1572.587,93.0
1573.2161,80.0
1573.8453,80.0
1574.4749,80.0
1575.1046,70.0
1575.7346,74.0
1576.3649,94.0
1576.9954,78.0
1577.6261,74.0
1578.2572,97.0
1578.8885,88.0
1579.5201,75.0
1580.152,75.0
1580.784,79.0
1581.4164,104.0
1582.049,77.0
1582.6818,79.0
1583.3148,94.0
1583.9481,84.0
1584.5817,87.0
1585.2155,86.0
1585.8495,107.0
1586.4839,97.0
1587.1185,73.0
1587.7534,99.0
1588.3885,99.0
1589.0239,97.0
1589.6595,96.0
1590.2954,75.0
1590.9315,74.0
1591.5679,100.0
1592.2045,83.0
1592.8413,94.0
1593.4784,98.0
1594.1158,68.0
1594.7535,90.0
1595.3915,87.0
1596.0297,81.0
1596.6681,97.0
1597.3068,100.0
1597.9457,99.0
1598.5848,89.0
1599.2242,82.0
1599.8639,80.0
1600.5038,91.0
1601.144,63.0
1601.7845,90.0
1602.4253,101.0
1603.0663,89.0
1603.7075,91.0
1604.349,101.0
1604.9907,83.0
1605.6327,71.0
1606.2749,70.0
1606.9174,97.0
1607.5602,95.0
1608.2032,66.0
1608.8466,83.0
1609.4901,87.0
1610.1339,80.0
1610.778,78.0
1611.4222,105.0
1612.0668,74.0
1612.7115,73.0
1613.3567,91.0
1614.0021,76.0
1614.6477,82.0
1615.2936,66.0
1615.9397,79.0
1616.586,100.0
1617.2327,93.0
1617.8795,93.0
1618.5266,89.0
1619.1741,74.0
1619.8218,89.0
1620.4697,97.0
1621.1179,90.0
1621.7664,78.0
1622.415,95.0
1623.064,89.0
1623.7131,60.0
1624.3627,93.0
1625.0125,77.0
1625.6625,98.0
1626.3127,91.0
1626.9633,101.0
1627.614,89.0
1628.265,90.0
1628.9163,71.0
1629.5679,108.0
1630.2197,88.0
1630.8718,92.0
1631.5242,86.0
1632.1768,87.0
1632.8296,70.0
1633.4827,100.0
1634.1361,69.0
1634.7898,64.0
1635.4437,87.0
1636.0979,77.0
1636.7523,76.0
1637.407,85.0
1638.0619,74.0
1638.7172,87.0
1639.3727,76.0
1640.0284,82.0
1640.6844,96.0
1641.3407,90.0
1641.9972,79.0
1642.6539,72.0
1643.311,92.0
1643.9684,87.0
1644.626,130.0
1645.2838,136.0
1645.9419,92.0
1646.6002,139.0
1647.2589,82.0
1647.9178,85.0
1648.577,118.0
1649.2365,74.0
1649.8961,61.0
1650.556,98.0
1651.2163,80.0
1651.8768,80.0
1652.5376,90.0
1653.1986,67.0
1653.8599,76.0
1654.5214,94.0
1655.1832,71.0
1655.8453,72.0
1656.5077,115.0
1657.1703,84.0
1657.8331,83.0
1658.4962,78.0
1659.1597,92.0
1659.8234,82.0
1660.4873,96.0
1661.1515,83.0
1661.8159,74.0
1662.4806,83.0
1663.1456,73.0
1663.8109,83.0
1664.4764,93.0
1665.1422,72.0
1665.8082,75.0
1666.4746,97.0
1667.1412,78.0
1667.8081,105.0
1668.4752,96.0
1669.1426,75.0
1669.8102,86.0
1670.4781,76.0
1671.1464,71.0
1671.8148,87.0
1672.4835,85.0
1673.1525,72.0
1673.8218,88.0
1674.4913,86.0
1675.1611,74.0
1675.8312,92.0
1676.5015,84.0
1677.1721,73.0
1677.843,80.0
1678.5142,71.0
1679.1855,88.0
1679.8572,71.0
1680.5292,86.0
1681.2014,68.0
1681.8739,92.0
1682.5466,83.0
1683.2196,91.0
1683.893,88.0
1684.5665,96.0
1685.2404,75.0
1685.9144,85.0
1686.5887,95.0
1687.2634,87.0
1687.9384,88.0
1688.6135,89.0
1689.289,81.0
1689.9646,76.0
1690.6406,92.0
1691.3169,72.0
1691.9934,84.0
1692.6702,83.0
1693.3473,88.0
1694.0247,72.0
1694.7023,74.0
1695.3801,69.0
1696.0582,71.0
1696.7367,66.0
1697.4154,79.0
1698.0944,63.0
1698.7736,73.0
1699.4531,79.0
1700.1329,88.0
1700.813,85.0
1701.4933,81.0
1702.1738,88.0
1702.8547,95.0
1703.5359,66.0
1704.2173,92.0
1704.8989,76.0
1705.5809,85.0
1706.2632,74.0
1706.9457,80.0
1707.6284,83.0
1708.3115,75.0
1708.9949,73.0
1709.6785,77.0
1710.3623,85.0
1711.0465,67.0
1711.731,99.0
1712.4156,72.0
1713.1006,69.0
1713.7858,76.0
1714.4713,96.0
1715.1571,68.0
1715.8431,69.0
1716.5294,75.0
1717.2161,76.0
1717.903,75.0
1718.5901,80.0
1719.2775,81.0
1719.9652,71.0
1720.6532,84.0
1721.3414,91.0
1722.0299,72.0
1722.7188,91.0
1723.4078,78.0
1724.0972,75.0
1724.7869,98.0
1725.4768,74.0
1726.167,67.0
1726.8574,69.0
1727.5482,79.0
1728.2393,82.0
1728.9305,70.0
1729.6221,71.0
1730.314,80.0
1731.0061,81.0
1731.6985,88.0
1732.3911,90.0
1733.0841,69.0
1733.7773,84.0
1734.4708,78.0
1735.1647,79.0
1735.8588,75.0
1736.5531,90.0
1737.2477,71.0
1737.9426,76.0
1738.6378,61.0
1739.3333,58.0
1740.0289,65.0
1740.725,87.0
1741.4213,86.0
1742.1178,73.0
1742.8147,77.0
1743.5118,79.0
1744.2092,84.0
1744.9069,68.0
1745.6049,87.0
1746.3031,77.0
1747.0016,55.0
1747.7004,70.0
1748.3995,84.0
1749.0989,67.0
1749.7985,76.0
1750.4984,79.0
1751.1986,81.0
1751.899,84.0
1752.5999,79.0
1753.3009,81.0
1754.0022,58.0
1754.7039,78.0
1755.4058,63.0
1756.1079,70.0
1756.8103,82.0
1757.5131,79.0
1758.2161,74.0
1758.9193,95.0
1759.6229,79.0
1760.3268,86.0
1761.0309,70.0
1761.7354,86.0
1762.4401,68.0
1763.145,75.0
1763.8502,64.0
1764.5558,75.0
1765.2616,65.0
1765.9677,70.0
1766.6741,76.0
1767.3807,87.0
1768.0876,69.0
1768.7949,78.0
1769.5024,68.0
1770.2102,56.0
1770.9183,75.0
1771.6267,82.0
1772.3353,88.0
1773.0443,57.0
1773.7535,94.0
1774.463,75.0
1775.1729,62.0
1775.8829,85.0
1776.5933,87.0
1777.304,88.0
1778.0149,75.0
1778.7261,83.0
1779.4376,82.0
1780.1494,82.0
1780.8615,71.0
1781.5739,90.0
1782.2865,71.0
1782.9994,78.0
1783.7126,88.0
1784.4261,61.0
1785.1399,63.0
1785.854,74.0
1786.5684,71.0
1787.283,70.0
1787.9979,75.0
1788.7131,89.0
1789.4286,100.0
1790.1444,78.0
1790.8605,62.0
1791.5768,87.0
1792.2935,75.0
1793.0104,63.0
1793.7275,75.0
1794.4451,66.0
1795.1628,89.0
1795.8809,74.0
1796.5992,63.0
1797.3179,86.0
1798.0367,98.0
1798.756,80.0
1799.4755,63.0
1800.1953,72.0
1800.9154,85.0
1801.6357,75.0
1802.3564,75.0
1803.0774,59.0
1803.7986,87.0
1804.5201,87.0
1805.242,84.0
1805.964,72.0
1806.6864,78.0
1807.409,89.0
1808.1321,87.0
1808.8553,70.0
1809.5789,87.0
1810.3027,89.0
1811.0269,84.0
1811.7512,79.0
1812.476,81.0
1813.2009,57.0
1813.9261,76.0
1814.6517,94.0
1815.3776,90.0
1816.1038,66.0
1816.8302,73.0
1817.5569,79.0
1818.2839,92.0
1819.0112,87.0
1819.7389,84.0
1820.4668,52.0
1821.195,70.0
1821.9235,79.0
1822.6522,86.0
1823.3812,59.0
1824.1106,69.0
1824.8402,84.0
1825.5702,79.0
1826.3004,62.0
1827.0309,65.0
1827.7617,79.0
1828.4928,75.0
1829.2242,70.0
1829.9559,93.0
1830.6879,86.0
1831.4202,71.0
1832.1527,85.0
1832.8856,70.0
1833.6188,76.0
1834.3522,70.0
1835.0859,72.0
1835.82,81.0
1836.5543,79.0
1837.289,83.0
1838.0238,78.0
1838.759,96.0
1839.4945,80.0
1840.2303,74.0
1840.9664,86.0
1841.7028,90.0
1842.4395,100.0
1843.1764,74.0
1843.9137,63.0
1844.6512,74.0
1845.3892,72.0
1846.1273,80.0
1846.8657,83.0
1847.6045,76.0
1848.3435,85.0
1849.0829,79.0
1849.8225,84.0
1850.5624,91.0
1851.3026,82.0
1852.0431,87.0
1852.7839,84.0
1853.525,94.0
1854.2665,66.0
1855.0082,65.0
1855.7501,85.0
1856.4924,94.0
1857.235,79.0
1857.9779,84.0
1858.7211,101.0
1859.4646,109.0
1860.2084,74.0
1860.9525,76.0
1861.6969,76.0
1862.4415,96.0
1863.1865,70.0
1863.9318,64.0
1864.6774,73.0
1865.4232,84.0
1866.1694,77.0
1866.9159,76.0
1867.6627,88.0
1868.4098,69.0
1869.1571,78.0
1869.9048,64.0
1870.6527,85.0
1871.401,83.0
1872.1495,95.0
1872.8984,73.0
1873.6476,75.0
1874.3971,88.0
1875.1469,84.0
1875.8969,127.0
1876.6472,122.0
1877.3978,104.0
1878.1488,80.0
1878.9,72.0
1879.6516,82.0
1880.4034,71.0
1881.1556,57.0
1881.9081,83.0
1882.6609,89.0
1883.414,69.0
1884.1674,78.0
1884.921,140.0
1885.675,169.0
1886.4293,140.0
1887.1838,76.0
1887.9387,98.0
1888.6938,99.0
1889.4493,86.0
1890.2051,65.0
1890.9612,77.0
1891.7175,77.0
1892.4742,81.0
1893.2312,67.0
1893.9885,80.0
1894.7461,84.0
1895.504,75.0
1896.2622,96.0
1897.0208,87.0
1897.7795,99.0
1898.5387,80.0
1899.2981,73.0
1900.0579,75.0
1900.8179,66.0
1901.5782,81.0
1902.3389,65.0
1903.0999,82.0
1903.8611,98.0
1904.6227,88.0
1905.3845,74.0
1906.1467,70.0
1906.9092,76.0
1907.672,81.0
1908.435,85.0
1909.1985,73.0
1909.9622,67.0
1910.7262,66.0
1911.4905,91.0
1912.2551,86.0
1913.02,85.0
1913.7853,210.0
1914.5508,223.0
1915.3167,127.0
1916.0828,149.0
1916.8492,110.0
1917.616,86.0
1918.383,85.0
1919.1504,69.0
1919.9181,73.0
1920.686,83.0
1921.4543,88.0
1922.2229,76.0
1922.9918,68.0
1923.761,66.0
1924.5305,87.0
1925.3003,77.0
1926.0704,74.0
1926.8408,70.0
1927.6116,77.0
1928.3826,82.0
1929.1539,74.0
1929.9255,78.0
1930.6975,70.0
1931.4698,76.0
1932.2424,76.0
1933.0154,67.0
1933.7886,100.0
1934.5621,67.0
1935.3359,71.0
1936.1101,78.0
1936.8845,94.0
1937.6593,86.0
1938.4343,98.0
1939.2097,88.0
1939.9854,75.0
1940.7614,81.0
1941.5376,64.0
1942.3142,79.0
1943.0912,74.0
1943.8684,66.0
1944.646,73.0
1945.4238,67.0
1946.202,82.0
1946.9805,86.0
1947.7593,76.0
1948.5383,77.0
1949.3177,83.0
1950.0975,70.0
1950.8776,77.0
1951.658,66.0
1952.4386,87.0
1953.2196,67.0
1954.0009,79.0
1954.7825,80.0
1955.5643,83.0
1956.3466,76.0
1957.1292,57.0
1957.912,62.0
1958.6952,60.0
1959.4786,68.0
1960.2625,60.0
1961.0465,77.0
1961.8309,69.0
1962.6157,86.0
1963.4008,60.0
1964.1862,72.0
1964.9718,64.0
1965.7578,71.0
1966.5441,78.0
1967.3307,84.0
1968.1177,71.0
1968.9049,85.0
1969.6925,95.0
1970.4803,81.0
1971.2686,98.0
1972.057,64.0
1972.8458,73.0
1973.635,77.0
1974.4244,81.0
1975.2142,71.0
1976.0043,73.0
1976.7947,75.0
1977.5854,72.0
1978.3765,73.0
1979.1678,65.0
1979.9595,66.0
1980.7515,72.0
1981.5438,74.0
1982.3364,80.0
1983.1294,79.0
1983.9226,86.0
1984.7162,86.0
1985.5101,61.0
1986.3043,64.0
1987.0989,67.0
1987.8937,84.0
1988.6888,71.0
1989.4844,66.0
1990.2802,74.0
1991.0763,78.0
1991.8727,91.0
1992.6694,90.0
1993.4666,92.0
1994.2639,86.0
1995.0616,82.0
1995.8596,95.0
1996.658,86.0
1997.4567,68.0
1998.2556,62.0
1999.0549,74.0
1999.8546,84.0
2000.6545,76.0
2001.4548,66.0
2002.2554,53.0
2003.0563,80.0
2003.8575,68.0
2004.659,90.0
2005.4609,64.0
2006.2631,81.0
2007.0656,67.0
2007.8684,81.0
2008.6715,82.0
2009.475,100.0
2010.2788,73.0
2011.0829,91.0
2011.8873,95.0
2012.6921,123.0
2013.4972,108.0
2014.3026,90.0
2015.1083,98.0
2015.9143,72.0
2016.7207,78.0
2017.5273,67.0
2018.3344,84.0
2019.1417,77.0
2019.9493,83.0
2020.7573,72.0
2021.5657,73.0
2022.3743,85.0
2023.1832,73.0
2023.9926,72.0
2024.8021,80.0
2025.612,86.0
2026.4224,73.0
2027.2329,96.0
2028.0438,88.0
2028.855,90.0
2029.6665,104.0
2030.4784,84.0
2031.2905,72.0
2032.103,78.0
2032.9159,86.0
2033.729,76.0
2034.5425,91.0
2035.3563,81.0
2036.1704,65.0
2036.9849,99.0
2037.7997,77.0
2038.6147,70.0
2039.4302,70.0
2040.246,61.0
2041.062,83.0
2041.8784,88.0
2042.6952,82.0
2043.5123,90.0
2044.3297,84.0
2045.1475,61.0
2045.9656,75.0
2046.7839,80.0
2047.6027,87.0
2048.4216,71.0
2049.241,69.0
2050.0605,84.0
2050.8806,82.0
2051.701,103.0
2052.5217,109.0
2053.3428,86.0
2054.164,69.0
2054.9858,77.0
2055.8079,89.0
2056.6301,84.0
2057.453,72.0
2058.276,73.0
2059.099,75.0
2059.9229,70.0
2060.7468,83.0
2061.571,67.0
2062.3958,81.0
2063.2207,65.0
2064.046,92.0
2064.8716,89.0
2065.6975,84.0
2066.5237,80.0
2067.3503,89.0
2068.1772,72.0
2069.0046,62.0
2069.8323,89.0
2070.6602,89.0
2071.4885,74.0
2072.3171,66.0
2073.146,76.0
2073.9753,87.0
2074.805,89.0
2075.6348,63.0
2076.465,63.0
2077.2957,78.0
2078.1265,69.0
2078.9578,72.0
2079.7893,70.0
2080.6213,89.0
2081.4536,94.0
2082.2861,87.0
2083.1191,89.0
2083.9524,93.0
2084.786,92.0
2085.6199,86.0
2086.454,78.0
2087.2886,89.0
2088.1235,66.0
2088.9587,81.0
2089.7944,78.0
2090.6304,78.0
2091.4666,79.0
2092.3032,69.0
2093.1401,62.0
2093.9773,87.0
2094.815,74.0
2095.6528,79.0
2096.4912,85.0
2097.3298,84.0
2098.1687,64.0
2099.008,73.0
2099.8477,85.0
2100.6875,69.0
2101.5278,74.0
2102.3684,68.0
2103.2095,71.0
2104.0508,76.0
2104.8923,73.0
2105.7344,82.0
2106.5767,78.0
2107.4192,62.0
2108.2622,79.0
2109.1055,69.0
2109.9492,78.0
2110.7932,83.0
2111.6375,72.0
2112.4822,83.0
2113.3271,81.0
2114.1724,82.0
2115.018,77.0
2115.864,76.0
2116.7104,79.0
2117.5571,77.0
2118.404,88.0
2119.2515,52.0
2120.099,81.0
2120.9473,71.0
2121.7957,81.0
2122.6443,77.0
2123.4934,76.0
2124.3428,90.0
2125.1926,78.0
2126.0427,63.0
2126.893,65.0
2127.744,68.0
2128.595,73.0
2129.4463,67.0
2130.298,84.0
2131.1501,69.0
2132.0027,73.0
2132.8555,76.0
2133.7085,93.0
2134.562,67.0
2135.4158,75.0
2136.27,70.0
2137.1245,80.0
2137.9792,66.0
2138.8345,79.0
2139.69,77.0
2140.546,88.0
2141.402,90.0
2142.2585,80.0
2143.1155,121.0
2143.9727,73.0
2144.8303,85.0
2145.6882,82.0
2146.5464,88.0
2147.405,54.0
2148.264,73.0
2149.1233,67.0
2149.983,84.0
2150.843,88.0
2151.7034,75.0
2152.564,67.0
2153.425,61.0
2154.2864,96.0
2155.1482,81.0
2156.0103,74.0
2156.8726,68.0
2157.7354,78.0
2158.5984,80.0
2159.462,76.0
2160.3257,80.0
2161.1897,85.0
2162.0542,68.0
2162.919,84.0
2163.7842,92.0
2164.6497,76.0
2165.5156,80.0
2166.3818,70.0
2167.2483,83.0
2168.1152,79.0
2168.9824,96.0
2169.85,83.0
2170.718,90.0
2171.5864,87.0
2172.455,88.0
2173.324,70.0
2174.1934,85.0
2175.063,71.0
2175.933,87.0
2176.8035,82.0
2177.674,79.0
2178.5452,85.0
2179.4165,90.0
2180.2883,88.0
2181.1604,87.0
2182.033,77.0
2182.9058,80.0
2183.7788,99.0
2184.6523,95.0
2185.5261,87.0
2186.4004,73.0
2187.275,85.0
2188.15,82.0
2189.0251,64.0
2189.9006,83.0
2190.7766,75.0
2191.6528,75.0
2192.5295,87.0
2193.4065,88.0
2194.284,90.0
2195.1616,96.0
2196.0398,97.0
2196.9182,102.0
2197.7969,80.0
2198.676,79.0
2199.5554,72.0
2200.4353,84.0
2201.3154,68.0
2202.196,87.0
2203.077,81.0
2203.9583,66.0
2204.8398,103.0
2205.7217,98.0
2206.604,82.0
2207.4866,98.0
2208.3696,84.0
2209.253,94.0
2210.1367,88.0
2211.0208,111.0
2211.9053,87.0
2212.79,90.0
2213.675,97.0
2214.5605,106.0
2215.4463,93.0
2216.3325,96.0
2217.219,91.0
2218.106,92.0
2218.9932,80.0
2219.8809,79.0
2220.7688,108.0
2221.6572,68.0
2222.546,79.0
2223.4348,81.0
2224.3242,84.0
2225.2139,98.0
2226.104,92.0
2226.9944,84.0
2227.8853,81.0
2228.7764,98.0
2229.668,83.0
2230.5598,80.0
2231.4521,108.0
2232.3447,100.0
2233.2375,88.0
2234.1309,91.0
2235.0244,96.0
2235.9185,90.0
2236.8127,99.0
2237.7075,82.0
2238.6025,94.0
2239.498,99.0
2240.3938,70.0
2241.29,78.0
2242.1865,90.0
2243.0835,112.0
2243.9807,84.0
2244.8784,99.0
2245.7764,95.0
2246.6746,84.0
2247.5732,91.0
2248.4722,87.0
2249.3716,119.0
2250.2712,84.0
2251.1714,114.0
2252.0718,94.0
2252.9727,116.0
2253.8738,95.0
2254.7754,120.0
2255.6772,107.0
2256.5796,110.0
2257.4822,117.0
2258.3853,103.0
2259.2886,101.0
2260.1924,106.0
2261.0964,96.0
2262.001,109.0
2262.9058,110.0
2263.811,98.0
2264.7166,103.0
2265.6226,107.0
2266.5288,101.0
2267.4353,116.0
2268.3423,99.0
2269.2495,81.0
2270.1572,97.0
2271.0652,109.0
2271.9736,105.0
2272.8823,126.0
2273.7915,96.0
2274.701,94.0
2275.6108,119.0
2276.521,142.0
2277.4316,135.0
2278.3425,91.0
2279.254,99.0
2280.1655,113.0
2281.0776,133.0
2281.99,116.0
2282.9028,108.0
2283.816,97.0
2284.7295,119.0
2285.6433,121.0
2286.5576,107.0
2287.4722,111.0
2288.3872,105.0
2289.3025,144.0
2290.2183,109.0
2291.1343,117.0
2292.0508,105.0
2292.9675,126.0
2293.8848,150.0
2294.8022,150.0
2295.7202,126.0
2296.6384,128.0
2297.5571,130.0
2298.476,124.0
2299.3955,124.0
2300.3152,126.0
2301.2354,110.0
2302.1558,122.0
2303.0767,108.0
2303.9978,109.0
2304.9194,120.0
2305.8413,121.0
2306.7637,125.0
2307.6863,150.0
2308.6094,132.0
2309.5327,136.0
2310.4565,120.0
2311.3806,127.0
2312.3052,119.0
2313.23,141.0
2314.1553,121.0
2315.081,128.0
2316.007,126.0
2316.9336,116.0
2317.8604,115.0
2318.7876,134.0
2319.715,132.0
2320.643,114.0
2321.5713,134.0
2322.5,124.0
2323.429,113.0
2324.3584,138.0
2325.288,128.0
2326.2183,133.0
2327.1487,120.0
2328.0796,140.0
2329.0107,120.0
2329.9424,117.0
2330.8743,108.0
2331.8066,131.0
2332.7393,124.0
2333.6724,120.0
2334.6057,123.0
2335.5396,133.0
2336.4739,106.0
2337.4084,112.0
2338.3435,122.0
2339.2788,121.0
2340.2146,115.0
2341.1506,93.0
2342.0872,112.0
2343.024,111.0
2343.9612,111.0
2344.8987,124.0
2345.8367,121.0
2346.775,99.0
2347.7136,118.0
2348.6526,110.0
2349.592,108.0
2350.532,111.0
2351.4722,94.0
2352.4128,104.0
2353.3538,79.0
2354.2952,114.0
2355.2368,104.0
2356.179,104.0
2357.1213,83.0
2358.0642,92.0
2359.0073,75.0
2359.951,91.0
2360.895,105.0
2361.8394,106.0
2362.7842,98.0
2363.7292,90.0
2364.6748,106.0
2365.6206,111.0
2366.567,114.0
2367.5134,102.0
2368.4604,100.0
2369.4077,111.0
2370.3555,93.0
2371.3037,91.0
2372.2522,88.0
2373.2012,96.0
2374.1504,92.0
2375.1,74.0
2376.05,99.0
2377.0005,91.0
2377.9512,83.0
2378.9023,93.0
2379.854,87.0
2380.806,89.0
2381.7583,92.0
2382.711,91.0
2383.664,83.0
2384.6174,97.0
2385.5713,76.0
2386.5256,86.0
2387.4802,106.0
2388.4353,128.0
2389.3906,83.0
2390.3464,87.0
2391.3025,89.0
2392.259,97.0
2393.2158,75.0
2394.173,89.0
2395.1309,83.0
2396.0889,76.0
2397.0474,95.0
2398.006,86.0
2398.9653,86.0
2399.9248,99.0
2400.8848,67.0
2401.8452,91.0
2402.806,91.0
2403.767,87.0
2404.7285,98.0
2405.6904,87.0
2406.6526,80.0
2407.6152,72.0
2408.5784,72.0
2409.5417,85.0
2410.5056,86.0
2411.4697,94.0
2412.4343,77.0
2413.3994,76.0
2414.3647,77.0
2415.3306,84.0
2416.2966,64.0
2417.2632,83.0
2418.23,83.0
2419.1973,70.0
2420.165,79.0
2421.133,83.0
2422.1016,68.0
2423.0703,77.0
2424.0396,91.0
2425.0093,80.0
2425.9792,79.0
2426.9497,67.0
2427.9204,87.0
2428.8916,82.0
2429.863,77.0
2430.835,74.0
2431.8074,85.0
2432.78,87.0
2433.7532,85.0
2434.7266,100.0
2435.7004,90.0
2436.6748,84.0
2437.6494,76.0
2438.6245,59.0
2439.5999,86.0
2440.5757,79.0
2441.552,68.0
2442.5286,69.0
2443.5056,92.0
2444.483,83.0
2445.4607,75.0
2446.439,78.0
2447.4175,84.0
2448.3965,91.0
2449.3757,75.0
2450.3555,67.0
2451.3357,87.0
2452.3162,87.0
2453.297,72.0
2454.2783,71.0
2455.26,87.0
2456.2422,77.0
2457.2246,85.0
2458.2075,64.0
2459.191,63.0
2460.1746,69.0
2461.1587,74.0
2462.143,74.0
2463.128,77.0
2464.1133,85.0
2465.0989,84.0
2466.085,70.0
2467.0713,81.0
2468.058,75.0
2469.0454,93.0
2470.033,87.0
2471.021,70.0
2472.0095,85.0
2472.9983,77.0
2473.9875,87.0
2474.977,68.0
2475.967,80.0
2476.9575,69.0
2477.9482,73.0
2478.9395,76.0
2479.931,75.0
2480.9229,70.0
2481.9153,84.0
2482.908,74.0
2483.9011,74.0
2484.8948,86.0
2485.8887,64.0
2486.883,97.0
2487.878,97.0
2488.873,68.0
2489.8687,79.0
2490.8645,64.0
2491.8608,81.0
2492.8577,72.0
2493.8547,96.0
2494.8523,79.0
2495.8503,96.0
2496.8486,91.0
2497.8474,67.0
2498.8464,91.0
2499.846,91.0
2500.846,80.0
2501.8462,85.0
2502.847,81.0
2503.8481,89.0
2504.8496,65.0
2505.8516,63.0
2506.854,69.0
2507.8567,69.0
2508.8599,80.0
2509.8635,73.0
2510.8674,81.0
2511.8718,86.0
2512.8765,79.0
2513.8816,70.0
2514.8872,87.0
2515.893,74.0
2516.8994,77.0
2517.9062,83.0
2518.9133,79.0
2519.921,86.0
2520.929,65.0
2521.9373,98.0
2522.946,69.0
2523.9553,73.0
2524.9648,78.0
2525.9749,77.0
2526.9854,68.0
2527.996,81.0
2529.0073,84.0
2530.019,90.0
2531.031,67.0
2532.0435,95.0
2533.0562,73.0
2534.0693,85.0
2535.083,82.0
2536.097,66.0
2537.1113,79.0
2538.1262,79.0
2539.1414,85.0
2540.157,85.0
2541.173,90.0
2542.1895,75.0
2543.2063,77.0
2544.2236,55.0
2545.2412,99.0
2546.2593,49.0
2547.2778,71.0
2548.2966,97.0
2549.316,95.0
2550.3357,80.0
2551.3557,77.0
2552.3762,77.0
2553.3972,80.0
2554.4185,79.0
2555.4402,71.0
2556.4624,71.0
2557.485,58.0
2558.508,78.0
2559.5315,67.0
2560.5554,88.0
2561.5796,83.0
2562.6042,82.0
2563.6294,67.0
2564.6548,84.0
2565.6807,86.0
2566.707,76.0
2567.7336,80.0
2568.7607,101.0
2569.7883,58.0
2570.8162,73.0
2571.8445,62.0
2572.8733,80.0
2573.9023,83.0
2574.932,60.0
2575.962,88.0
2576.9922,78.0
2578.023,97.0
2579.0542,95.0
2580.086,68.0
2581.118,80.0
2582.1504,55.0
2583.1833,83.0
2584.2166,82.0
2585.2502,82.0
2586.2844,83.0
2587.3188,82.0
2588.3538,65.0
2589.3892,63.0
2590.4248,79.0
2591.461,93.0
2592.4976,80.0
2593.5347,81.0
2594.572,72.0
2595.6099,91.0
2596.6482,76.0
2597.6868,71.0
2598.7258,78.0
2599.7654,84.0
2600.8052,72.0
2601.8455,77.0
2602.8862,74.0
2603.9275,76.0
2604.969,71.0
2606.011,62.0
2607.0535,83.0
2608.0962,88.0
2609.1394,99.0
2610.183,93.0
2611.2273,85.0
2612.2717,81.0
2613.3167,84.0
2614.362,80.0
2615.4077,76.0
2616.4539,70.0
2617.5005,90.0
2618.5476,70.0
2619.595,85.0
2620.6428,83.0
2621.6912,62.0
2622.7397,76.0
2623.7888,89.0
2624.8384,71.0
2625.8884,89.0
2626.9387,71.0
2627.9895,75.0
2629.0408,71.0
2630.0923,96.0
2631.1443,73.0
2632.1968,73.0
2633.2498,90.0
2634.303,77.0
2635.3567,81.0
2636.411,73.0
2637.4653,72.0
2638.5203,83.0
2639.5757,77.0
2640.6316,80.0
2641.6877,84.0
2642.7444,85.0
2643.8015,86.0
2644.8591,77.0
2645.917,69.0
2646.9753,83.0
2648.0342,70.0
2649.0935,98.0
2650.153,67.0
2651.2131,73.0
2652.2737,69.0
2653.3345,73.0
2654.3958,64.0
2655.4575,58.0
2656.5198,74.0
2657.5823,69.0
2658.6453,85.0
2659.7087,76.0
2660.7727,80.0
2661.837,91.0
2662.9016,85.0
2663.9668,64.0
2665.0325,98.0
2666.0984,70.0
2667.1648,78.0
2668.2317,75.0
2669.299,78.0
2670.3667,78.0
2671.4348,73.0
2672.5034,75.0
2673.5725,73.0
2674.6418,71.0
2675.7117,81.0
2676.782,88.0
2677.8528,78.0
2678.9238,79.0
2679.9954,73.0
2681.0674,65.0
2682.14,80.0
2683.2126,87.0
2684.286,85.0
2685.3596,79.0
2686.4338,78.0
2687.5083,73.0
2688.5833,94.0
2689.6587,72.0
2690.7346,69.0
2691.8108,81.0
2692.8875,80.0
2693.9646,78.0
2695.0422,81.0
2696.1204,83.0
2697.1987,80.0
2698.2776,74.0
2699.357,89.0
2700.4368,78.0
2701.5168,73.0
2702.5974,88.0
2703.6785,76.0
2704.76,89.0
2705.8418,87.0
2706.924,88.0
2708.0068,86.0
2709.09,85.0
2710.1738,74.0
2711.2578,76.0
2712.3423,71.0
2713.4272,73.0
2714.5127,72.0
2715.5984,76.0
2716.6846,78.0
2717.7712,63.0
2718.8584,71.0
2719.946,54.0
2721.034,82.0
2722.1223,91.0
2723.2112,112.0
2724.3005,123.0
2725.3901,82.0
2726.4802,84.0
2727.5708,72.0
2728.6619,81.0
2729.7534,83.0
2730.8452,83.0
2731.9375,99.0
2733.0303,80.0
2734.1235,81.0
2735.2173,125.0
2736.3113,133.0
2737.4058,97.0
2738.5007,76.0
2739.5962,76.0
2740.6921,71.0
2741.7883,68.0
2742.885,64.0
2743.9822,88.0
2745.0798,85.0
2746.178,67.0
2747.2764,77.0
2748.3752,82.0
2749.4746,83.0
2750.5745,78.0
2751.6748,78.0
2752.7754,63.0
2753.8765,68.0
2754.978,92.0
2756.08,87.0
2757.1826,51.0
2758.2854,92.0
2759.3887,64.0
2760.4924,96.0
2761.5967,78.0
2762.7014,72.0
2763.8064,69.0
2764.9119,76.0
2766.0178,76.0
2767.1243,69.0
2768.2312,88.0
2769.3384,78.0
2770.446,69.0
2771.5542,80.0
2772.6628,75.0
2773.772,58.0
2774.8816,76.0
2775.9915,75.0
2777.1018,76.0
2778.2126,72.0
2779.324,83.0
2780.4358,85.0
2781.5479,64.0
2782.6604,91.0
2783.7734,88.0
2784.887,76.0
2786.001,93.0
2787.1155,73.0
2788.2302,64.0
2789.3455,91.0
2790.4612,79.0
2791.5774,90.0
2792.694,70.0
2793.8113,117.0
2794.9287,125.0
2796.0466,135.0
2797.165,114.0
2798.284,127.0
2799.4033,116.0
2800.5232,105.0
2801.6433,108.0
2802.764,94.0
2803.885,101.0
2805.0066,106.0
2806.1287,104.0
2807.2512,97.0
2808.374,119.0
2809.4973,100.0
2810.621,92.0
2811.7454,111.0
2812.87,84.0
2813.9954,110.0
2815.1208,78.0
2816.2468,110.0
2817.3733,102.0
2818.5002,106.0
2819.6277,93.0
2820.7556,118.0
2821.884,104.0
2823.0127,89.0
2824.1418,89.0
2825.2715,100.0
2826.4016,110.0
2827.5322,101.0
2828.6633,97.0
2829.7947,109.0
2830.9265,117.0
2832.0588,96.0
2833.1917,103.0
2834.325,99.0
2835.4587,119.0
2836.593,102.0
2837.7275,112.0
2838.8625,116.0
2839.998,125.0
2841.134,91.0
2842.2705,98.0
2843.4075,96.0
2844.545,103.0
2845.6829,122.0
2846.821,122.0
2847.9597,105.0
2849.0989,103.0
2850.2385,111.0
2851.3787,124.0
2852.5193,88.0
2853.6604,118.0
2854.8018,96.0
2855.9436,101.0
2857.086,96.0
2858.2288,128.0
2859.372,110.0
2860.5159,118.0
2861.6602,121.0
2862.805,87.0
2863.95,118.0
2865.0955,96.0
2866.2415,119.0
2867.388,118.0
2868.535,91.0
2869.6824,105.0
2870.8303,110.0
2871.9788,95.0
2873.1274,98.0
2874.2766,102.0
2875.4263,107.0
2876.5764,96.0
2877.727,108.0
2878.8782,97.0
2880.0298,88.0
2881.182,101.0
2882.3345,108.0
2883.4873,99.0
2884.6406,100.0
2885.7944,115.0
2886.9487,105.0
2888.1035,124.0
2889.2588,118.0
2890.4146,115.0
2891.5708,127.0
2892.7275,99.0
2893.8845,88.0
2895.042,105.0
2896.2,96.0
2897.3584,90.0
2898.5173,106.0
2899.6768,101.0
2900.8367,108.0
2901.997,82.0
2903.158,111.0
2904.3193,125.0
2905.481,125.0
2906.643,119.0
2907.8057,143.0
2908.9688,108.0
2910.1323,98.0
2911.2964,125.0
2912.461,107.0
2913.626,93.0
2914.7915,83.0
2915.9575,101.0
2917.124,103.0
2918.2908,99.0
2919.458,85.0
2920.6257,106.0
2921.794,144.0
2922.9626,129.0
2924.1318,129.0
2925.3015,129.0
2926.4717,107.0
2927.6423,96.0
2928.8135,95.0
2929.985,88.0
2931.157,92.0
2932.3293,130.0
2933.5022,117.0
2934.6755,99.0
2935.8494,100.0
2937.0237,92.0
2938.1985,105.0
2939.3738,102.0
2940.5496,125.0
2941.7258,131.0
2942.9026,93.0
2944.0798,103.0
2945.2576,100.0
2946.4358,95.0
2947.6143,106.0
2948.7932,83.0
2949.9727,113.0
2951.1526,131.0
2952.333,107.0
2953.514,123.0
2954.6953,93.0
2955.8772,92.0
2957.0596,97.0
2958.2424,104.0
2959.4258,116.0
2960.6096,89.0
2961.794,90.0
2962.9788,97.0
2964.164,94.0
2965.3496,103.0
2966.5356,91.0
2967.7222,97.0
2968.9092,92.0
2970.0967,105.0
2971.2847,103.0
2972.4731,91.0
2973.662,97.0
2974.8516,99.0
2976.0415,95.0
2977.232,106.0
2978.4229,124.0
2979.6143,104.0
2980.8062,101.0
2981.9985,106.0
2983.1914,97.0
2984.3848,98.0
2985.5786,100.0
2986.773,100.0
2987.9678,88.0
2989.1628,106.0
2990.3584,80.0
2991.5544,95.0
2992.751,97.0
2993.948,106.0
2995.1455,113.0
2996.3435,109.0
2997.542,105.0
2998.741,113.0
2999.9404,94.0
3001.1404,98.0
3002.3408,107.0
3003.5417,99.0
3004.7432,106.0
3005.945,107.0
3007.1475,108.0
3008.3503,111.0
3009.5537,118.0
3010.7576,101.0
3011.962,92.0
3013.1667,107.0
3014.372,113.0
3015.578,91.0
3016.7842,103.0
3017.991,81.0
3019.1982,95.0
3020.406,131.0
3021.6143,119.0
3022.823,99.0
3024.0322,98.0
3025.242,85.0
3026.4521,110.0
3027.6628,88.0
3028.874,85.0
3030.0857,104.0
3031.2976,123.0
3032.51,100.0
3033.723,112.0
3034.9363,85.0
3036.1501,97.0
3037.3645,102.0
3038.5793,108.0
3039.7947,108.0
3041.0105,85.0
3042.2268,107.0
3043.4436,84.0
3044.661,124.0
3045.8787,107.0
3047.097,95.0
3048.3157,94.0
3049.535,102.0
3050.7546,102.0
3051.9749,79.0
3053.1956,105.0
3054.4167,120.0
3055.6384,95.0
3056.8606,103.0
3058.0833,98.0
3059.3064,92.0
3060.53,90.0
3061.7542,96.0
3062.9788,99.0
3064.2039,102.0
3065.4294,97.0
3066.6555,92.0
3067.882,111.0
3069.1091,101.0
3070.3367,109.0
3071.5647,107.0
3072.7932,96.0
3074.0222,79.0
3075.2517,104.0
3076.4817,120.0
3077.7124,125.0
3078.9436,100.0
3080.1753,121.0
3081.4075,121.0
3082.6401,119.0
3083.8733,110.0
3085.107,104.0
3086.341,127.0
3087.5757,96.0
3088.8108,87.0
3090.0464,101.0
3091.2825,111.0
3092.519,85.0
3093.756,91.0
3094.9937,92.0
3096.2317,105.0
3097.4702,97.0
3098.7092,109.0
3099.9487,96.0
3101.1887,97.0
3102.4292,99.0
3103.6702,96.0
3104.9116,94.0
3106.1536,97.0
3107.396,103.0
3108.639,118.0
3109.8823,98.0
3111.1262,110.0
3112.3706,105.0
3113.6155,94.0
3114.8608,89.0
3116.1067,99.0
3117.353,101.0
3118.5999,102.0
3119.8474,95.0
3121.0955,112.0
3122.344,109.0
3123.593,92.0
3124.8425,104.0
3126.0925,110.0
3127.343,86.0
3128.594,122.0
3129.8455,101.0
3131.0974,87.0
3132.3499,123.0
3133.6028,92.0
3134.8562,87.0
3136.11,81.0
3137.3645,103.0
3138.6194,98.0
3139.8748,90.0
3141.1306,95.0
3142.387,107.0
3143.6438,102.0
3144.9014,107.0
3146.1594,126.0
3147.418,117.0
3148.677,95.0
3149.9365,91.0
3151.1965,81.0
3152.457,109.0
3153.718,107.0
3154.9795,102.0
3156.2415,117.0
3157.504,115.0
3158.7668,108.0
3160.0303,87.0
3161.2942,104.0
3162.5586,114.0
3163.8237,85.0
3165.0894,87.0
3166.3555,110.0
3167.622,132.0
3168.8892,93.0
3170.1567,119.0
3171.4248,101.0
3172.6934,102.0
3173.9624,106.0
3175.232,111.0
3176.502,126.0
3177.7725,109.0
3179.0435,110.0
3180.3152,106.0
3181.5874,103.0
3182.86,101.0
3184.1333,108.0
3185.407,116.0
3186.6812,99.0
3187.9558,80.0
3189.231,99.0
3190.5066,133.0
3191.7827,115.0
3193.0593,134.0
3194.3367,123.0
3195.6145,108.0
3196.8928,98.0
3198.1716,111.0
3199.451,109.0
3200.7307,117.0
3202.011,95.0
3203.2917,108.0
3204.573,111.0
3205.8547,114.0
3207.137,95.0
3208.42,95.0
3209.7034,99.0
3210.9873,119.0
3212.2717,118.0
3213.5566,103.0
3214.842,94.0
3216.128,100.0
3217.4143,121.0
3218.7012,114.0
3219.9888,101.0
3221.2769,106.0
3222.5654,105.0
3223.8545,133.0
3225.144,118.0
3226.434,102.0
3227.7246,114.0
3229.0156,91.0
3230.3071,105.0
3231.5994,90.0
3232.892,117.0
3234.1853,89.0
3235.479,134.0
3236.7732,93.0
3238.0679,97.0
3239.363,103.0
3240.6587,105.0
3241.9548,106.0
3243.2517,101.0
3244.549,109.0
3245.847,102.0
3247.1453,93.0
3248.444,102.0
3249.7434,92.0
3251.0432,95.0
3252.3438,96.0
3253.6448,109.0
3254.9463,94.0
3256.2483,102.0
3257.5508,128.0
3258.8538,124.0
3260.1572,109.0
3261.4612,91.0
3262.7659,100.0
3264.071,90.0
3265.3767,92.0
3266.6829,114.0
3267.9895,97.0
3269.2966,96.0
3270.6042,113.0
3271.9126,108.0
3273.2214,100.0
3274.5308,110.0
3275.8406,96.0
3277.151,84.0
3278.4617,115.0
3279.773,110.0
3281.085,79.0
3282.3975,108.0
3283.7104,94.0
3285.024,107.0
3286.338,115.0
3287.6523,132.0
3288.9673,124.0
3290.283,87.0
3291.599,116.0
3292.9158,111.0
3294.233,117.0
3295.5505,94.0
3296.8687,99.0
3298.1875,89.0
3299.5068,104.0
3300.8267,105.0
3302.147,79.0
3303.4678,88.0
3304.789,98.0
3306.111,107.0
3307.4336,113.0
3308.7566,99.0
3310.08,105.0
3311.404,103.0
3312.7285,130.0
3314.0537,120.0
3315.3794,100.0
3316.7056,110.0
3318.0322,89.0
3319.3594,88.0
3320.687,122.0
3322.0154,89.0
3323.3442,101.0
3324.6736,115.0
3326.0034,88.0
3327.3337,114.0
3328.6648,114.0
3329.9963,110.0
3331.3284,104.0
3332.661,100.0
3333.994,118.0
3335.3274,102.0
3336.6616,123.0
3337.9963,119.0
3339.3315,119.0
3340.6672,109.0
3342.0034,109.0
3343.3403,116.0
3344.6777,98.0
3346.0156,98.0
3347.354,88.0
3348.6929,107.0
3350.0322,138.0
3351.3723,113.0
3352.713,121.0
3354.054,111.0
3355.3955,83.0
3356.7375,100.0
3358.0803,103.0
3359.4236,118.0
3360.7673,120.0
3362.1116,83.0
3363.4563,127.0
3364.8018,120.0
3366.1477,113.0
3367.4941,125.0
3368.841,138.0
3370.1887,100.0
3371.5369,129.0
3372.8855,122.0
3374.2346,93.0
3375.5842,107.0
3376.9346,110.0
3378.2854,94.0
3379.6367,99.0
3380.9885,111.0
3382.3408,111.0
3383.6938,126.0
3385.0474,109.0
3386.4014,112.0
3387.7559,145.0
3389.1108,104.0
3390.4666,115.0
3391.8228,121.0
3393.1794,124.0
3394.5366,119.0
3395.8945,109.0
3397.253,118.0
3398.6118,119.0
3399.9712,109.0
3401.3313,101.0
3402.692,128.0
3404.053,117.0
3405.4146,139.0
3406.7766,91.0
3408.1394,116.0
3409.5027,110.0
3410.8665,123.0
3412.2307,145.0
3413.5957,153.0
3414.9612,133.0
3416.3271,127.0
3417.6936,112.0
3419.0608,133.0
3420.4285,137.0
3421.7966,132.0
3423.1653,120.0
3424.5347,110.0
3425.9045,115.0
3427.275,105.0
3428.6458,115.0
3430.017,123.0
3431.3892,125.0
3432.7617,104.0
3434.1348,123.0
3435.5083,124.0
3436.8826,105.0
3438.2573,111.0
3439.6326,107.0
3441.0083,106.0
3442.3848,113.0
3443.7617,101.0
3445.1392,92.0
3446.5173,110.0
3447.896,106.0
3449.2751,89.0
3450.6548,114.0
3452.0352,111.0
3453.416,110.0
3454.7974,109.0
3456.1792,127.0
3457.5618,118.0
3458.9448,110.0
3460.3284,74.0
3461.7124,107.0
3463.0972,110.0
3464.4824,114.0
3465.8682,105.0
3467.2544,121.0
3468.6414,106.0
3470.0288,108.0
3471.4167,105.0
3472.8054,119.0
3474.1946,125.0
3475.5842,130.0
3476.9744,112.0
3478.3652,133.0
3479.7566,106.0
3481.1484,118.0
3482.541,127.0
3483.934,99.0
3485.3276,116.0
3486.7217,125.0
3488.1165,118.0
3489.5117,113.0
3490.9075,104.0
3492.304,123.0
3493.701,114.0
3495.0984,112.0
3496.4963,127.0
3497.895,119.0
3499.2942,122.0
3500.6938,122.0
3502.0942,126.0
3503.495,109.0
3504.8965,132.0
3506.2983,112.0
3507.701,124.0
3509.104,113.0
3510.5076,113.0
3511.9119,139.0
3513.3167,124.0
3514.722,116.0
3516.128,103.0
3517.5344,134.0
3518.9414,125.0
3520.3489,117.0
3521.757,152.0
3523.1658,138.0
3524.575,123.0
3525.9849,115.0
3527.3953,93.0
3528.8062,124.0
3530.2178,165.0
3531.63,155.0
3533.0425,142.0
3534.4558,138.0
3535.8696,130.0
3537.284,122.0
3538.6987,124.0
3540.1143,119.0
3541.5303,137.0
3542.9468,115.0
3544.364,117.0
3545.7817,123.0
3547.2,95.0
3548.619,115.0
3550.0383,126.0
3551.4583,112.0
3552.879,101.0
3554.3,120.0
3555.7217,112.0
3557.144,124.0
3558.567,110.0
3559.9902,135.0
3561.4143,122.0
3562.8389,122.0
3564.264,123.0
3565.6897,121.0
3567.116,141.0
3568.5427,134.0
3569.9702,124.0
3571.3982,127.0
3572.8267,128.0
3574.2559,117.0
3575.6855,137.0
3577.1157,128.0
3578.5466,136.0
3579.978,146.0
3581.41,163.0
3582.8425,136.0
3584.2756,105.0
3585.7092,142.0
3587.1436,148.0
3588.5784,149.0
3590.014,131.0
3591.45,135.0
3592.8865,135.0
3594.3237,133.0
3595.7615,152.0
3597.1997,119.0
3598.6387,162.0
3600.0781,141.0
3601.518,145.0
3602.9587,137.0
3604.4,131.0
3605.8416,123.0
3607.284,165.0
3608.7268,175.0
3610.1704,148.0
3611.6145,144.0
3613.059,126.0
3614.5044,131.0
3615.9502,187.0
3617.3965,253.0
3618.8435,159.0
3620.291,125.0
3621.739,153.0
3623.1877,126.0
3624.637,119.0
3626.087,141.0
3627.5374,138.0
3628.9883,164.0
3630.44,143.0
3631.892,151.0
3633.3447,144.0
3634.798,137.0
3636.252,132.0
3637.7065,144.0
3639.1616,120.0
3640.6172,139.0
3642.0735,139.0
3643.5303,150.0
3644.9878,140.0
3646.4458,137.0
3647.9043,126.0
3649.3635,109.0
3650.8232,156.0
3652.2837,147.0
3653.7446,137.0
3655.206,134.0
3656.6682,149.0
3658.1309,154.0
3659.594,150.0
3661.0579,165.0
3662.5222,148.0
3663.9873,143.0
3665.453,150.0
3666.919,153.0
3668.3857,129.0
3669.853,113.0
3671.321,120.0
3672.7896,122.0
3674.2585,147.0
3675.7283,178.0
3677.1985,152.0
3678.6694,180.0
3680.1409,172.0
3681.613,134.0
3683.0857,115.0
3684.5588,131.0
3686.0327,105.0
3687.507,114.0
3688.9822,116.0
3690.4578,137.0
3691.9338,172.0
3693.4106,148.0
3694.888,155.0
3696.366,149.0
3697.8445,162.0
3699.3237,128.0
3700.8035,149.0
3702.2837,132.0
3703.7646,155.0
3705.246,123.0
3706.7283,173.0
3708.211,198.0
3709.6943,251.0
3711.1782,203.0
3712.6626,146.0
3714.1477,158.0
3715.6333,152.0
3717.1196,167.0
3718.6064,189.0
3720.094,167.0
3721.582,176.0
3723.0706,151.0
3724.5598,160.0
3726.0496,146.0
3727.54,153.0
3729.031,160.0
3730.5227,146.0
3732.015,189.0
3733.5078,266.0
3735.0012,307.0
3736.495,252.0
3737.9897,182.0
3739.4849,183.0
3740.9807,138.0
3742.477,165.0
3743.974,198.0
3745.4717,140.0
3746.97,129.0
3748.4688,196.0
3749.968,527.0
3751.468,1192.0
3752.9685,1181.0
3754.4697,640.0
3755.9714,385.0
3757.4739,208.0
3758.9768,173.0
3760.4805,185.0
3761.9846,157.0
3763.4895,166.0
3764.9949,153.0
3766.501,216.0
3768.0076,235.0
3769.515,203.0
3771.0227,159.0
3772.531,208.0
3774.04,182.0
3775.5496,175.0
3777.0598,165.0
3778.5706,167.0
3780.082,166.0
3781.594,179.0
3783.1067,167.0
3784.6199,182.0
3786.1338,173.0
3787.6482,175.0
3789.1633,155.0
3790.679,151.0
3792.1953,148.0
3793.7122,155.0
3795.2297,136.0
3796.7478,148.0
3798.2666,144.0
3799.786,168.0
3801.306,167.0
3802.8264,137.0
3804.3477,137.0
3805.8694,135.0
3807.3918,151.0
3808.9148,200.0
3810.4385,150.0
3811.9626,159.0
3813.4875,178.0
3815.013,193.0
3816.539,180.0
3818.0657,161.0
3819.593,157.0
3821.1208,149.0
3822.6494,178.0
3824.1785,161.0
3825.7083,158.0
3827.2385,148.0
3828.7695,159.0
3830.301,168.0
3831.8333,167.0
3833.366,175.0
3834.8994,177.0
3836.4333,152.0
3837.968,135.0
3839.5032,183.0
3841.039,172.0
3842.5754,153.0
3844.1125,155.0
3845.6501,164.0
3847.1885,201.0
3848.7273,271.0
3850.2668,208.0
3851.807,178.0
3853.3477,200.0
3854.889,158.0
3856.431,130.0
3857.9734,152.0
3859.5166,158.0
3861.0603,138.0
3862.6047,179.0
3864.1497,167.0
3865.6953,176.0
3867.2417,201.0
3868.7886,197.0
3870.3362,164.0
3871.8843,192.0
3873.433,190.0
3874.9824,166.0
3876.5325,191.0
3878.083,182.0
3879.6343,173.0
3881.186,175.0
3882.7385,195.0
3884.2915,170.0
3885.8452,172.0
3887.3997,197.0
3888.9546,176.0
3890.5103,176.0
3892.0664,162.0
3893.6233,169.0
3895.1807,186.0
3896.7388,212.0
3898.2974,155.0
3899.8567,215.0
3901.4167,219.0
3902.9773,220.0
3904.5386,172.0
3906.1003,178.0
3907.6628,187.0
3909.2258,171.0
3910.7896,147.0
3912.3538,148.0
3913.9187,166.0
3915.4844,174.0
3917.0505,215.0
3918.6174,165.0
3920.1848,180.0
3921.753,166.0
3923.3215,151.0
3924.8909,153.0
3926.461,157.0
3928.0315,129.0
3929.6028,161.0
3931.1746,151.0
3932.747,189.0
3934.32,138.0
3935.8938,157.0
3937.4683,162.0
3939.0432,159.0
3940.619,150.0
3942.195,174.0
3943.772,159.0
3945.3494,159.0
3946.9275,178.0
3948.5063,141.0
3950.0857,191.0
3951.6658,142.0
3953.2463,160.0
3954.8276,156.0
3956.4097,127.0
3957.9922,158.0
3959.5754,176.0
3961.1592,149.0
3962.7437,134.0
3964.3289,121.0
3965.9146,158.0
3967.501,138.0
3969.088,146.0
3970.6755,158.0
3972.264,148.0
3973.8528,163.0
3975.4424,141.0
3977.0325,128.0
3978.6233,159.0
3980.2148,134.0
3981.807,172.0
3983.3997,161.0
3984.993,155.0
3986.587,180.0
3988.1816,134.0
3989.7769,179.0
3991.3728,173.0
3992.9692,140.0
3994.5664,169.0
3996.1643,156.0
3997.7627,160.0
3999.3618,142.0
4000.9617,170.0
4002.562,178.0
4004.163,191.0
4005.7646,157.0
4007.367,177.0
4008.97,161.0
4010.5735,163.0
4012.1777,174.0
4013.7827,160.0
4015.3882,142.0
4016.9944,166.0
4018.601,185.0
4020.2085,190.0
4021.8167,177.0
4023.4253,192.0
4025.0347,202.0
4026.6448,180.0
4028.2554,178.0
4029.8667,191.0
4031.4788,173.0
4033.0913,206.0
4034.7046,188.0
4036.3184,185.0
4037.9329,232.0
4039.548,216.0
4041.1638,200.0
4042.7803,260.0
4044.3975,215.0
4046.0151,188.0
4047.6335,188.0
4049.2527,230.0
4050.8723,291.0
4052.4927,284.0
4054.1138,263.0
4055.7354,238.0
4057.3577,229.0
4058.9807,335.0
4060.6042,429.0
4062.2285,338.0
4063.8535,268.0
4065.479,230.0
4067.1052,234.0
4068.7322,257.0
4070.3596,259.0
4071.9878,321.0
4073.6167,345.0
4075.246,274.0
4076.8762,272.0
4078.507,277.0
4080.1384,327.0
4081.7705,413.0
4083.4033,359.0
4085.0366,461.0
4086.6707,494.0
4088.3054,387.0
4089.9407,273.0
4091.5767,273.0
4093.2134,709.0
4094.8506,1041.0
4096.489,625.0
4098.1274,302.0
4099.7666,260.0
4101.4067,788.0
4103.0474,2050.0
4104.6885,1606.0
4106.3306,598.0
4107.973,308.0
4109.616,262.0
4111.2603,233.0
4112.905,241.0
4114.55,273.0
4116.196,243.0
4117.8423,196.0
4119.4893,187.0
4121.137,202.0
4122.7856,189.0
4124.4346,211.0
4126.0845,181.0
4127.735,164.0
4129.3857,145.0
4131.0376,189.0
4132.69,179.0
4134.343,186.0
4135.9966,171.0
4137.651,165.0
4139.306,156.0
4140.962,161.0
4142.618,162.0
4144.2754,200.0
4145.933,179.0
4147.5913,154.0
4149.2505,185.0
4150.91,171.0
4152.5703,169.0
4154.2314,179.0
4155.893,171.0
4157.5557,164.0
4159.2188,164.0
4160.8823,176.0
4162.547,146.0
4164.212,194.0
4165.8774,198.0
4167.544,204.0
4169.211,167.0
4170.8784,153.0
4172.547,153.0
4174.216,205.0
4175.8857,249.0
4177.556,227.0
4179.227,191.0
4180.899,177.0
4182.5713,181.0
4184.244,164.0
4185.918,158.0
4187.5923,203.0
4189.267,234.0
4190.943,209.0
4192.619,164.0
4194.2964,163.0
4195.974,169.0
4197.6523,204.0
4199.3315,211.0
4201.011,147.0
4202.6914,185.0
4204.3726,159.0
4206.054,159.0
4207.737,166.0
4209.42,161.0
4211.1035,159.0
4212.788,141.0
4214.473,161.0
4216.1587,149.0
4217.845,155.0
4219.532,176.0
4221.22,165.0
4222.9087,168.0
4224.5977,192.0
4226.2876,200.0
4227.978,152.0
4229.6694,149.0
4231.3613,184.0
4233.0537,167.0
4234.747,160.0
4236.441,167.0
4238.1353,191.0
4239.8306,160.0
4241.5264,177.0
4243.223,149.0
4244.9204,172.0
4246.618,169.0
4248.317,183.0
4250.016,208.0
4251.7163,176.0
4253.417,191.0
4255.118,196.0
4256.8203,203.0
4258.523,179.0
4260.2266,180.0
4261.9307,190.0
4263.6353,204.0
4265.341,220.0
4267.047,209.0
4268.754,265.0
4270.4614,242.0
4272.1694,210.0
4273.8784,186.0
4275.588,249.0
4277.2983,342.0
4279.0093,259.0
4280.7207,205.0
4282.433,193.0
4284.146,340.0
4285.86,559.0
4287.574,407.0
4289.289,251.0
4291.005,177.0
4292.721,178.0
4294.4385,184.0
4296.1562,181.0
4297.8745,222.0
4299.5938,207.0
4301.3135,189.0
4303.034,164.0
4304.7554,166.0
4306.477,170.0
4308.1997,161.0
4309.923,187.0
4311.647,155.0
4313.3716,170.0
4315.097,163.0
4316.823,188.0
4318.55,150.0
4320.2773,158.0
4322.0054,196.0
4323.7344,176.0
4325.464,165.0
4327.194,167.0
4328.925,177.0
4330.6562,192.0
4332.3887,147.0
4334.1216,163.0
4335.8555,192.0
4337.59,173.0
4339.3247,154.0
4341.0605,166.0
4342.797,178.0
4344.534,161.0
4346.272,131.0
4348.0103,188.0
4349.7495,181.0
4351.4893,135.0
4353.23,163.0
4354.971,194.0
4356.7134,189.0
4358.456,189.0
4360.199,177.0
4361.9434,166.0
4363.688,160.0
4365.4336,169.0
4367.1797,153.0
4368.927,176.0
4370.6743,176.0
4372.4224,181.0
4374.1714,138.0
4375.921,158.0
4377.6714,164.0
4379.4224,164.0
4381.1743,171.0
4382.927,168.0
4384.6797,153.0
4386.4336,166.0
4388.188,177.0
4389.9434,185.0
4391.699,190.0
4393.456,166.0
4395.2134,178.0
4396.9717,156.0
4398.7305,192.0
4400.4897,194.0
4402.25,207.0
4404.0107,195.0
4405.7725,192.0
4407.5347,242.0
4409.298,259.0
4411.0615,222.0
4412.826,186.0
4414.5913,178.0
4416.357,255.0
4418.1235,307.0
4419.8906,260.0
4421.6587,202.0
4423.4272,193.0
4425.197,220.0
4426.967,190.0
4428.738,209.0
4430.5093,197.0
4432.2812,215.0
4434.054,212.0
4435.8276,185.0
4437.602,195.0
4439.377,255.0
4441.153,255.0
4442.929,192.0
4444.7065,213.0
4446.4844,183.0
4448.263,206.0
4450.0425,188.0
4451.8223,211.0
4453.603,193.0
4455.3843,178.0
4457.1665,206.0
4458.949,215.0
4460.733,238.0
4462.517,200.0
4464.3022,193.0
4466.088,202.0
4467.8745,312.0
4469.6616,273.0
4471.4497,246.0
4473.2383,245.0
4475.0273,216.0
4476.8174,200.0
4478.608,216.0
4480.3994,209.0
4482.1914,250.0
4483.9844,202.0
4485.778,187.0
4487.5723,201.0
4489.367,232.0
4491.163,190.0
4492.9595,203.0
4494.757,196.0
4496.5547,213.0
4498.3535,211.0
4500.153,226.0
4501.953,221.0
4503.754,238.0
4505.555,229.0
4507.3574,212.0
4509.16,227.0
4510.964,209.0
4512.768,203.0
4514.573,264.0
4516.379,206.0
4518.1855,200.0
4519.9927,223.0
4521.801,242.0
4523.6094,219.0
4525.419,188.0
4527.229,183.0
4529.04,210.0
4530.8516,283.0
4532.664,299.0
4534.477,199.0
4536.291,201.0
4538.1055,170.0
4539.921,210.0
4541.737,174.0
4543.5537,169.0
4545.371,172.0
4547.1895,178.0
4549.0083,186.0
4550.828,179.0
4552.6484,190.0
4554.4697,198.0
4556.2915,171.0
4558.1143,167.0
4559.9375,171.0
4561.7617,182.0
4563.5864,179.0
4565.4116,217.0
4567.238,156.0
4569.0645,182.0
4570.892,215.0
4572.72,186.0
4574.5493,165.0
4576.379,173.0
4578.2095,148.0
4580.0405,153.0
4581.8726,183.0
4583.705,186.0
4585.5386,168.0
4587.3726,171.0
4589.2075,164.0
4591.043,196.0
4592.8794,209.0
4594.7163,185.0
4596.554,208.0
4598.3926,197.0
4600.232,199.0
4602.0723,209.0
4603.913,184.0
4605.755,193.0
4607.597,178.0
4609.4404,191.0
4611.284,190.0
4613.129,187.0
4614.974,175.0
4616.8203,195.0
4618.667,164.0
4620.5146,189.0
4622.363,189.0
4624.212,177.0
4626.0615,179.0
4627.912,186.0
4629.763,201.0
4631.615,167.0
4633.468,156.0
4635.3213,183.0
4637.1753,169.0
4639.0303,187.0
4640.8857,178.0
4642.742,186.0
4644.599,175.0
4646.457,187.0
4648.3154,175.0
4650.175,175.0
4652.0347,164.0
4653.8955,163.0
4655.757,158.0
4657.619,179.0
4659.4824,181.0
4661.346,169.0
4663.211,194.0
4665.076,192.0
4666.9424,173.0
4668.809,169.0
4670.677,191.0
4672.545,144.0
4674.414,161.0
4676.2837,165.0
4678.1543,187.0
4680.0254,185.0
4681.8975,186.0
4683.77,164.0
4685.6436,170.0
4687.5176,169.0
4689.3926,148.0
4691.2686,166.0
4693.145,167.0
4695.0225,194.0
4696.9004,195.0
4698.7793,166.0
4700.6587,172.0
4702.539,169.0
4704.42,194.0
4706.302,177.0
4708.184,183.0
4710.0674,201.0
4711.951,193.0
4713.836,205.0
4715.7217,168.0
4717.608,198.0
4719.495,172.0
4721.383,164.0
4723.2715,166.0
4725.1606,172.0
4727.051,188.0
4728.9414,178.0
4730.833,184.0
4732.725,186.0
4734.618,185.0
4736.512,177.0
4738.4067,158.0
4740.3022,176.0
4742.198,162.0
4744.095,161.0
4745.9927,155.0
4747.891,176.0
4749.79,158.0
4751.69,155.0
4753.591,165.0
4755.492,143.0
4757.3945,154.0
4759.2974,183.0
4761.201,172.0
4763.1055,195.0
4765.0107,158.0
4766.9165,169.0
4768.823,159.0
4770.731,178.0
4772.639,177.0
4774.5483,138.0
4776.458,157.0
4778.3687,185.0
4780.28,149.0
4782.192,147.0
4784.105,163.0
4786.0186,167.0
4787.933,168.0
4789.848,151.0
4791.764,165.0
4793.6807,169.0
4795.598,154.0
4797.5166,154.0
4799.4355,160.0
4801.3555,151.0
4803.276,141.0
4805.1973,154.0
4807.119,171.0
4809.042,137.0
4810.966,154.0
4812.89,163.0
4814.8154,136.0
4816.741,126.0
4818.668,152.0
4820.595,171.0
4822.5234,111.0
4824.4526,161.0
4826.3823,154.0
4828.313,179.0
4830.244,140.0
4832.1763,143.0
4834.1094,138.0
4836.043,120.0
4837.9775,159.0
4839.9126,164.0
4841.8486,168.0
4843.785,145.0
4845.7227,172.0
4847.661,167.0
4849.6,152.0
4851.54,149.0
4853.4805,152.0
4855.422,150.0
4857.3643,145.0
4859.307,164.0
4861.251,158.0
4863.1953,128.0
4865.1406,147.0
4867.087,173.0
4869.0337,164.0
4870.9814,185.0
4872.9297,131.0
4874.879,141.0
4876.829,143.0
4878.78,144.0
4880.7314,143.0
4882.6836,150.0
4884.6367,144.0
4886.5903,115.0
4888.545,142.0
4890.5005,153.0
4892.4565,147.0
4894.4136,166.0
4896.3716,160.0
4898.33,160.0
4900.2896,141.0
4902.2495,162.0
4904.2104,161.0
4906.1724,153.0
4908.135,136.0
4910.098,184.0
4912.062,147.0
4914.027,160.0
4915.9927,160.0
4917.959,148.0
4919.9263,143.0
4921.894,187.0
4923.863,150.0
4925.8325,150.0
4927.8027,156.0
4929.774,162.0
4931.7456,171.0
4933.7183,134.0
4935.692,162.0
4937.666,148.0
4939.641,144.0
4941.617,156.0
4943.5938,142.0
4945.5713,177.0
4947.5493,150.0
4949.5283,166.0
4951.5083,170.0
4953.489,154.0
4955.47,189.0
4957.4526,180.0
4959.4355,150.0
4961.4194,159.0
4963.404,181.0
4965.389,156.0
4967.3755,163.0
4969.3623,150.0
4971.35,150.0
4973.339,172.0
4975.328,176.0
4977.3184,176.0
4979.309,185.0
4981.301,166.0
4983.2935,167.0
4985.2866,170.0
4987.281,179.0
4989.276,189.0
4991.2715,189.0
4993.268,180.0
4995.265,164.0
4997.263,172.0
4999.262,153.0
5001.2617,170.0
5003.262,175.0
5005.2637,177.0
5007.2656,190.0
5009.2686,177.0
5011.2725,168.0
5013.277,171.0
5015.282,155.0
5017.2886,170.0
5019.2954,172.0
5021.303,189.0
5023.3115,191.0
5025.321,174.0
5027.331,164.0
5029.342,161.0
5031.3535,185.0
5033.366,175.0
5035.3794,163.0
5037.3936,164.0
5039.4087,179.0
5041.4243,169.0
5043.441,159.0
5045.4585,162.0
5047.4766,177.0
5049.4956,166.0
5051.5156,171.0
5053.536,187.0
5055.5576,180.0
5057.58,171.0
5059.603,153.0
5061.627,179.0
5063.6514,179.0
5065.677,151.0
5067.703,155.0
5069.73,174.0
5071.758,164.0
5073.7866,189.0
5075.816,175.0
5077.846,178.0
5079.8774,168.0
5081.909,173.0
5083.942,155.0
5085.9756,153.0
5088.01,164.0
5090.045,158.0
5092.081,163.0
5094.1177,161.0
5096.1553,176.0
5098.194,157.0
5100.233,178.0
5102.273,177.0
5104.314,211.0
5106.3555,187.0
5108.398,166.0
5110.4414,179.0
5112.4854,181.0
5114.5303,189.0
5116.576,172.0
5118.6226,172.0
5120.67,168.0
5122.7183,164.0
5124.7676,162.0
5126.8174,181.0
5128.868,183.0
5130.92,199.0
5132.972,211.0
5135.0254,164.0
5137.0796,166.0
5139.1343,161.0
5141.19,184.0
5143.2466,192.0
5145.3037,211.0
5147.362,198.0
5149.421,195.0
5151.4805,190.0
5153.541,188.0
5155.6025,169.0
5157.6646,174.0
5159.7275,173.0
5161.7915,175.0
5163.8564,160.0
5165.922,158.0
5167.9883,159.0
5170.0557,165.0
5172.1235,167.0
5174.1924,174.0
5176.262,187.0
5178.3325,201.0
5180.404,151.0
5182.476,174.0
5184.549,176.0
5186.6226,182.0
5188.6973,165.0
5190.773,168.0
5192.849,179.0
5194.9263,188.0
5197.0044,192.0
5199.083,158.0
5201.1626,167.0
5203.243,187.0
5205.324,203.0
5207.4062,193.0
5209.4893,186.0
5211.573,162.0
5213.6577,184.0
5215.743,146.0
5217.8296,191.0
5219.9165,207.0
5222.0044,204.0
5224.0933,186.0
5226.183,196.0
5228.2734,195.0
5230.3647,174.0
5232.457,197.0
5234.55,176.0
5236.6436,184.0
5238.7383,174.0
5240.834,173.0
5242.93,201.0
5245.0273,188.0
5247.1255,193.0
5249.224,182.0
5251.3237,182.0
5253.4243,173.0
5255.526,165.0
5257.628,215.0
5259.731,189.0
5261.835,176.0
5263.9395,167.0
5266.045,175.0
5268.1514,168.0
5270.259,159.0
5272.3667,193.0
5274.4756,201.0
5276.5854,192.0
5278.6963,186.0
5280.8076,166.0
5282.92,206.0
5285.033,177.0
5287.147,171.0
5289.2617,181.0
5291.3774,172.0
5293.494,167.0
5295.6113,159.0
5297.7295,191.0
5299.8486,200.0
5301.9688,211.0
5304.0894,228.0
5306.211,154.0
5308.3335,183.0
5310.457,169.0
5312.581,187.0
5314.706,166.0
5316.832,215.0
5318.959,257.0
5321.0864,209.0
5323.215,186.0
5325.344,193.0
5327.4746,187.0
5329.6055,171.0
5331.7373,194.0
5333.87,172.0
5336.004,171.0
5338.138,200.0
5340.2734,180.0
5342.4097,193.0
5344.547,196.0
5346.6846,214.0
5348.823,174.0
5350.963,188.0
5353.1035,188.0
5355.2446,187.0
5357.3867,167.0
5359.53,194.0
5361.674,208.0
5363.8184,198.0
5365.964,188.0
5368.1104,206.0
5370.258,177.0
5372.406,191.0
5374.5547,204.0
5376.7046,205.0
5378.8555,208.0
5381.007,196.0
5383.159,193.0
5385.3125,175.0
5387.467,195.0
5389.6216,189.0
5391.7773,205.0
5393.934,213.0
5396.092,191.0
5398.25,202.0
5400.409,209.0
5402.5693,195.0
5404.7305,184.0
5406.8926,194.0
5409.055,221.0
5411.2188,224.0
5413.3833,198.0
5415.549,230.0
5417.715,218.0
5419.882,175.0
5422.05,179.0
5424.2188,226.0
5426.3887,194.0
5428.559,208.0
5430.7305,176.0
5432.903,192.0
5435.076,195.0
5437.25,183.0
5439.425,199.0
5441.6006,212.0
5443.7773,213.0
5445.955,195.0
5448.1333,199.0
5450.3125,175.0
5452.4927,203.0
5454.674,195.0
5456.8555,197.0
5459.038,188.0
5461.2217,188.0
5463.4062,207.0
5465.592,211.0
5467.778,175.0
5469.965,214.0
5472.153,213.0
5474.342,199.0
5476.5317,211.0
5478.722,195.0
5480.9136,210.0
5483.106,207.0
5485.2993,202.0
5487.4937,204.0
5489.6885,201.0
5491.8843,189.0
5494.081,218.0
5496.279,214.0
5498.4775,187.0
5500.677,202.0
5502.877,225.0
5505.078,205.0
5507.2803,248.0
5509.4834,223.0
5511.687,194.0
5513.8916,199.0
5516.097,173.0
5518.3037,228.0
5520.511,223.0
5522.719,212.0
5524.928,242.0
5527.138,212.0
5529.349,191.0
5531.561,182.0
5533.7734,224.0
5535.987,217.0
5538.201,213.0
5540.4165,207.0
5542.633,220.0
5544.85,208.0
5547.068,205.0
5549.2866,232.0
5551.5063,200.0
5553.727,188.0
5555.9487,196.0
5558.171,225.0
5560.394,206.0
5562.618,185.0
5564.8433,236.0
5567.0693,224.0
5569.2964,185.0
5571.524,200.0
5573.7524,196.0
5575.982,164.0
5578.2124,191.0
5580.444,194.0
5582.676,215.0
5584.9087,220.0
5587.1426,207.0
5589.3774,185.0
5591.6133,208.0
5593.85,219.0
5596.0874,175.0
5598.3257,210.0
5600.565,199.0
5602.805,226.0
5605.0464,195.0
5607.2886,168.0
5609.5312,177.0
5611.775,218.0
5614.0195,167.0
5616.265,216.0
5618.5117,182.0
5620.7593,184.0
5623.008,212.0
5625.257,210.0
5627.507,201.0
5629.758,208.0
5632.01,195.0
5634.2627,209.0
5636.5166,194.0
5638.771,159.0
5641.0264,203.0
5643.2827,214.0
5645.54,214.0
5647.7983,217.0
5650.0576,205.0
5652.318,205.0
5654.5786,205.0
5656.8403,180.0
5659.103,197.0
5661.3667,213.0
5663.6313,215.0
5665.897,198.0
5668.1636,206.0
5670.4307,184.0
5672.6987,202.0
5674.968,176.0
5677.238,216.0
5679.509,210.0
5681.781,198.0
5684.0537,213.0
5686.327,169.0
5688.6016,196.0
5690.877,215.0
5693.1533,213.0
5695.4307,200.0
5697.709,215.0
5699.9883,191.0
5702.268,205.0
5704.549,216.0
5706.8306,210.0
5709.1133,207.0
5711.397,207.0
5713.6816,179.0
5715.9673,227.0
5718.254,227.0
5720.541,240.0
5722.829,267.0
5725.118,252.0
5727.408,237.0
5729.699,217.0
5731.991,239.0
5734.284,234.0
5736.578,220.0
5738.8726,222.0
5741.168,226.0
5743.4644,241.0
5745.7617,257.0
5748.06,241.0
5750.3594,244.0
5752.6597,257.0
5754.961,274.0
5757.2627,253.0
5759.5654,247.0
5761.869,258.0
5764.174,243.0
5766.4795,246.0
5768.786,251.0
5771.0938,254.0
5773.4023,232.0
5775.712,258.0
5778.022,249.0
5780.333,246.0
5782.645,254.0
5784.958,236.0
5787.272,269.0
5789.587,304.0
5791.903,306.0
5794.2197,258.0
5796.5376,250.0
5798.8564,303.0
5801.176,274.0
5803.496,253.0
5805.8174,276.0
5808.1396,261.0
5810.463,270.0
5812.787,319.0
5815.1123,286.0
5817.4385,278.0
5819.7656,302.0
5822.0938,323.0
5824.4224,307.0
5826.752,266.0
5829.0825,301.0
5831.414,347.0
5833.7466,333.0
5836.08,310.0
5838.4146,384.0
5840.75,382.0
5843.0864,325.0
5845.424,290.0
5847.762,330.0
5850.101,306.0
5852.441,260.0
5854.7817,292.0
5857.1235,254.0
5859.4663,280.0
5861.81,245.0
5864.155,280.0
5866.5005,255.0
5868.847,280.0
5871.195,269.0
5873.5435,289.0
5875.893,271.0
5878.2437,233.0
5880.5947,255.0
5882.947,282.0
5885.3,266.0
5887.654,266.0
5890.009,300.0
5892.3647,286.0
5894.7217,266.0
5897.0796,281.0
5899.4385,280.0
5901.7983,283.0
5904.159,309.0
5906.521,304.0
5908.884,322.0
5911.2476,305.0
5913.612,310.0
5915.977,299.0
5918.3433,295.0
5920.7104,303.0
5923.0786,264.0
5925.4478,299.0
5927.818,309.0
5930.189,305.0
5932.561,304.0
5934.934,281.0
5937.308,273.0
5939.683,282.0
5942.059,276.0
5944.436,322.0
5946.814,356.0
5949.193,283.0
5951.5728,285.0
5953.9536,256.0
5956.335,280.0
5958.7173,308.0
5961.1006,327.0
5963.485,313.0
5965.87,309.0
5968.2563,319.0
5970.6436,313.0
5973.0317,310.0
5975.421,331.0
5977.811,335.0
5980.202,346.0
5982.594,327.0
5984.9873,324.0
5987.3813,323.0
5989.7764,296.0
5992.1724,327.0
5994.5693,345.0
5996.9673,329.0
5999.366,305.0
6001.766,336.0
6004.167,332.0
6006.569,356.0
6008.9717,346.0
6011.3755,384.0
6013.7803,372.0
6016.1855,303.0
6018.592,359.0
6020.999,371.0
6023.407,298.0
6025.8164,281.0
6028.2266,339.0
6030.6377,291.0
6033.05,323.0
6035.463,337.0
6037.877,354.0
6040.292,315.0
6042.708,309.0
6045.125,333.0
6047.543,329.0
6049.962,328.0
6052.382,265.0
6054.8027,284.0
6057.2246,276.0
6059.6475,293.0
6062.0713,366.0
6064.496,352.0
6066.922,327.0
6069.3486,314.0
6071.7764,298.0
6074.205,287.0
6076.635,283.0
6079.0654,293.0
6081.497,310.0
6083.9297,299.0
6086.3633,297.0
6088.798,305.0
6091.2334,296.0
6093.67,311.0
6096.1074,289.0
6098.546,332.0
6100.9854,273.0
6103.426,293.0
6105.867,337.0
6108.3096,287.0
6110.753,301.0
6113.1973,293.0
6115.6426,360.0
6118.089,343.0
6120.536,322.0
6122.9844,307.0
6125.4336,307.0
6127.884,311.0
6130.335,363.0
6132.787,450.0
6135.24,393.0
6137.6943,351.0
6140.1494,347.0
6142.6055,371.0
6145.0625,352.0
6147.5205,441.0
6149.9795,482.0
6152.4395,379.0
6154.9004,345.0
6157.3623,436.0
6159.825,497.0
6162.289,380.0
6164.754,378.0
6167.2197,364.0
6169.6865,372.0
6172.1543,452.0
6174.623,592.0
6177.093,562.0
6179.5635,438.0
6182.035,407.0
6184.508,380.0
6186.9814,371.0
6189.456,419.0
6191.9316,716.0
6194.408,662.0
6196.8857,546.0
6199.3643,434.0
6201.844,467.0
6204.325,466.0
6206.807,359.0
6209.29,367.0
6211.774,375.0
6214.259,432.0
6216.7446,482.0
6219.2314,441.0
6221.719,418.0
6224.208,375.0
6226.6978,385.0
6229.1885,439.0
6231.68,522.0
6234.173,551.0
6236.6665,517.0
6239.161,452.0
6241.6567,392.0
6244.1533,407.0
6246.651,499.0
6249.1494,543.0
6251.649,432.0
6254.1494,478.0
6256.651,510.0
6259.1533,468.0
6261.6567,396.0
6264.1616,363.0
6266.6675,289.0
6269.1743,330.0
6271.682,618.0
6274.191,804.0
6276.7007,629.0
6279.2114,405.0
6281.723,342.0
6284.236,342.0
6286.7495,348.0
6289.264,817.0
6291.78,1147.0
6294.2964,846.0
6296.814,503.0
6299.3325,387.0
6301.852,336.0
6304.3726,311.0
6306.8945,343.0
6309.4175,306.0
6311.9414,372.0
6314.4663,355.0
6316.992,344.0
6319.519,313.0
6322.047,325.0
6324.5757,317.0
6327.1055,298.0
6329.636,323.0
6332.168,338.0
6334.7007,338.0
6337.2344,320.0
6339.769,303.0
6342.305,327.0
6344.8423,336.0
6347.3804,305.0
6349.9194,308.0
6352.4595,352.0
6355.0005,318.0
6357.5425,308.0
6360.0854,318.0
6362.6294,310.0
6365.1743,329.0
6367.72,310.0
6370.267,291.0
6372.8154,308.0
6375.3647,338.0
6377.915,360.0
6380.4663,317.0
6383.0186,364.0
6385.572,387.0
6388.126,368.0
6390.681,343.0
6393.2373,292.0
6395.7944,306.0
6398.3525,318.0
6400.912,372.0
6403.4727,411.0
6406.034,378.0
6408.5967,355.0
6411.16,378.0
6413.7246,343.0
6416.29,310.0
6418.8564,351.0
6421.424,302.0
6423.992,302.0
6426.562,388.0
6429.133,367.0
6431.7046,330.0
6434.2773,340.0
6436.851,348.0
6439.426,364.0
6442.0015,361.0
6444.578,315.0
6447.156,373.0
6449.735,368.0
6452.315,306.0
6454.896,342.0
6457.478,318.0
6460.061,337.0
6462.645,347.0
6465.23,339.0
6467.816,334.0
6470.403,357.0
6472.991,345.0
6475.5806,347.0
6478.171,327.0
6480.762,352.0
6483.3545,320.0
6485.9478,329.0
6488.542,346.0
6491.137,350.0
6493.734,370.0
6496.3315,363.0
6498.93,380.0
6501.53,323.0
6504.1304,339.0
6506.732,364.0
6509.3345,329.0
6511.938,372.0
6514.543,411.0
6517.149,378.0
6519.756,309.0
6522.364,372.0
6524.9727,356.0
6527.5825,416.0
6530.1934,370.0
6532.8057,376.0
6535.419,363.0
6538.033,359.0
6540.6484,432.0
6543.2646,427.0
6545.882,422.0
6548.5,388.0
6551.1196,410.0
6553.74,388.0
6556.362,440.0
6558.9844,535.0
6561.608,421.0
6564.2324,390.0
6566.858,395.0
6569.485,355.0
6572.113,380.0
6574.7417,372.0
6577.3716,446.0
6580.0024,389.0
6582.6343,395.0
6585.267,430.0
6587.9014,400.0
6590.5366,426.0
6593.173,431.0
6595.81,419.0
6598.448,400.0
6601.0874,482.0
6603.728,391.0
6606.3696,381.0
6609.012,424.0
6611.656,457.0
6614.3003,399.0
6616.946,372.0
6619.593,406.0
6622.2407,436.0
6624.8896,396.0
6627.5396,433.0
6630.1904,400.0
6632.8423,373.0
6635.4956,421.0
6638.15,454.0
6640.805,505.0
6643.4614,428.0
6646.1187,421.0
6648.7773,415.0
6651.437,357.0
6654.0977,434.0
6656.7593,500.0
6659.422,455.0
6662.0854,428.0
6664.7505,425.0
6667.4165,368.0
6670.0835,348.0
6672.7515,375.0
6675.4204,360.0
6678.091,362.0
6680.762,414.0
6683.4346,372.0
6686.108,363.0
6688.782,342.0
6691.4575,376.0
6694.1343,395.0
6696.812,421.0
6699.4907,429.0
6702.1704,390.0
6704.851,378.0
6707.533,353.0
6710.2163,381.0
6712.9004,416.0
6715.5854,424.0
6718.2715,437.0
6720.959,401.0
6723.6475,435.0
6726.337,441.0
6729.0273,405.0
6731.7188,367.0
6734.4116,393.0
6737.1055,406.0
6739.8003,480.0
6742.496,492.0
6745.193,457.0
6747.891,414.0
6750.5903,412.0
6753.2905,419.0
6755.9917,456.0
6758.6943,558.0
6761.398,575.0
6764.1025,473.0
6766.808,508.0
6769.5146,409.0
6772.2227,397.0
6774.9316,454.0
6777.6416,512.0
6780.3525,550.0
6783.0645,607.0
6785.778,527.0
6788.492,502.0
6791.2075,505.0
6793.924,471.0
6796.6416,451.0
6799.3604,466.0
6802.08,479.0
6804.801,557.0
6807.5225,697.0
6810.2456,601.0
6812.9697,472.0
6815.695,408.0
6818.421,450.0
6821.1484,652.0
6823.877,918.0
6826.6064,814.0
6829.337,517.0
6832.069,419.0
6834.802,396.0
6837.5356,409.0
6840.2705,511.0
6843.007,713.0
6845.744,594.0
6848.4824,436.0
6851.2217,394.0
6853.9624,361.0
6856.704,414.0
6859.447,513.0
6862.1904,450.0
6864.9355,399.0
6867.6816,413.0
6870.4287,394.0
6873.177,407.0
6875.9263,358.0
6878.677,359.0
6881.428,387.0
6884.1807,375.0
6886.9346,391.0
6889.6895,362.0
6892.4453,394.0
6895.202,414.0
6897.9604,361.0
6900.7197,410.0
6903.48,393.0
6906.241,410.0
6909.004,401.0
6911.7676,442.0
6914.532,456.0
6917.298,404.0
6920.065,428.0
6922.833,424.0
6925.602,366.0
6928.372,437.0
6931.1436,440.0
6933.916,385.0
6936.6895,384.0
6939.4644,366.0
6942.24,370.0
6945.017,439.0
6947.795,455.0
6950.574,437.0
6953.3545,422.0
6956.1357,435.0
6958.918,412.0
6961.7017,390.0
6964.4863,432.0
6967.272,430.0
6970.059,411.0
6972.847,448.0
6975.636,456.0
6978.4263,465.0
6981.218,463.0
6984.0103,472.0
6986.8037,423.0
6989.5986,447.0
6992.3945,570.0
6995.1914,539.0
6997.9893,500.0
7000.7886,546.0
7003.589,467.0
7006.39,472.0
7009.193,492.0
7011.9966,500.0
7014.8013,544.0
7017.6074,601.0
7020.4146,511.0
7023.2227,559.0
7026.0317,676.0
7028.8423,555.0
7031.654,436.0
7034.4663,418.0
7037.2803,410.0
7040.095,553.0
7042.911,720.0
7045.7285,696.0
7048.547,439.0
7051.366,453.0
7054.1865,424.0
7057.0083,571.0
7059.831,1037.0
7062.655,994.0
7065.48,605.0
7068.306,436.0
7071.1333,443.0
7073.962,435.0
7076.7915,423.0
7079.622,430.0
7082.454,443.0
7085.287,437.0
7088.121,469.0
7090.9565,456.0
7093.793,489.0
7096.6304,518.0
7099.469,450.0
7102.309,460.0
7105.15,448.0
7107.992,507.0
7110.8354,533.0
7113.6797,534.0
7116.5254,531.0
7119.372,515.0
7122.2197,571.0
7125.069,596.0
7127.919,604.0
7130.77,540.0
7133.6226,558.0
7136.476,502.0
7139.3306,737.0
7142.1865,693.0
7145.0435,578.0
7147.9014,550.0
7150.7607,559.0
7153.621,622.0
7156.4824,858.0
7159.345,920.0
7162.209,716.0
7165.0737,582.0
7167.94,650.0
7170.807,677.0
7173.6753,758.0
7176.545,657.0
7179.4155,685.0
7182.287,668.0
7185.16,627.0
7188.034,696.0
7190.909,705.0
7193.7856,660.0
7196.663,858.0
7199.542,889.0
7202.422,676.0
7205.3027,477.0
7208.185,473.0
7211.0684,606.0
7213.9526,1143.0
7216.8384,1109.0
7219.725,662.0
7222.613,536.0
7225.502,481.0
7228.392,674.0
7231.283,1616.0
7234.176,1614.0
7237.0693,909.0
7239.9644,577.0
7242.8604,488.0
7245.7573,404.0
7248.656,460.0
7251.555,500.0
7254.4556,470.0
7257.3574,442.0
7260.2603,402.0
7263.1646,377.0
7266.07,425.0
7268.976,453.0
7271.884,431.0
7274.7925,398.0
7277.7026,410.0
7280.614,447.0
7283.526,434.0
7286.4395,488.0
7289.354,449.0
7292.2695,437.0
7295.1865,553.0
7298.1045,547.0
7301.024,419.0
7303.9443,417.0
7306.8657,382.0
7309.7886,463.0
7312.7124,636.0
7315.6377,568.0
7318.564,459.0
7321.491,361.0
7324.42,364.0
7327.3496,500.0
7330.281,776.0
7333.213,623.0
7336.146,536.0
7339.0806,408.0
7342.016,380.0
7344.953,418.0
7347.891,551.0
7350.83,459.0
7353.7705,439.0
7356.712,475.0
7359.655,440.0
7362.5986,386.0
7365.5435,374.0
7368.4897,408.0
7371.437,441.0
7374.3857,464.0
7377.3354,474.0
7380.2866,476.0
7383.239,471.0
7386.192,449.0
7389.1465,414.0
7392.102,449.0
7395.059,383.0
7398.017,489.0
7400.976,531.0
7403.9365,517.0
7406.898,452.0
7409.861,509.0
7412.8247,536.0
7415.79,534.0
7418.7563,529.0
7421.7236,452.0
7424.6924,454.0
7427.662,361.0
7430.6333,389.0
7433.6055,586.0
7436.579,538.0
7439.5537,463.0
7442.5293,453.0
7445.5063,422.0
7448.4844,426.0
7451.464,402.0
7454.4443,378.0
7457.4263,361.0
7460.409,379.0
7463.3936,326.0
7466.379,408.0
7469.365,422.0
7472.353,372.0
7475.342,339.0
7478.332,316.0
7481.323,384.0
7484.316,458.0
7487.3096,480.0
7490.3047,404.0
7493.301,354.0
7496.2983,360.0
7499.297,332.0
7502.2964,339.0
7505.2974,325.0
7508.2993,335.0
7511.3027,329.0
7514.307,294.0
7517.313,316.0
7520.32,342.0
7523.328,320.0
7526.3374,313.0
7529.348,375.0
7532.36,309.0
7535.373,332.0
7538.387,324.0
7541.4023,309.0
7544.419,348.0
7547.4365,358.0
7550.4556,352.0
7553.4756,341.0
7556.497,318.0
7559.5195,343.0
7562.5435,445.0
7565.5684,454.0
7568.5947,351.0
7571.622,334.0
7574.651,360.0
7577.6807,346.0
7580.712,352.0
7583.744,353.0
7586.778,338.0
7589.8125,320.0
7592.8486,270.0
7595.8857,326.0
7598.9243,400.0
7601.964,414.0
7605.005,293.0
7608.047,284.0
7611.0903,276.0
7614.135,406.0
7617.18,519.0
7620.227,402.0
7623.275,320.0
7626.324,282.0
7629.3745,304.0
7632.4263,301.0
7635.479,291.0
7638.533,305.0
7641.5884,301.0
7644.645,269.0
7647.7026,291.0
7650.7617,286.0
7653.8223,305.0
7656.884,300.0
7659.947,299.0
7663.0107,316.0
7666.076,324.0
7669.1426,269.0
7672.2104,289.0
7675.2793,301.0
7678.3496,323.0
7681.421,280.0
7684.4937,307.0
7687.5674,297.0
7690.6426,319.0
7693.7188,290.0
7696.7964,317.0
7699.875,327.0
7702.955,344.0
7706.036,349.0
7709.1187,350.0
7712.202,346.0
7715.287,337.0
7718.373,358.0
7721.4604,333.0
7724.549,360.0
7727.6387,383.0
7730.7295,399.0
7733.822,405.0
7736.9155,344.0
7740.0103,361.0
7743.1064,389.0
7746.2036,422.0
7749.3022,382.0
7752.402,417.0
7755.503,407.0
7758.605,358.0
7761.7085,392.0
7764.813,344.0
7767.919,372.0
7771.026,449.0
7774.1343,427.0
7777.244,411.0
7780.355,358.0
7783.4673,363.0
7786.5806,532.0
7789.6953,573.0
7792.811,485.0
7795.928,421.0
7799.0464,354.0
7802.166,379.0
7805.287,380.0
7808.409,451.0
7811.5327,506.0
7814.657,446.0
7817.783,384.0
7820.91,357.0
7824.0386,404.0
7827.168,510.0
7830.299,526.0
7833.431,464.0
7836.5645,410.0
7839.699,438.0
7842.835,463.0
7845.972,553.0
7849.1104,573.0
7852.25,532.0
7855.391,482.0
7858.533,441.0
7861.677,470.0
7864.8213,422.0
7867.9673,451.0
7871.1143,453.0
7874.2627,453.0
7877.4126,444.0
7880.5635,498.0
7883.716,546.0
7886.869,518.0
7890.024,404.0
7893.18,446.0
7896.3374,468.0
7899.496,623.0
7902.656,639.0
7905.817,563.0
7908.979,505.0
7912.1426,492.0
7915.3076,627.0
7918.4736,717.0
7921.641,660.0
7924.8096,606.0
7927.9795,525.0
7931.151,500.0
7934.323,535.0
7937.497,629.0
7940.672,680.0
7943.848,641.0
7947.026,597.0
7950.2046,540.0
7953.385,679.0
7956.566,650.0
7959.7485,646.0
7962.9326,747.0
7966.1177,819.0
7969.304,792.0
7972.4917,815.0
7975.6807,656.0
7978.871,823.0
7982.0625,963.0
7985.2554,942.0
7988.4497,967.0
7991.645,864.0
7994.842,870.0
7998.0396,773.0
8001.239,916.0
8004.4395,1152.0
8007.641,1148.0
8010.844,1014.0
8014.0483,1032.0
8017.254,1054.0
8020.461,1022.0
8023.669,1124.0
8026.8784,1075.0
8030.0894,985.0
8033.3013,1188.0
8036.5146,1366.0
8039.7295,1470.0
8042.9453,1420.0
8046.1626,1282.0
8049.381,1282.0
8052.6006,1513.0
8055.822,1862.0
8059.044,1872.0
8062.2676,1628.0
8065.4927,1772.0
8068.7188,1831.0
8071.9463,1960.0
8075.1753,2251.0
8078.4053,2208.0
8081.6367,2526.0
8084.869,2857.0
8088.103,2445.0
8091.3384,2018.0
8094.5747,1803.0
8097.8125,2677.0
8101.052,4069.0
8104.292,3675.0
8107.5337,2931.0
8110.777,2592.0
8114.021,2509.0
8117.2666,4680.0
8120.5137,5702.0
8123.7617,4676.0
8127.011,4066.0
8130.262,3324.0
8133.514,2841.0
8136.7676,3419.0
8140.0225,4244.0
8143.2783,5580.0
8146.5356,5030.0
8149.7944,3883.0
8153.054,4707.0
8156.3154,4494.0
8159.578,5157.0
8162.842,6065.0
8166.107,5789.0
8169.3735,9095.0
8172.641,8639.0
8175.91,4980.0
8179.1807,2638.0
8182.452,3469.0
8185.725,14050.0
8188.9995,17546.0
8192.275,7797.0
8195.553,3235.0
8198.831,2715.0
8202.11,14569.0
8205.392,34405.0
8208.674,19469.0
8211.957,6284.0
8215.242,2676.0
8218.528,1861.0
8221.815,1661.0
8225.1045,2019.0
8228.395,2385.0
8231.686,1862.0
8234.979,1214.0
8238.272,1040.0
8241.567,1072.0
8244.864,1327.0
8248.162,1247.0
8251.461,1105.0
8254.762,996.0
8258.063,1009.0
8261.367,1100.0
8264.672,1120.0
8267.978,1057.0
8271.285,1101.0
8274.594,966.0
8277.903,849.0
8281.215,781.0
8284.527,913.0
8287.841,1123.0
8291.156,1034.0
8294.473,972.0
8297.79,853.0
8301.109,940.0
8304.43,1053.0
8307.751,1092.0
8311.074,1047.0
8314.398,1105.0
8317.725,1082.0
8321.052,951.0
8324.38,863.0
8327.71,1089.0
8331.041,1447.0
8334.373,1300.0
8337.707,1001.0
8341.042,876.0
8344.378,1115.0
8347.716,1533.0
8351.055,1528.0
8354.3955,1151.0
8357.737,1228.0
8361.08,1027.0
8364.425,799.0
8367.7705,716.0
8371.117,817.0
8374.466,1125.0
8377.815,1231.0
8381.167,809.0
8384.52,635.0
8387.873,688.0
8391.229,919.0
8394.585,1110.0
8397.942,850.0
8401.302,691.0
8404.662,652.0
8408.024,752.0
8411.388,675.0
8414.752,632.0
8418.118,686.0
8421.485,631.0
8424.854,564.0
8428.224,557.0
8431.595,627.0
8434.968,632.0
8438.342,572.0
8441.717,599.0
8445.094,624.0
8448.472,698.0
8451.851,662.0
8455.231,669.0
8458.613,612.0
8461.997,661.0
8465.382,768.0
8468.768,740.0
8472.155,826.0
8475.544,766.0
8478.935,724.0
8482.326,692.0
8485.719,853.0
8489.113,1000.0
8492.509,1123.0
8495.906,881.0
8499.305,964.0
8502.704,1042.0
8506.105,1037.0
8509.508,1219.0
8512.911,1089.0
8516.316,1179.0
8519.723,1376.0
8523.131,1194.0
8526.54,1320.0
8529.95,1288.0
8533.362,1723.0
8536.775,2155.0
8540.19,1503.0
8543.606,884.0
8547.023,861.0
8550.442,2254.0
8553.862,3077.0
8557.284,1783.0
8560.707,1084.0
8564.131,929.0
8567.557,2808.0
8570.983,5012.0
8574.412,2941.0
8577.842,1502.0
8581.272,1023.0
8584.705,718.0
8588.139,644.0
8591.574,780.0
8595.011,1175.0
8598.449,1068.0
8601.889,764.0
8605.329,603.0
8608.771,585.0
8612.215,532.0
8615.66,546.0
8619.106,553.0
8622.554,580.0
8626.003,545.0
8629.453,500.0
8632.905,480.0
8636.358,519.0
8639.8125,634.0
8643.269,563.0
8646.726,521.0
8650.185,531.0
8653.645,540.0
8657.106,529.0
8660.569,539.0
8664.033,598.0
8667.499,564.0
8670.966,639.0
8674.435,658.0
8677.904,636.0
8681.375,603.0
8684.848,616.0
8688.321,623.0
8691.797,567.0
8695.273,733.0
8698.752,803.0
8702.231,667.0
8705.712,779.0
8709.194,769.0
8712.678,906.0
8716.163,1083.0
8719.649,975.0
8723.138,929.0
8726.627,792.0
8730.117,826.0
8733.609,830.0
8737.103,842.0
8740.598,905.0
8744.094,850.0
8747.592,779.0
8751.091,865.0
8754.591,982.0
8758.093,1000.0
8761.596,885.0
8765.101,900.0
8768.606,1029.0
8772.114,1231.0
8775.623,1140.0
8779.133,1101.0
8782.645,1115.0
8786.157,1097.0
8789.672,1031.0
8793.1875,1151.0
8796.705,1481.0
8800.224,1642.0
8803.744,1175.0
8807.266,945.0
8810.788,1037.0
8814.3125,2158.0
8817.838,2255.0
8821.365,1445.0
8824.894,1106.0
8828.424,1248.0
8831.955,2470.0
8835.488,2617.0
8839.022,1615.0
8842.558,1422.0
8846.095,1176.0
8849.633,1041.0
8853.173,1040.0
8856.714,1452.0
8860.257,1793.0
8863.801,1309.0
8867.347,1062.0
8870.894,1077.0
8874.442,1739.0
8877.992,2348.0
8881.543,1861.0
8885.096,1378.0
8888.649,1165.0
8892.205,1130.0
8895.762,1232.0
8899.32,1470.0
8902.88,1461.0
8906.441,1241.0
8910.004,1110.0
8913.568,1193.0
8917.134,1744.0
8920.7,1592.0
8924.269,1322.0
8927.838,1180.0
8931.409,1419.0
8934.981,2123.0
8938.556,1847.0
8942.131,1418.0
8945.708,1266.0
8949.286,1140.0
8952.866,985.0
8956.447,1079.0
8960.03,1394.0
8963.614,1353.0
8967.199,1039.0
8970.786,940.0
8974.374,1036.0
8977.964,1294.0
8981.555,1120.0
8985.147,1047.0
8988.741,1022.0
8992.337,1096.0
8995.934,1223.0
8999.532,1071.0
9003.132,928.0
9006.733,1066.0
9010.336,1101.0
9013.94,984.0
9017.546,941.0
9021.153,947.0
9024.762,1175.0
9028.372,1251.0
9031.983,899.0
9035.597,780.0
9039.211,914.0
9042.826,1217.0
9046.443,1061.0
9050.062,786.0
9053.682,687.0
9057.303,1105.0
9060.926,1693.0
9064.55,1277.0
9068.176,814.0
9071.803,716.0
9075.432,845.0
9079.062,976.0
9082.693,812.0
9086.326,725.0
9089.961,627.0
9093.597,714.0
9097.234,863.0
9100.873,761.0
9104.514,660.0
9108.155,667.0
9111.799,541.0
9115.443,567.0
9119.09,653.0
9122.737,742.0
9126.387,654.0
9130.037,551.0
9133.689,692.0
9137.343,710.0
9140.998,801.0
9144.654,758.0
9148.3125,667.0
9151.972,622.0
9155.633,589.0
9159.295,624.0
9162.959,799.0
9166.624,783.0
9170.291,696.0
9173.959,554.0
9177.629,639.0
9181.3,1023.0
9184.973,959.0
9188.646,722.0
9192.322,542.0
9195.999,768.0
9199.678,1009.0
9203.357,819.0
9207.039,691.0
9210.722,583.0
9214.406,464.0
9218.092,443.0
9221.779,554.0
9225.468,671.0
9229.158,532.0
9232.85,439.0
9236.543,436.0
9240.237,622.0
9243.934,791.0
9247.631,600.0
9251.33,471.0
9255.03,459.0
9258.732,341.0
9262.436,346.0
9266.141,428.0
9269.847,400.0
9273.555,330.0
9277.264,338.0
9280.975,345.0
9284.687,399.0
9288.4,347.0
9292.116,351.0
9295.833,327.0
9299.552,386.0
9303.271,402.0
9306.993,357.0
9310.716,359.0
9314.44,334.0
9318.166,327.0
9321.894,314.0
9325.622,354.0
9329.353,323.0
9333.084,306.0
9336.817,282.0
9340.552,318.0
9344.288,309.0
9348.025,294.0
9351.765,320.0
9355.505,286.0
9359.247,315.0
9362.991,309.0
9366.736,333.0
9370.483,329.0
9374.231,313.0
9377.981,310.0
9381.732,281.0
9385.485,272.0
9389.239,280.0
9392.995,296.0
9396.752,270.0
9400.511,292.0
9404.2705,280.0
9408.032,264.0
9411.796,308.0
9415.561,274.0
9419.327,280.0
9423.095,276.0
9426.864,292.0
9430.635,285.0
9434.407,248.0
9438.181,269.0
9441.956,295.0
9445.732,312.0
9449.511,281.0
9453.291,245.0
9457.072,246.0
9460.855,322.0
9464.64,289.0
9468.426,262.0
9472.213,298.0
9476.002,245.0
9479.792,243.0
9483.584,229.0
9487.377,305.0
9491.172,275.0
9494.969,256.0
9498.767,244.0
9502.566,269.0
9506.367,297.0
9510.17,256.0
9513.974,246.0
9517.779,254.0
9521.586,242.0
9525.395,229.0
9529.205,269.0
9533.017,240.0
9536.83,217.0
9540.645,237.0
9544.461,225.0
9548.278,280.0
9552.098,263.0
9555.919,244.0
9559.741,238.0
9563.565,247.0
9567.391,242.0
9571.218,231.0
9575.046,196.0
9578.876,212.0
9582.708,206.0
9586.541,206.0
9590.376,217.0
9594.212,218.0
9598.05,206.0
9601.889,188.0
9605.7295,238.0
9609.572,234.0
9613.416,176.0
9617.262,180.0
9621.108,198.0
9624.957,185.0
9628.807,173.0
9632.658,214.0
9636.512,222.0
9640.366,208.0
9644.223,190.0
9648.08,218.0
9651.939,196.0
9655.8,191.0
9659.662,180.0
9663.526,203.0
9667.392,165.0
9671.259,166.0
9675.127,188.0
9678.997,231.0
9682.869,192.0
9686.742,200.0
9690.617,194.0
9694.493,189.0
9698.371,152.0
9702.25,180.0
9706.131,211.0
9710.014,203.0
9713.897,192.0
9717.783,184.0
9721.67,176.0
9725.559,175.0
9729.449,181.0
9733.341,176.0
9737.234,186.0
9741.129,183.0
9745.025,177.0
9748.924,192.0
9752.823,183.0
9756.725,173.0
9760.627,180.0
9764.531,168.0
9768.4375,185.0
9772.345,202.0
9776.254,189.0
9780.164,190.0
9784.076,217.0
9787.99,182.0
9791.905,196.0
9795.822,194.0
9799.74,204.0
9803.66,231.0
9807.582,236.0
9811.505,206.0
9815.43,173.0
9819.355,164.0
9823.283,201.0
9827.213,256.0
9831.144,235.0
9835.076,203.0
9839.01,210.0
9842.945,246.0
9846.883,245.0
9850.821,216.0
9854.762,208.0
9858.704,199.0
9862.647,202.0
9866.593,195.0
9870.539,192.0
9874.487,204.0
9878.4375,164.0
9882.389,186.0
9886.342,189.0
9890.296,184.0
9894.252,180.0
9898.21,178.0
9902.169,183.0
9906.13,211.0
9910.093,207.0
9914.057,183.0
9918.022,203.0
9921.989,211.0
9925.958,158.0
9929.929,186.0
9933.9,204.0
9937.874,166.0
9941.85,188.0
9945.826,170.0
9949.805,179.0
9953.784,194.0
9957.766,174.0
9961.749,174.0
9965.733,178.0
9969.72,215.0
9973.708,203.0
9977.697,179.0
9981.688,165.0
9985.681,212.0
9989.675,171.0
9993.671,186.0
9997.668,181.0
10001.667,171.0
10005.668,180.0
10009.67,179.0
10013.674,192.0
10017.68,185.0
10021.687,162.0
10025.695,180.0
10029.706,166.0
10033.718,176.0
10037.731,194.0
10041.746,202.0
10045.763,200.0
10049.781,178.0
10053.801,202.0
10057.822,193.0
10061.846,186.0
10065.87,165.0
10069.896,187.0
10073.925,153.0
10077.954,175.0
10081.985,184.0
10086.019,199.0
10090.053,223.0
10094.089,163.0
10098.127,200.0
10102.166,180.0
10106.207,214.0
10110.25,191.0
10114.294,186.0
10118.34,185.0
10122.387,193.0
10126.436,199.0
10130.486,172.0
10134.538,192.0
10138.592,194.0
10142.647,184.0
10146.704,200.0
10150.763,191.0
10154.823,186.0
10158.885,168.0
10162.948,187.0
10167.014,169.0
10171.08,170.0
10175.148,167.0
10179.219,185.0
10183.29,203.0
10187.363,170.0
10191.438,199.0
10195.515,188.0
10199.593,181.0
10203.673,201.0
10207.754,176.0
10211.837,190.0
10215.922,194.0
10220.008,191.0
10224.096,181.0
10228.186,190.0
10232.276,194.0
10236.369,206.0
10240.464,184.0
10244.56,200.0
10248.657,185.0
10252.757,180.0
10256.858,204.0
10260.961,204.0
10265.065,163.0
10269.172,193.0
10273.279,202.0
10277.389,214.0
10281.5,177.0
10285.612,196.0
10289.727,193.0
10293.843,185.0
10297.96,225.0
10302.079,181.0
10306.2,183.0
10310.322,173.0
10314.446,199.0
10318.572,215.0
10322.699,200.0
10326.828,191.0
10330.959,220.0
10335.092,194.0
10339.226,223.0
10343.361,209.0
10347.499,213.0
10351.638,236.0
10355.778,238.0
10359.921,224.0
10364.064,214.0
10368.21,208.0
10372.357,224.0
10376.507,220.0
10380.657,209.0
10384.81,184.0
10388.964,199.0
10393.119,207.0
10397.276,189.0
10401.436,209.0
10405.596,211.0
10409.758,185.0
10413.922,187.0
10418.088,209.0
10422.255,179.0
10426.424,199.0
10430.595,217.0
10434.767,200.0
10438.94,174.0
10443.116,216.0
10447.294,206.0
10451.473,183.0
10455.653,183.0
10459.836,211.0
10464.02,190.0
10468.205,205.0
10472.393,218.0
10476.581,192.0
10480.771,211.0
10484.964,210.0
10489.158,189.0
10493.354,207.0
10497.551,203.0
10501.75,202.0
10505.951,214.0
10510.153,197.0
10514.357,227.0
10518.563,199.0
10522.7705,215.0
10526.9795,216.0
10531.19,177.0
10535.403,222.0
10539.617,238.0
10543.833,206.0
10548.051,207.0
10552.27,217.0
10556.49,198.0
10560.713,205.0
10564.9375,193.0
10569.163,191.0
10573.391,194.0
10577.62,229.0
10581.852,202.0
10586.084,216.0
10590.318,251.0
10594.555,244.0
10598.793,188.0
10603.032,216.0
10607.273,214.0
10611.517,252.0
10615.761,210.0
10620.007,246.0
10624.255,222.0
10628.505,223.0
10632.756,205.0
10637.009,230.0
10641.264,219.0
10645.5205,201.0
10649.778,238.0
10654.038,234.0
10658.3,259.0
10662.563,237.0
10666.828,239.0
10671.095,224.0
10675.363,251.0
10679.634,242.0
10683.905,234.0
10688.179,239.0
10692.454,246.0
10696.731,256.0
10701.01,262.0
10705.29,245.0
10709.572,216.0
10713.856,257.0
10718.142,263.0
10722.429,279.0
10726.718,261.0
10731.009,234.0
10735.301,279.0
10739.595,304.0
10743.891,272.0
10748.188,240.0
10752.487,267.0
10756.788,307.0
10761.091,270.0
10765.3955,261.0
10769.702,244.0
10774.01,234.0
10778.319,244.0
10782.631,195.0
10786.944,223.0
10791.259,218.0
10795.575,235.0
10799.894,190.0
10804.214,227.0
10808.535,218.0
10812.858,227.0
10817.184,237.0
10821.511,216.0
10825.839,243.0
10830.169,222.0
10834.501,207.0
10838.835,228.0
10843.171,203.0
10847.508,236.0
10851.847,263.0
10856.1875,236.0
10860.53,224.0
10864.874,219.0
10869.22,232.0
10873.567,221.0
10877.917,250.0
10882.269,248.0
10886.621,238.0
10890.976,232.0
10895.332,232.0
10899.69,222.0
10904.051,225.0
10908.412,262.0
10912.775,228.0
10917.141,211.0
10921.508,222.0
10925.876,242.0
10930.246,219.0
10934.618,231.0
10938.992,202.0
10943.368,230.0
10947.745,243.0
10952.124,231.0
10956.505,209.0
10960.888,218.0
10965.272,210.0
10969.658,234.0
10974.046,223.0
10978.436,216.0
10982.827,242.0
10987.221,259.0
10991.615,229.0
10996.012,247.0
11000.41,242.0
11004.811,261.0
11009.213,242.0
11013.616,247.0
11018.021,263.0
11022.429,232.0
11026.838,206.0
11031.249,232.0
11035.661,217.0
11040.075,260.0
11044.491,251.0
11048.909,237.0
11053.329,250.0
11057.75,221.0
11062.173,255.0
11066.598,253.0
11071.024,245.0
11075.453,235.0
11079.884,229.0
11084.315,224.0
11088.749,222.0
11093.185,249.0
11097.622,218.0
11102.062,233.0
11106.502,224.0
11110.944,206.0
11115.389,222.0
11119.835,229.0
11124.283,210.0
11128.733,220.0
11133.185,249.0
11137.638,242.0
11142.093,234.0
11146.55,237.0
11151.009,247.0
11155.469,235.0
11159.931,221.0
11164.395,222.0
11168.86,246.0
11173.328,239.0
11177.798,243.0
11182.269,254.0
11186.741,247.0
11191.216,276.0
11195.692,243.0
11200.171,261.0
11204.651,224.0
11209.133,248.0
11213.616,254.0
11218.102,281.0
11222.589,240.0
11227.078,248.0
11231.569,269.0
11236.062,275.0
11240.556,230.0
11245.052,266.0
11249.55,276.0
11254.05,248.0
11258.552,258.0
11263.056,276.0
11267.561,290.0
11272.067,255.0
11276.576,297.0
11281.087,311.0
11285.6,275.0
11290.114,248.0
11294.63,285.0
11299.147,277.0
11303.667,289.0
11308.188,302.0
11312.712,317.0
11317.237,317.0
11321.765,319.0
11326.293,277.0
11330.823,342.0
11335.355,340.0
11339.89,318.0
11344.426,315.0
11348.964,345.0
11353.504,328.0
11358.045,332.0
11362.588,365.0
11367.133,367.0
11371.68,397.0
11376.229,376.0
11380.779,404.0
11385.332,392.0
11389.886,385.0
11394.441,417.0
11398.999,447.0
11403.559,410.0
11408.12,415.0
11412.684,439.0
11417.249,440.0
11421.816,466.0
11426.385,487.0
11430.955,509.0
11435.527,523.0
11440.102,532.0
11444.678,533.0
11449.256,600.0
11453.836,531.0
11458.417,520.0
11463.0,586.0
11467.585,622.0
11472.172,583.0
11476.761,627.0
11481.352,643.0
11485.944,636.0
11490.539,618.0
11495.136,717.0
11499.733,683.0
11504.333,716.0
11508.935,744.0
11513.538,739.0
11518.144,734.0
11522.751,722.0
11527.36,808.0
11531.972,756.0
11536.584,735.0
11541.198,840.0
11545.814,925.0
11550.433,793.0
11555.053,779.0
11559.675,893.0
11564.299,913.0
11568.925,797.0
11573.553,830.0
11578.183,961.0
11582.813,901.0
11587.446,805.0
11592.081,955.0
11596.718,1003.0
11601.356,899.0
11605.997,887.0
11610.64,1076.0
11615.284,994.0
11619.931,841.0
11624.579,995.0
11629.229,958.0
11633.88,878.0
11638.533,973.0
11643.188,1206.0
11647.846,1002.0
11652.505,758.0
11657.166,1077.0
11661.829,1109.0
11666.494,717.0
11671.161,792.0
11675.83,1429.0
11680.5,1420.0
11685.172,809.0
11689.846,668.0
11694.521,715.0
11699.199,558.0
11703.879,498.0
11708.561,535.0
11713.244,506.0
11717.93,425.0
11722.617,422.0
11727.307,419.0
11731.998,400.0
11736.69,410.0
11741.385,382.0
11746.081,409.0
11750.779,399.0
11755.4795,406.0
11760.182,414.0
11764.886,410.0
11769.592,402.0
11774.3,395.0
11779.01,392.0
11783.722,410.0
11788.436,411.0
11793.151,376.0
11797.868,391.0
11802.587,415.0
11807.308,386.0
11812.03,336.0
11816.755,381.0
11821.481,399.0
11826.21,381.0
11830.94,333.0
11835.673,340.0
11840.407,298.0
11845.144,339.0
11849.882,346.0
11854.622,302.0
11859.364,300.0
11864.108,335.0
11868.8545,310.0
11873.602,291.0
11878.351,285.0
11883.102,275.0
11887.8545,266.0
11892.609,282.0
11897.366,255.0
11902.125,249.0
11906.886,259.0
11911.648,246.0
11916.413,258.0
11921.18,241.0
11925.948,246.0
11930.719,289.0
11935.491,266.0
11940.266,248.0
11945.042,240.0
11949.82,261.0
11954.601,285.0
11959.383,265.0
11964.167,263.0
11968.953,262.0
11973.74,253.0
11978.529,265.0
11983.32,228.0
11988.113,254.0
11992.908,221.0
