M/Z,Intensity
800.0,140.0
800.32,150.0
800.64014,89.0
800.9604,134.0
801.28076,212.0
801.60126,67.0
801.9219,127.0
802.2426,184.0
802.56354,69.0
802.8846,144.0
803.20575,188.0
803.52704,78.0
803.84845,119.0
804.17,199.0
804.49164,100.0
804.8134,84.0
805.1353,180.0
805.4574,115.0
805.7796,71.0
806.1019,179.0
806.4244,188.0
806.74695,77.0
807.06964,178.0
807.39246,160.0
807.7154,71.0
808.03845,142.0
808.3617,192.0
808.68506,49.0
809.00854,140.0
809.33215,186.0
809.6559,71.0
809.97974,121.0
810.3037,170.0
810.6278,78.0
810.9521,118.0
811.2765,154.0
811.601,58.0
811.92566,94.0
812.2504,171.0
812.5753,80.0
812.9003,88.0
813.22546,158.0
813.5508,78.0
813.8762,84.0
814.2018,152.0
814.52747,75.0
814.8533,83.0
815.1792,148.0
815.50525,103.0
815.8314,77.0
816.1578,164.0
816.48425,77.0
816.81085,89.0
817.1376,174.0
817.4644,104.0
817.7914,82.0
818.11847,178.0
818.44574,116.0
818.77313,68.0
819.10065,158.0
819.4283,102.0
819.75604,61.0
820.0839,134.0
820.412,119.0
820.7402,67.0
821.0685,150.0
821.3969,131.0
821.72546,67.0
822.05414,137.0
822.38293,116.0
822.7119,86.0
823.041,170.0
823.37024,127.0
823.6996,67.0
824.02905,156.0
824.35864,157.0
824.6884,179.0
825.0183,1097.0
825.3483,171.0
825.67847,90.0
826.0087,517.0
826.3391,146.0
826.6696,73.0
827.0003,236.0
827.3311,146.0
827.66205,65.0
827.9931,111.0
828.3243,115.0
828.65564,77.0
828.9871,132.0
829.3187,153.0
829.65045,60.0
829.9823,100.0
830.3143,159.0
830.6464,72.0
830.9787,116.0
831.3111,133.0
831.6436,62.0
831.97626,100.0
832.309,152.0
832.64197,67.0
832.97504,108.0
833.3082,146.0
833.64154,68.0
833.975,117.0
834.3086,150.0
834.64233,69.0
834.9762,101.0
835.3102,185.0
835.6443,71.0
835.9785,108.0
836.3129,179.0
836.64746,83.0
836.9821,138.0
837.3169,173.0
837.6518,74.0
837.9869,119.0
838.3221,164.0
838.6574,65.0
838.99286,264.0
839.3284,161.0
839.6642,77.0
840.00006,202.0
840.33606,143.0
840.6722,85.0
841.0084,258.0
841.34485,121.0
841.6814,86.0
842.01807,179.0
842.35486,152.0
842.6918,82.0
843.0289,138.0
843.3661,120.0
843.7034,62.0
844.0409,123.0
844.37854,139.0
844.7163,104.0
845.0542,255.0
845.3922,155.0
845.73035,89.0
846.06866,177.0
846.4071,132.0
846.74567,93.0
847.08435,139.0
847.42316,129.0
847.76215,65.0
848.10126,135.0
848.4405,132.0
848.77985,66.0
849.1194,131.0
849.45905,113.0
849.7988,73.0
850.13873,130.0
850.47876,101.0
850.819,79.0
851.1593,127.0
851.49976,74.0
851.84033,89.0
852.1811,150.0
852.522,95.0
852.863,71.0
853.2041,173.0
853.5454,100.0
853.88684,89.0
854.2284,144.0
854.57007,78.0
854.9119,193.0
855.2539,177.0
855.596,77.0
855.93823,129.0
856.2806,137.0
856.6231,67.0
856.96576,141.0
857.30853,183.0
857.6514,89.0
857.9945,112.0
858.3377,178.0
858.681,83.0
859.0245,124.0
859.3681,140.0
859.71185,83.0
860.0557,131.0
860.3997,130.0
860.7439,269.0
861.0882,312.0
861.4326,121.0
861.77716,205.0
862.1219,203.0
862.46674,97.0
862.8117,154.0
863.15686,152.0
863.50214,84.0
863.84753,117.0
864.19305,153.0
864.53876,68.0
864.8846,99.0
865.2305,171.0
865.5766,78.0
865.92285,79.0
866.2692,175.0
866.6157,78.0
866.96234,122.0
867.30914,169.0
867.65607,72.0
868.0031,122.0
868.35034,134.0
868.6977,58.0
869.04517,123.0
869.39276,112.0
869.74054,71.0
870.08844,119.0
870.43646,106.0
870.7846,63.0
871.13293,115.0
871.4814,99.0
871.82996,76.0
872.1787,122.0
872.5276,89.0
872.8766,114.0
873.2257,151.0
873.575,62.0
873.92444,98.0
874.274,139.0
874.6237,68.0
874.9736,126.0
875.32355,148.0
875.6737,54.0
876.024,111.0
876.3744,152.0
876.7249,91.0
877.0756,150.0
877.42645,104.0
877.7774,106.0
878.12854,150.0
878.4798,76.0
878.8312,115.0
879.18274,126.0
879.5344,70.0
879.8862,82.0
880.23816,160.0
880.5903,73.0
880.9425,98.0
881.29486,136.0
881.6474,45.0
882.00006,92.0
882.35284,153.0
882.7058,77.0
883.0589,126.0
883.4121,127.0
883.7655,74.0
884.119,121.0
884.47266,88.0
884.8264,64.0
885.18036,132.0
885.5344,87.0
885.8886,75.0
886.243,135.0
886.5975,59.0
886.9521,90.0
887.3069,134.0
887.6618,57.0
888.01685,118.0
888.3721,109.0
888.7274,71.0
889.0829,124.0
889.43854,93.0
889.7943,65.0
890.1502,130.0
890.5063,108.0
890.8625,76.0
891.2188,138.0
891.5753,60.0
891.93195,69.0
892.2887,145.0
892.6456,68.0
893.0027,96.0
893.35986,132.0
893.7172,65.0
894.0747,111.0
894.4323,118.0
894.7901,78.0
895.148,127.0
895.50604,80.0
895.86426,71.0
896.2226,169.0
896.58105,73.0
896.9397,85.0
897.29846,136.0
897.6574,58.0
898.0165,122.0
898.3757,136.0
898.73505,70.0
899.09454,140.0
899.45416,98.0
899.81396,66.0
900.1739,177.0
900.53394,92.0
900.89417,85.0
901.2545,168.0
901.615,58.0
901.97565,93.0
902.3364,126.0
902.6974,58.0
903.0585,95.0
903.4197,118.0
903.78107,60.0
904.1426,161.0
904.5042,98.0
904.866,75.0
905.22797,172.0
905.5901,71.0
905.95233,71.0
906.3147,158.0
906.67725,68.0
907.0399,102.0
907.4027,96.0
907.7657,64.0
908.1288,112.0
908.49207,83.0
908.85547,61.0
909.219,102.0
909.5827,58.0
909.94653,65.0
910.3105,139.0
910.6746,55.0
911.0389,95.0
911.4033,95.0
911.7679,49.0
912.13257,115.0
912.49744,66.0
912.8624,65.0
913.2276,127.0
913.5929,58.0
913.9583,75.0
914.3239,130.0
914.68964,64.0
915.05554,88.0
915.4216,112.0
915.7877,48.0
916.15405,129.0
916.5205,78.0
916.88715,82.0
917.2539,125.0
917.6208,74.0
917.98785,106.0
918.35504,138.0
918.7224,55.0
919.0899,111.0
919.4575,100.0
919.8253,56.0
920.19324,186.0
920.56134,80.0
920.92957,94.0
921.2979,124.0
921.66644,55.0
922.0351,98.0
922.40393,125.0
922.7729,61.0
923.14197,101.0
923.5112,81.0
923.8806,80.0
924.2502,117.0
924.6199,71.0
924.98975,83.0
925.35974,122.0
925.72986,59.0
926.10016,114.0
926.4706,84.0
926.8412,67.0
927.2119,107.0
927.5828,70.0
927.95386,72.0
928.325,128.0
928.69635,57.0
929.0678,108.0
929.43945,110.0
929.8112,69.0
930.18317,117.0
930.55524,93.0
930.9274,61.0
931.2998,110.0
931.6723,47.0
932.045,76.0
932.4178,113.0
932.7908,40.0
933.1639,117.0
933.5372,84.0
933.9106,70.0
934.2841,124.0
934.65784,71.0
935.0317,80.0
935.4057,113.0
935.77985,44.0
936.1542,93.0
936.5286,61.0
936.90326,58.0
937.278,119.0
937.65295,59.0
938.028,75.0
938.4032,104.0
938.77856,51.0
939.15405,128.0
939.5297,74.0
939.9055,82.0
940.2815,127.0
940.6576,53.0
941.0339,90.0
941.4103,94.0
941.78687,63.0
942.1636,107.0
942.54047,67.0
942.9175,66.0
943.2947,109.0
943.672,61.0
944.04944,94.0
944.42706,81.0
944.8048,48.0
945.18274,128.0
945.5608,72.0
945.939,66.0
946.3174,132.0
946.6959,58.0
947.0746,90.0
947.4534,108.0
947.8324,65.0
948.21155,130.0
948.5908,39.0
948.9703,78.0
949.34985,113.0
949.7296,52.0
950.1095,112.0
950.48956,70.0
950.86975,65.0
951.2501,100.0
951.6306,61.0
952.0113,95.0
952.3921,109.0
952.7731,44.0
953.1542,106.0
953.53546,77.0
953.9169,57.0
954.29846,113.0
954.6802,72.0
955.0621,78.0
955.4441,92.0
955.8263,60.0
956.2086,113.0
956.5911,66.0
956.97375,84.0
957.35657,94.0
957.7395,51.0
958.1226,86.0
958.50586,85.0
958.8893,60.0
959.2728,135.0
959.65656,52.0
960.0404,88.0
960.42444,92.0
960.8086,70.0
961.19293,120.0
961.5774,69.0
961.96204,68.0
962.3468,113.0
962.73175,62.0
963.1168,103.0
963.5021,84.0
963.88745,65.0
964.273,114.0
964.6587,54.0
965.04456,107.0
965.4306,89.0
965.8168,62.0
966.2031,118.0
966.5896,60.0
966.97626,70.0
967.36304,103.0
967.75,61.0
968.1371,98.0
968.52435,88.0
968.91174,94.0
969.2993,117.0
969.687,57.0
970.0749,91.0
970.4629,104.0
970.8511,84.0
971.23944,131.0
971.6279,68.0
972.0166,92.0
972.4054,124.0
972.7944,57.0
973.1835,120.0
973.57275,72.0
973.96216,75.0
974.35175,112.0
974.7415,75.0
975.1314,96.0
975.5215,79.0
975.9117,73.0
976.30206,110.0
976.69257,55.0
977.08325,97.0
977.47406,96.0
977.86505,57.0
978.2562,123.0
978.6475,56.0
979.039,90.0
979.4306,102.0
979.8224,62.0
980.2143,119.0
980.6064,75.0
980.99866,79.0
981.39105,85.0
981.7836,62.0
982.17633,130.0
982.5692,64.0
982.9622,85.0
983.3554,95.0
983.7488,52.0
984.1423,91.0
984.53595,85.0
984.92975,71.0
985.3237,103.0
985.71783,58.0
986.1121,113.0
986.5066,86.0
986.9012,68.0
987.29596,95.0
987.69086,60.0
988.08594,112.0
988.4812,69.0
988.8766,55.0
989.27216,105.0
989.66785,63.0
990.0637,95.0
990.4597,97.0
990.8559,75.0
991.25226,94.0
991.64874,65.0
992.0454,110.0
992.4422,120.0
992.8392,78.0
993.2363,118.0
993.6336,70.0
994.03107,97.0
994.42865,99.0
994.8264,69.0
995.22437,104.0
995.62244,54.0
996.0207,80.0
996.4191,97.0
996.8177,65.0
997.21643,89.0
997.6153,57.0
998.01434,101.0
998.4136,104.0
998.8129,50.0
999.21246,105.0
999.6121,54.0
1000.01196,94.0
1000.412,94.0
1000.81213,68.0
1001.21246,112.0
1001.613,64.0
1002.0136,79.0
1002.4144,94.0
1002.81537,50.0
1003.2165,111.0
1003.6178,63.0
1004.0192,76.0
1004.42084,115.0
1004.82263,64.0
1005.22455,111.0
1005.62665,72.0
1006.0289,122.0
1006.4313,88.0
1006.83386,85.0
1007.2366,115.0
1007.63947,59.0
1008.04254,112.0
1008.44574,112.0
1008.8491,78.0
1009.2527,96.0
1009.6564,63.0
1010.06024,97.0
1010.4643,83.0
1010.86847,68.0
1011.2728,131.0
1011.6773,75.0
1012.082,93.0
1012.4868,105.0
1012.8918,62.0
1013.29694,117.0
1013.7023,73.0
1014.1077,131.0
1014.51337,83.0
1014.9192,113.0
1015.32513,112.0
1015.73126,75.0
1016.1376,115.0
1016.544,85.0
1016.9506,71.0
1017.3574,117.0
1017.76434,66.0
1018.17145,117.0
1018.57874,82.0
1018.98615,81.0
1019.39374,103.0
1019.8015,55.0
1020.2094,108.0
1020.6175,67.0
1021.02576,74.0
1021.43414,137.0
1021.8427,65.0
1022.25146,110.0
1022.66034,66.0
1023.0694,92.0
1023.47864,113.0
1023.888,53.0
1024.2976,119.0
1024.7073,71.0
1025.1172,94.0
1025.5272,66.0
1025.9374,70.0
1026.3478,119.0
1026.7583,61.0
1027.169,105.0
1027.5798,97.0
1027.9908,114.0
1028.4021,107.0
1028.8135,89.0
1029.225,107.0
1029.6367,86.0
1030.0486,163.0
1030.4606,95.0
1030.8728,103.0
1031.2852,99.0
1031.6976,67.0
1032.1104,115.0
1032.5232,93.0
1032.9362,91.0
1033.3494,114.0
1033.7627,78.0
1034.1761,124.0
1034.5898,76.0
1035.0037,104.0
1035.4177,93.0
1035.8319,97.0
1036.2462,124.0
1036.6608,71.0
1037.0754,92.0
1037.4902,99.0
1037.9053,89.0
1038.3204,101.0
1038.7357,55.0
1039.1512,115.0
1039.5669,93.0
1039.9827,71.0
1040.3987,127.0
1040.8148,48.0
1041.2312,105.0
1041.6477,79.0
1042.0643,88.0
1042.4812,120.0
1042.8982,63.0
1043.3153,133.0
1043.7327,85.0
1044.1501,123.0
1044.5677,91.0
1044.9856,74.0
1045.4036,119.0
1045.8218,70.0
1046.2401,130.0
1046.6586,68.0
1047.0773,90.0
1047.4961,81.0
1047.915,90.0
1048.3342,100.0
1048.7535,77.0
1049.1731,103.0
1049.5928,95.0
1050.0126,169.0
1050.4326,114.0
1050.8528,128.0
1051.2731,108.0
1051.6936,98.0
1052.1143,125.0
1052.5352,81.0
1052.9562,98.0
1053.3773,121.0
1053.7987,84.0
1054.2202,104.0
1054.6418,62.0
1055.0637,101.0
1055.4857,105.0
1055.908,102.0
1056.3303,109.0
1056.7528,71.0
1057.1755,127.0
1057.5984,109.0
1058.0215,91.0
1058.4447,119.0
1058.868,89.0
1059.2916,109.0
1059.7153,78.0
1060.1392,128.0
1060.5632,141.0
1060.9874,81.0
1061.4119,156.0
1061.8364,89.0
1062.2611,130.0
1062.686,67.0
1063.1111,88.0
1063.5364,99.0
1063.9618,84.0
1064.3873,99.0
1064.8131,65.0
1065.239,127.0
1065.6652,131.0
1066.0914,146.0
1066.5178,98.0
1066.9445,126.0
1067.3712,141.0
1067.7982,103.0
1068.2253,131.0
1068.6526,86.0
1069.0801,122.0
1069.5077,112.0
1069.9355,99.0
1070.3635,108.0
1070.7916,73.0
1071.22,139.0
1071.6484,100.0
1072.0771,130.0
1072.506,107.0
1072.9349,108.0
1073.3641,129.0
1073.7935,89.0
1074.223,124.0
1074.6527,87.0
1075.0825,99.0
1075.5126,99.0
1075.9427,89.0
1076.3732,100.0
1076.8037,76.0
1077.2344,123.0
1077.6653,91.0
1078.0963,110.0
1078.5276,97.0
1078.959,99.0
1079.3906,101.0
1079.8224,86.0
1080.2543,94.0
1080.6864,79.0
1081.1187,97.0
1081.5511,103.0
1081.9838,90.0
1082.4165,111.0
1082.8495,68.0
1083.2826,108.0
1083.716,81.0
1084.1494,91.0
1084.5831,97.0
1085.017,67.0
1085.4509,76.0
1085.8851,81.0
1086.3195,102.0
1086.754,90.0
1087.1887,105.0
1087.6235,94.0
1088.0586,125.0
1088.4938,96.0
1088.9292,91.0
1089.3647,121.0
1089.8005,77.0
1090.2365,110.0
1090.6725,61.0
1091.1088,105.0
1091.5452,98.0
1091.9818,85.0
1092.4186,108.0
1092.8556,88.0
1093.2927,107.0
1093.7301,65.0
1094.1676,96.0
1094.6052,96.0
1095.0431,93.0
1095.4811,95.0
1095.9193,88.0
1096.3577,111.0
1096.7963,75.0
1097.235,100.0
1097.6738,80.0
1098.1129,104.0
1098.5521,101.0
1098.9916,70.0
1099.4312,80.0
1099.871,79.0
1100.3109,108.0
1100.751,70.0
1101.1913,113.0
1101.6317,76.0
1102.0724,95.0
1102.5132,96.0
1102.9542,89.0
1103.3954,112.0
1103.8368,62.0
1104.2783,100.0
1104.72,79.0
1105.1619,91.0
1105.6039,98.0
1106.0461,106.0
1106.4885,108.0
1106.9312,83.0
1107.3739,110.0
1107.8169,64.0
1108.26,119.0
1108.7034,79.0
1109.1469,99.0
1109.5905,105.0
1110.0343,90.0
1110.4783,94.0
1110.9225,69.0
1111.3668,114.0
1111.8114,85.0
1112.2561,82.0
1112.701,84.0
1113.1461,89.0
1113.5914,79.0
1114.0369,104.0
1114.4824,98.0
1114.9282,73.0
1115.3741,120.0
1115.8203,78.0
1116.2666,105.0
1116.7131,74.0
1117.1598,98.0
1117.6067,82.0
1118.0537,74.0
1118.501,91.0
1118.9484,72.0
1119.396,110.0
1119.8438,67.0
1120.2917,120.0
1120.7399,65.0
1121.1881,102.0
1121.6366,83.0
1122.0852,74.0
1122.534,93.0
1122.983,80.0
1123.4323,113.0
1123.8816,63.0
1124.3312,109.0
1124.7809,69.0
1125.2308,91.0
1125.6809,65.0
1126.1312,98.0
1126.5817,89.0
1127.0323,76.0
1127.4832,84.0
1127.9342,79.0
1128.3854,108.0
1128.8367,81.0
1129.2882,106.0
1129.7399,64.0
1130.1918,105.0
1130.6438,76.0
1131.0961,78.0
1131.5485,87.0
1132.0011,75.0
1132.4539,114.0
1132.9069,82.0
1133.36,115.0
1133.8134,67.0
1134.2668,120.0
1134.7206,69.0
1135.1744,65.0
1135.6285,107.0
1136.0828,100.0
1136.5372,71.0
1136.9918,93.0
1137.4467,114.0
1137.9016,71.0
1138.3568,103.0
1138.8121,85.0
1139.2677,106.0
1139.7234,85.0
1140.1793,87.0
1140.6354,78.0
1141.0917,73.0
1141.5481,75.0
1142.0048,69.0
1142.4615,94.0
1142.9186,70.0
1143.3757,100.0
1143.8331,63.0
1144.2906,84.0
1144.7484,64.0
1145.2063,100.0
1145.6644,73.0
1146.1227,105.0
1146.5812,77.0
1147.0398,87.0
1147.4987,102.0
1147.9576,86.0
1148.4169,136.0
1148.8762,79.0
1149.3358,129.0
1149.7955,71.0
1150.2555,115.0
1150.7156,87.0
1151.1759,105.0
1151.6364,73.0
1152.097,78.0
1152.5579,87.0
1153.0189,70.0
1153.4801,100.0
1153.9415,81.0
1154.4031,111.0
1154.8649,69.0
1155.3268,106.0
1155.789,93.0
1156.2512,92.0
1156.7137,80.0
1157.1764,91.0
1157.6393,83.0
1158.1023,105.0
1158.5656,103.0
1159.0289,80.0
1159.4926,113.0
1159.9563,67.0
1160.4203,83.0
1160.8844,63.0
1161.3488,103.0
1161.8134,71.0
1162.2781,107.0
1162.743,67.0
1163.2081,98.0
1163.6735,73.0
1164.1389,80.0
1164.6046,96.0
1165.0704,82.0
1165.5365,102.0
1166.0027,82.0
1166.4691,115.0
1166.9357,66.0
1167.4025,110.0
1167.8694,68.0
1168.3365,107.0
1168.8038,62.0
1169.2714,122.0
1169.739,79.0
1170.2069,116.0
1170.675,92.0
1171.1433,89.0
1171.6118,77.0
1172.0804,101.0
1172.5493,80.0
1173.0183,79.0
1173.4875,107.0
1173.9569,90.0
1174.4265,98.0
1174.8962,98.0
1175.3662,98.0
1175.8363,75.0
1176.3066,93.0
1176.7772,76.0
1177.2479,120.0
1177.7189,59.0
1178.19,88.0
1178.6613,100.0
1179.1327,90.0
1179.6044,98.0
1180.0762,76.0
1180.5482,97.0
1181.0204,89.0
1181.4928,104.0
1181.9655,89.0
1182.4382,86.0
1182.9113,80.0
1183.3844,105.0
1183.8578,76.0
1184.3313,92.0
1184.805,65.0
1185.2789,132.0
1185.753,86.0
1186.2273,113.0
1186.7018,73.0
1187.1765,86.0
1187.6514,85.0
1188.1265,79.0
1188.6017,87.0
1189.0771,92.0
1189.5527,79.0
1190.0286,85.0
1190.5045,104.0
1190.9807,81.0
1191.4572,89.0
1191.9337,73.0
1192.4105,110.0
1192.8875,86.0
1193.3646,112.0
1193.8419,96.0
1194.3195,94.0
1194.7972,83.0
1195.2751,113.0
1195.7533,75.0
1196.2316,97.0
1196.7101,74.0
1197.1887,97.0
1197.6676,74.0
1198.1467,80.0
1198.626,94.0
1199.1055,74.0
1199.5851,98.0
1200.065,77.0
1200.5449,90.0
1201.0251,81.0
1201.5056,90.0
1201.9862,84.0
1202.467,88.0
1202.948,90.0
1203.4292,96.0
1203.9105,74.0
1204.3921,89.0
1204.8739,69.0
1205.3558,111.0
1205.838,66.0
1206.3203,103.0
1206.8029,69.0
1207.2855,101.0
1207.7684,83.0
1208.2516,82.0
1208.7349,80.0
1209.2184,95.0
1209.702,82.0
1210.1859,94.0
1210.67,87.0
1211.1543,96.0
1211.6388,91.0
1212.1234,87.0
1212.6083,101.0
1213.0933,69.0
1213.5785,79.0
1214.064,76.0
1214.5496,99.0
1215.0354,91.0
1215.5214,97.0
1216.0076,87.0
1216.494,97.0
1216.9806,66.0
1217.4674,95.0
1217.9543,76.0
1218.4415,87.0
1218.929,81.0
1219.4165,96.0
1219.9043,73.0
1220.3922,116.0
1220.8804,82.0
1221.3688,105.0
1221.8573,61.0
1222.3461,100.0
1222.835,75.0
1223.3241,106.0
1223.8135,72.0
1224.303,97.0
1224.7927,68.0
1225.2826,99.0
1225.7727,70.0
1226.2631,100.0
1226.7535,97.0
1227.2443,104.0
1227.7351,64.0
1228.2262,102.0
1228.7175,91.0
1229.209,113.0
1229.7007,78.0
1230.1925,104.0
1230.6846,85.0
1231.1769,106.0
1231.6693,92.0
1232.162,74.0
1232.6549,101.0
1233.148,92.0
1233.6412,65.0
1234.1346,88.0
1234.6283,108.0
1235.1222,90.0
1235.6162,93.0
1236.1105,87.0
1236.6049,104.0
1237.0995,76.0
1237.5944,107.0
1238.0894,82.0
1238.5846,74.0
1239.0801,76.0
1239.5757,75.0
1240.0715,99.0
1240.5675,83.0
1241.0637,96.0
1241.5602,95.0
1242.0568,86.0
1242.5536,107.0
1243.0507,90.0
1243.5479,96.0
1244.0453,90.0
1244.5428,100.0
1245.0406,86.0
1245.5387,90.0
1246.0369,99.0
1246.5353,126.0
1247.0339,97.0
1247.5327,111.0
1248.0317,98.0
1248.531,85.0
1249.0304,93.0
1249.53,93.0
1250.0298,82.0
1250.5298,92.0
1251.03,75.0
1251.5304,83.0
1252.031,97.0
1252.5319,88.0
1253.0328,69.0
1253.534,87.0
1254.0355,68.0
1254.5371,93.0
1255.039,76.0
1255.541,92.0
1256.0432,97.0
1256.5457,96.0
1257.0482,94.0
1257.551,99.0
1258.0541,78.0
1258.5573,94.0
1259.0607,95.0
1259.5643,97.0
1260.0681,97.0
1260.5721,106.0
1261.0764,96.0
1261.5808,109.0
1262.0854,84.0
1262.5903,92.0
1263.0953,112.0
1263.6006,94.0
1264.1061,80.0
1264.6117,101.0
1265.1176,100.0
1265.6237,82.0
1266.1299,92.0
1266.6364,83.0
1267.1431,97.0
1267.6499,90.0
1268.157,86.0
1268.6642,93.0
1269.1716,92.0
1269.6793,86.0
1270.1871,63.0
1270.6952,88.0
1271.2035,92.0
1271.7119,73.0
1272.2206,102.0
1272.7295,60.0
1273.2385,91.0
1273.7478,87.0
1274.2573,93.0
1274.767,96.0
1275.2769,105.0
1275.787,64.0
1276.2972,93.0
1276.8077,105.0
1277.3185,102.0
1277.8295,85.0
1278.3406,98.0
1278.8519,76.0
1279.3635,105.0
1279.8752,104.0
1280.3872,92.0
1280.8994,93.0
1281.4117,93.0
1281.9243,80.0
1282.4371,92.0
1282.9501,87.0
1283.4633,111.0
1283.9767,92.0
1284.4902,91.0
1285.004,89.0
1285.5181,109.0
1286.0322,78.0
1286.5466,110.0
1287.0613,80.0
1287.576,95.0
1288.0911,71.0
1288.6063,81.0
1289.1218,100.0
1289.6375,80.0
1290.1533,87.0
1290.6694,79.0
1291.1857,98.0
1291.7021,70.0
1292.2189,89.0
1292.7357,85.0
1293.2528,100.0
1293.7701,68.0
1294.2876,99.0
1294.8053,81.0
1295.3232,105.0
1295.8414,80.0
1296.3597,87.0
1296.8783,72.0
1297.3971,99.0
1297.916,78.0
1298.4352,87.0
1298.9546,91.0
1299.4741,104.0
1299.9939,83.0
1300.5139,101.0
1301.0342,89.0
1301.5546,114.0
1302.0752,82.0
1302.5961,97.0
1303.1171,75.0
1303.6383,78.0
1304.1598,77.0
1304.6814,89.0
1305.2032,108.0
1305.7253,83.0
1306.2477,89.0
1306.7701,73.0
1307.2928,84.0
1307.8158,70.0
1308.3389,87.0
1308.8622,74.0
1309.3857,108.0
1309.9095,67.0
1310.4335,87.0
1310.9576,66.0
1311.482,97.0
1312.0066,79.0
1312.5314,97.0
1313.0564,76.0
1313.5817,86.0
1314.107,68.0
1314.6327,100.0
1315.1586,75.0
1315.6847,92.0
1316.2109,99.0
1316.7374,82.0
1317.2642,100.0
1317.791,89.0
1318.3181,102.0
1318.8455,71.0
1319.373,111.0
1319.9008,64.0
1320.4287,98.0
1320.9569,78.0
1321.4854,100.0
1322.0139,72.0
1322.5427,86.0
1323.0718,80.0
1323.601,96.0
1324.1304,75.0
1324.66,77.0
1325.19,98.0
1325.72,88.0
1326.2502,102.0
1326.7808,68.0
1327.3115,112.0
1327.8424,66.0
1328.3735,89.0
1328.9049,68.0
1329.4365,102.0
1329.9683,62.0
1330.5002,81.0
1331.0325,71.0
1331.565,103.0
1332.0975,87.0
1332.6304,92.0
1333.1635,75.0
1333.6968,100.0
1334.2302,81.0
1334.7639,81.0
1335.2979,90.0
1335.832,67.0
1336.3663,85.0
1336.9009,82.0
1337.4357,91.0
1337.9707,69.0
1338.5059,86.0
1339.0413,73.0
1339.5769,113.0
1340.1128,82.0
1340.6488,70.0
1341.185,82.0
1341.7216,81.0
1342.2583,91.0
1342.7952,54.0
1343.3323,100.0
1343.8696,72.0
1344.4072,89.0
1344.945,79.0
1345.4829,95.0
1346.0211,84.0
1346.5596,99.0
1347.0981,84.0
1347.637,102.0
1348.176,86.0
1348.7153,80.0
1349.2548,78.0
1349.7944,79.0
1350.3344,97.0
1350.8745,69.0
1351.4149,88.0
1351.9554,77.0
1352.4962,91.0
1353.0372,66.0
1353.5785,110.0
1354.1199,73.0
1354.6615,91.0
1355.2034,92.0
1355.7455,68.0
1356.2878,96.0
1356.8303,80.0
1357.373,95.0
1357.916,86.0
1358.4592,119.0
1359.0026,64.0
1359.5461,88.0
1360.09,85.0
1360.634,111.0
1361.1783,77.0
1361.7228,89.0
1362.2675,91.0
1362.8124,92.0
1363.3575,91.0
1363.9028,87.0
1364.4484,95.0
1364.9941,80.0
1365.5402,86.0
1366.0864,88.0
1366.6328,95.0
1367.1794,68.0
1367.7263,89.0
1368.2734,106.0
1368.8208,74.0
1369.3683,89.0
1369.916,82.0
1370.464,100.0
1371.0122,71.0
1371.5607,86.0
1372.1093,81.0
1372.6581,98.0
1373.2072,94.0
1373.7565,79.0
1374.306,91.0
1374.8557,77.0
1375.4056,111.0
1375.9558,82.0
1376.5062,113.0
1377.0569,65.0
1377.6077,101.0
1378.1587,76.0
1378.71,79.0
1379.2615,84.0
1379.8132,74.0
1380.3651,101.0
1380.9172,67.0
1381.4696,85.0
1382.0222,78.0
1382.5751,87.0
1383.128,69.0
1383.6813,80.0
1384.2347,88.0
1384.7885,85.0
1385.3424,86.0
1385.8965,72.0
1386.4508,90.0
1387.0054,60.0
1387.5602,85.0
1388.1152,101.0
1388.6705,97.0
1389.226,99.0
1389.7816,72.0
1390.3375,93.0
1390.8937,73.0
1391.4501,91.0
1392.0067,56.0
1392.5635,78.0
1393.1205,70.0
1393.6777,85.0
1394.2352,89.0
1394.793,66.0
1395.3508,81.0
1395.9089,64.0
1396.4673,78.0
1397.0259,78.0
1397.5847,85.0
1398.1438,66.0
1398.703,85.0
1399.2625,105.0
1399.8221,84.0
1400.3821,100.0
1400.9423,76.0
1401.5027,89.0
1402.0632,66.0
1402.624,93.0
1403.185,81.0
1403.7463,92.0
1404.3079,99.0
1404.8696,69.0
1405.4315,112.0
1405.9937,70.0
1406.556,105.0
1407.1187,86.0
1407.6815,92.0
1408.2446,79.0
1408.808,79.0
1409.3715,73.0
1409.9352,54.0
1410.4991,87.0
1411.0634,86.0
1411.6278,81.0
1412.1925,95.0
1412.7573,106.0
1413.3224,105.0
1413.8877,75.0
1414.4532,84.0
1415.019,78.0
1415.5851,85.0
1416.1514,78.0
1416.7178,75.0
1417.2844,94.0
1417.8513,88.0
1418.4185,102.0
1418.9858,75.0
1419.5535,87.0
1420.1213,90.0
1420.6893,77.0
1421.2576,82.0
1421.826,61.0
1422.3948,134.0
1422.9637,83.0
1423.533,109.0
1424.1024,75.0
1424.672,77.0
1425.2418,88.0
1425.8119,85.0
1426.3822,104.0
1426.9528,76.0
1427.5236,110.0
1428.0946,75.0
1428.6659,91.0
1429.2373,98.0
1429.809,83.0
1430.3809,106.0
1430.953,81.0
1431.5254,89.0
1432.098,86.0
1432.6709,111.0
1433.244,105.0
1433.8173,93.0
1434.3907,90.0
1434.9645,88.0
1435.5385,112.0
1436.1127,102.0
1436.6871,83.0
1437.2618,91.0
1437.8368,94.0
1438.412,82.0
1438.9873,64.0
1439.5629,97.0
1440.1387,98.0
1440.7147,99.0
1441.291,84.0
1441.8676,73.0
1442.4443,118.0
1443.0214,70.0
1443.5985,95.0
1444.1759,86.0
1444.7535,94.0
1445.3314,84.0
1445.9095,70.0
1446.4879,110.0
1447.0665,82.0
1447.6454,109.0
1448.2245,98.0
1448.8038,83.0
1449.3833,113.0
1449.963,91.0
1450.543,98.0
1451.1232,96.0
1451.7036,94.0
1452.2843,91.0
1452.8652,67.0
1453.4464,99.0
1454.0278,91.0
1454.6095,89.0
1455.1913,68.0
1455.7733,92.0
1456.3556,79.0
1456.9381,72.0
1457.5209,100.0
1458.1039,82.0
1458.6871,73.0
1459.2706,80.0
1459.8544,63.0
1460.4384,93.0
1461.0226,66.0
1461.6069,107.0
1462.1915,108.0
1462.7764,103.0
1463.3615,113.0
1463.9468,96.0
1464.5323,111.0
1465.1182,56.0
1465.7042,81.0
1466.2905,78.0
1466.8771,81.0
1467.4639,92.0
1468.0509,69.0
1468.6382,81.0
1469.2256,85.0
1469.8132,87.0
1470.4011,70.0
1470.9893,65.0
1471.5776,104.0
1472.1663,73.0
1472.7551,82.0
1473.3442,86.0
1473.9336,84.0
1474.5232,102.0
1475.113,76.0
1475.7031,91.0
1476.2935,84.0
1476.884,69.0
1477.4747,81.0
1478.0657,87.0
1478.6569,92.0
1479.2483,87.0
1479.84,71.0
1480.4319,103.0
1481.024,65.0
1481.6165,103.0
1482.2091,94.0
1482.802,71.0
1483.3951,86.0
1483.9885,87.0
1484.5822,98.0
1485.176,70.0
1485.7701,100.0
1486.3645,88.0
1486.9591,70.0
1487.5538,88.0
1488.1488,91.0
1488.744,82.0
1489.3395,96.0
1489.9352,71.0
1490.5311,97.0
1491.1273,82.0
1491.7238,72.0
1492.3204,95.0
1492.9174,69.0
1493.5145,95.0
1494.1119,58.0
1494.7096,86.0
1495.3075,130.0
1495.9056,95.0
1496.504,91.0
1497.1027,71.0
1497.7015,78.0
1498.3007,81.0
1498.9,63.0
1499.4996,99.0
1500.0995,77.0
1500.6996,98.0
1501.2998,95.0
1501.9003,77.0
1502.501,81.0
1503.1019,78.0
1503.7031,96.0
1504.3046,103.0
1504.9062,83.0
1505.5082,83.0
1506.1104,73.0
1506.7128,78.0
1507.3154,107.0
1507.9183,65.0
1508.5215,101.0
1509.1249,82.0
1509.7285,103.0
1510.3324,96.0
1510.9365,64.0
1511.5409,78.0
1512.1455,99.0
1512.7504,230.0
1513.3555,168.0
1513.9608,97.0
1514.5664,161.0
1515.1722,89.0
1515.7783,89.0
1516.3846,87.0
1516.9912,80.0
1517.598,88.0
1518.2051,79.0
1518.8124,69.0
1519.4199,82.0
1520.0277,82.0
1520.6357,82.0
1521.244,85.0
1521.8525,92.0
1522.4613,78.0
1523.0703,70.0
1523.6796,82.0
1524.2891,94.0
1524.8988,93.0
1525.5088,116.0
1526.119,84.0
1526.7295,90.0
1527.3402,103.0
1527.9512,70.0
1528.5624,79.0
1529.1738,77.0
1529.7855,96.0
1530.3975,86.0
1531.0096,67.0
1531.6221,86.0
1532.2347,67.0
1532.8477,86.0
1533.4608,93.0
1534.0742,65.0
1534.6879,72.0
1535.3018,89.0
1535.9159,69.0
1536.5303,75.0
1537.1449,72.0
1537.7598,103.0
1538.3749,72.0
1538.9902,69.0
1539.6058,90.0
1540.2217,76.0
1540.8378,75.0
1541.4541,70.0
1542.0707,75.0
1542.6875,81.0
1543.3046,70.0
1543.9219,71.0
1544.5394,83.0
1545.1572,80.0
1545.7753,76.0
1546.3936,103.0
1547.0121,81.0
1547.6309,76.0
1548.2499,88.0
1548.8691,52.0
1549.4886,82.0
1550.1084,82.0
1550.7284,73.0
1551.3486,89.0
1551.9691,64.0
1552.5898,86.0
1553.2109,78.0
1553.8323,77.0
1554.4539,81.0
1555.0757,78.0
1555.6978,68.0
1556.3201,101.0
1556.9426,63.0
1557.5654,84.0
1558.1885,66.0
1558.8118,70.0
1559.4353,94.0
1560.0591,65.0
1560.6831,86.0
1561.3074,79.0
1561.9319,70.0
1562.5566,96.0
1563.1816,70.0
1563.8069,84.0
1564.4324,78.0
1565.0581,76.0
1565.6841,77.0
1566.3103,75.0
1566.9368,67.0
1567.5636,73.0
1568.1907,68.0
1568.818,94.0
1569.4456,106.0
1570.0734,68.0
1570.7014,84.0
1571.3297,77.0
1571.9583,73.0
1572.587,101.0
1573.2161,88.0
1573.8453,67.0
1574.4749,71.0
1575.1046,83.0
1575.7346,86.0
1576.3649,85.0
1576.9954,80.0
1577.6261,85.0
1578.2572,77.0
1578.8885,74.0
1579.5201,72.0
1580.152,70.0
1580.784,93.0
1581.4164,84.0
1582.049,75.0
1582.6818,86.0
1583.3148,97.0
1583.9481,70.0
1584.5817,91.0
1585.2155,75.0
1585.8495,82.0
1586.4839,93.0
1587.1185,86.0
1587.7534,97.0
1588.3885,84.0
1589.0239,51.0
1589.6595,85.0
1590.2954,77.0
1590.9315,82.0
1591.5679,67.0
1592.2045,79.0
1592.8413,81.0
1593.4784,87.0
1594.1158,77.0
1594.7535,88.0
1595.3915,83.0
1596.0297,85.0
1596.6681,81.0
1597.3068,83.0
1597.9457,82.0
1598.5848,83.0
1599.2242,63.0
1599.8639,56.0
1600.5038,81.0
1601.144,70.0
1601.7845,82.0
1602.4253,90.0
1603.0663,71.0
1603.7075,87.0
1604.349,69.0
1604.9907,70.0
1605.6327,83.0
1606.2749,73.0
1606.9174,69.0
1607.5602,90.0
1608.2032,68.0
1608.8466,75.0
1609.4901,71.0
1610.1339,68.0
1610.778,69.0
1611.4222,87.0
1612.0668,70.0
1612.7115,97.0
1613.3567,89.0
1614.0021,78.0
1614.6477,93.0
1615.2936,91.0
1615.9397,68.0
1616.586,104.0
1617.2327,94.0
1617.8795,70.0
1618.5266,76.0
1619.1741,69.0
1619.8218,77.0
1620.4697,89.0
1621.1179,86.0
1621.7664,92.0
1622.415,93.0
1623.064,85.0
1623.7131,78.0
1624.3627,72.0
1625.0125,69.0
1625.6625,81.0
1626.3127,98.0
1626.9633,86.0
1627.614,82.0
1628.265,81.0
1628.9163,59.0
1629.5679,96.0
1630.2197,80.0
1630.8718,63.0
1631.5242,92.0
1632.1768,78.0
1632.8296,87.0
1633.4827,81.0
1634.1361,73.0
1634.7898,85.0
1635.4437,99.0
1636.0979,73.0
1636.7523,80.0
1637.407,77.0
1638.0619,64.0
1638.7172,80.0
1639.3727,88.0
1640.0284,64.0
1640.6844,100.0
1641.3407,89.0
1641.9972,69.0
1642.6539,81.0
1643.311,79.0
1643.9684,90.0
1644.626,124.0
1645.2838,109.0
1645.9419,75.0
1646.6002,102.0
1647.2589,81.0
1647.9178,87.0
1648.577,97.0
1649.2365,78.0
1649.8961,77.0
1650.556,103.0
1651.2163,76.0
1651.8768,73.0
1652.5376,64.0
1653.1986,83.0
1653.8599,81.0
1654.5214,85.0
1655.1832,77.0
1655.8453,72.0
1656.5077,86.0
1657.1703,72.0
1657.8331,72.0
1658.4962,80.0
1659.1597,71.0
1659.8234,85.0
1660.4873,72.0
1661.1515,83.0
1661.8159,75.0
1662.4806,73.0
1663.1456,77.0
1663.8109,83.0
1664.4764,79.0
1665.1422,69.0
1665.8082,73.0
1666.4746,93.0
1667.1412,63.0
1667.8081,71.0
1668.4752,76.0
1669.1426,76.0
1669.8102,73.0
1670.4781,93.0
1671.1464,57.0
1671.8148,77.0
1672.4835,86.0
1673.1525,80.0
1673.8218,88.0
1674.4913,82.0
1675.1611,86.0
1675.8312,71.0
1676.5015,81.0
1677.1721,75.0
1677.843,78.0
1678.5142,72.0
1679.1855,79.0
1679.8572,72.0
1680.5292,82.0
1681.2014,86.0
1681.8739,75.0
1682.5466,81.0
1683.2196,95.0
1683.893,88.0
1684.5665,98.0
1685.2404,78.0
1685.9144,72.0
1686.5887,83.0
1687.2634,63.0
1687.9384,69.0
1688.6135,83.0
1689.289,87.0
1689.9646,89.0
1690.6406,83.0
1691.3169,55.0
1691.9934,78.0
1692.6702,71.0
1693.3473,61.0
1694.0247,59.0
1694.7023,78.0
1695.3801,76.0
1696.0582,60.0
1696.7367,85.0
1697.4154,72.0
1698.0944,62.0
1698.7736,94.0
1699.4531,90.0
1700.1329,86.0
1700.813,81.0
1701.4933,97.0
1702.1738,67.0
1702.8547,85.0
1703.5359,77.0
1704.2173,69.0
1704.8989,78.0
1705.5809,81.0
1706.2632,76.0
1706.9457,81.0
1707.6284,97.0
1708.3115,72.0
1708.9949,62.0
1709.6785,86.0
1710.3623,62.0
1711.0465,74.0
1711.731,85.0
1712.4156,85.0
1713.1006,62.0
1713.7858,63.0
1714.4713,77.0
1715.1571,75.0
1715.8431,70.0
1716.5294,87.0
1717.2161,61.0
1717.903,67.0
1718.5901,72.0
1719.2775,83.0
1719.9652,78.0
1720.6532,76.0
1721.3414,78.0
1722.0299,83.0
1722.7188,87.0
1723.4078,90.0
1724.0972,61.0
1724.7869,83.0
1725.4768,80.0
1726.167,78.0
1726.8574,74.0
1727.5482,94.0
1728.2393,52.0
1728.9305,83.0
1729.6221,94.0
1730.314,74.0
1731.0061,76.0
1731.6985,84.0
1732.3911,74.0
1733.0841,64.0
1733.7773,87.0
1734.4708,69.0
1735.1647,55.0
1735.8588,72.0
1736.5531,78.0
1737.2477,63.0
1737.9426,80.0
1738.6378,92.0
1739.3333,74.0
1740.0289,66.0
1740.725,72.0
1741.4213,66.0
1742.1178,59.0
1742.8147,80.0
1743.5118,84.0
1744.2092,83.0
1744.9069,56.0
1745.6049,70.0
1746.3031,69.0
1747.0016,49.0
1747.7004,50.0
1748.3995,67.0
1749.0989,58.0
1749.7985,83.0
1750.4984,78.0
1751.1986,58.0
1751.899,69.0
1752.5999,83.0
1753.3009,68.0
1754.0022,67.0
1754.7039,72.0
1755.4058,73.0
1756.1079,79.0
1756.8103,71.0
1757.5131,77.0
1758.2161,64.0
1758.9193,68.0
1759.6229,80.0
1760.3268,77.0
1761.0309,69.0
1761.7354,77.0
1762.4401,92.0
1763.145,73.0
1763.8502,68.0
1764.5558,74.0
1765.2616,68.0
1765.9677,63.0
1766.6741,82.0
1767.3807,77.0
1768.0876,49.0
1768.7949,66.0
1769.5024,82.0
1770.2102,66.0
1770.9183,69.0
1771.6267,77.0
1772.3353,61.0
1773.0443,59.0
1773.7535,77.0
1774.463,79.0
1775.1729,68.0
1775.8829,64.0
1776.5933,74.0
1777.304,74.0
1778.0149,67.0
1778.7261,77.0
1779.4376,61.0
1780.1494,76.0
1780.8615,78.0
1781.5739,65.0
1782.2865,75.0
1782.9994,65.0
1783.7126,74.0
1784.4261,68.0
1785.1399,68.0
1785.854,62.0
1786.5684,72.0
1787.283,63.0
1787.9979,63.0
1788.7131,83.0
1789.4286,83.0
1790.1444,64.0
1790.8605,53.0
1791.5768,75.0
1792.2935,62.0
1793.0104,71.0
1793.7275,70.0
1794.4451,68.0
1795.1628,47.0
1795.8809,69.0
1796.5992,78.0
1797.3179,69.0
1798.0367,67.0
1798.756,73.0
1799.4755,85.0
1800.1953,65.0
1800.9154,69.0
1801.6357,85.0
1802.3564,76.0
1803.0774,63.0
1803.7986,83.0
1804.5201,73.0
1805.242,70.0
1805.964,69.0
1806.6864,84.0
1807.409,81.0
1808.1321,67.0
1808.8553,78.0
1809.5789,75.0
1810.3027,56.0
1811.0269,78.0
1811.7512,81.0
1812.476,74.0
1813.2009,65.0
1813.9261,66.0
1814.6517,77.0
1815.3776,79.0
1816.1038,56.0
1816.8302,85.0
1817.5569,86.0
1818.2839,59.0
1819.0112,74.0
1819.7389,71.0
1820.4668,57.0
1821.195,69.0
1821.9235,62.0
1822.6522,79.0
1823.3812,77.0
1824.1106,68.0
1824.8402,62.0
1825.5702,72.0
1826.3004,81.0
1827.0309,69.0
1827.7617,65.0
1828.4928,84.0
1829.2242,62.0
1829.9559,83.0
1830.6879,83.0
1831.4202,96.0
1832.1527,60.0
1832.8856,87.0
1833.6188,65.0
1834.3522,61.0
1835.0859,47.0
1835.82,73.0
1836.5543,81.0
1837.289,64.0
1838.0238,86.0
1838.759,89.0
1839.4945,79.0
1840.2303,78.0
1840.9664,82.0
1841.7028,81.0
1842.4395,74.0
1843.1764,68.0
1843.9137,61.0
1844.6512,83.0
1845.3892,77.0
1846.1273,61.0
1846.8657,60.0
1847.6045,87.0
1848.3435,73.0
1849.0829,64.0
1849.8225,72.0
1850.5624,78.0
1851.3026,67.0
1852.0431,58.0
1852.7839,76.0
1853.525,68.0
1854.2665,57.0
1855.0082,70.0
1855.7501,64.0
1856.4924,83.0
1857.235,73.0
1857.9779,90.0
1858.7211,106.0
1859.4646,90.0
1860.2084,72.0
1860.9525,86.0
1861.6969,86.0
1862.4415,79.0
1863.1865,59.0
1863.9318,65.0
1864.6774,78.0
1865.4232,71.0
1866.1694,54.0
1866.9159,81.0
1867.6627,94.0
1868.4098,80.0
1869.1571,68.0
1869.9048,76.0
1870.6527,97.0
1871.401,78.0
1872.1495,65.0
1872.8984,95.0
1873.6476,77.0
1874.3971,69.0
1875.1469,67.0
1875.8969,100.0
1876.6472,114.0
1877.3978,116.0
1878.1488,84.0
1878.9,79.0
1879.6516,54.0
1880.4034,77.0
1881.1556,67.0
1881.9081,66.0
1882.6609,69.0
1883.414,80.0
1884.1674,93.0
1884.921,220.0
1885.675,267.0
1886.4293,174.0
1887.1838,108.0
1887.9387,121.0
1888.6938,93.0
1889.4493,99.0
1890.2051,72.0
1890.9612,68.0
1891.7175,80.0
1892.4742,77.0
1893.2312,53.0
1893.9885,85.0
1894.7461,82.0
1895.504,88.0
1896.2622,61.0
1897.0208,75.0
1897.7795,89.0
1898.5387,72.0
1899.2981,76.0
1900.0579,73.0
1900.8179,84.0
1901.5782,82.0
1902.3389,67.0
1903.0999,55.0
1903.8611,62.0
1904.6227,76.0
1905.3845,61.0
1906.1467,68.0
1906.9092,86.0
1907.672,71.0
1908.435,75.0
1909.1985,60.0
1909.9622,76.0
1910.7262,55.0
1911.4905,84.0
1912.2551,94.0
1913.02,73.0
1913.7853,223.0
1914.5508,227.0
1915.3167,133.0
1916.0828,159.0
1916.8492,111.0
1917.616,66.0
1918.383,74.0
1919.1504,85.0
1919.9181,61.0
1920.686,71.0
1921.4543,74.0
1922.2229,63.0
1922.9918,61.0
1923.761,83.0
1924.5305,72.0
1925.3003,66.0
1926.0704,79.0
1926.8408,68.0
1927.6116,70.0
1928.3826,61.0
1929.1539,62.0
1929.9255,78.0
1930.6975,76.0
1931.4698,71.0
1932.2424,60.0
1933.0154,82.0
1933.7886,75.0
1934.5621,68.0
1935.3359,69.0
1936.1101,76.0
1936.8845,93.0
1937.6593,81.0
1938.4343,81.0
1939.2097,66.0
1939.9854,84.0
1940.7614,83.0
1941.5376,78.0
1942.3142,67.0
1943.0912,55.0
1943.8684,77.0
1944.646,71.0
1945.4238,82.0
1946.202,61.0
1946.9805,63.0
1947.7593,67.0
1948.5383,84.0
1949.3177,72.0
1950.0975,53.0
1950.8776,68.0
1951.658,78.0
1952.4386,90.0
1953.2196,70.0
1954.0009,70.0
1954.7825,81.0
1955.5643,75.0
1956.3466,72.0
1957.1292,64.0
1957.912,65.0
1958.6952,75.0
1959.4786,59.0
1960.2625,64.0
1961.0465,83.0
1961.8309,66.0
1962.6157,80.0
1963.4008,64.0
1964.1862,67.0
1964.9718,65.0
1965.7578,71.0
1966.5441,59.0
1967.3307,74.0
1968.1177,83.0
1968.9049,80.0
1969.6925,80.0
1970.4803,64.0
1971.2686,71.0
1972.057,65.0
1972.8458,58.0
1973.635,58.0
1974.4244,58.0
1975.2142,67.0
1976.0043,73.0
1976.7947,65.0
1977.5854,73.0
1978.3765,73.0
1979.1678,58.0
1979.9595,70.0
1980.7515,72.0
1981.5438,73.0
1982.3364,92.0
1983.1294,67.0
1983.9226,75.0
1984.7162,65.0
1985.5101,81.0
1986.3043,64.0
1987.0989,63.0
1987.8937,68.0
1988.6888,79.0
1989.4844,63.0
1990.2802,65.0
1991.0763,68.0
1991.8727,75.0
1992.6694,79.0
1993.4666,84.0
1994.2639,76.0
1995.0616,85.0
1995.8596,87.0
1996.658,92.0
1997.4567,75.0
1998.2556,60.0
1999.0549,71.0
1999.8546,71.0
2000.6545,75.0
2001.4548,61.0
2002.2554,65.0
2003.0563,64.0
2003.8575,74.0
2004.659,83.0
2005.4609,65.0
2006.2631,62.0
2007.0656,72.0
2007.8684,70.0
2008.6715,64.0
2009.475,104.0
2010.2788,90.0
2011.0829,104.0
2011.8873,98.0
2012.6921,130.0
2013.4972,102.0
2014.3026,84.0
2015.1083,72.0
2015.9143,84.0
2016.7207,77.0
2017.5273,79.0
2018.3344,82.0
2019.1417,65.0
2019.9493,81.0
2020.7573,72.0
2021.5657,75.0
2022.3743,63.0
2023.1832,71.0
2023.9926,70.0
2024.8021,65.0
2025.612,123.0
2026.4224,119.0
2027.2329,107.0
2028.0438,92.0
2028.855,102.0
2029.6665,111.0
2030.4784,74.0
2031.2905,87.0
2032.103,70.0
2032.9159,81.0
2033.729,75.0
2034.5425,84.0
2035.3563,71.0
2036.1704,75.0
2036.9849,70.0
2037.7997,86.0
2038.6147,67.0
2039.4302,74.0
2040.246,66.0
2041.062,75.0
2041.8784,83.0
2042.6952,80.0
2043.5123,65.0
2044.3297,74.0
2045.1475,69.0
2045.9656,74.0
2046.7839,63.0
2047.6027,77.0
2048.4216,73.0
2049.241,73.0
2050.0605,69.0
2050.8806,69.0
2051.701,96.0
2052.5217,85.0
2053.3428,73.0
2054.164,78.0
2054.9858,73.0
2055.8079,88.0
2056.6301,76.0
2057.453,88.0
2058.276,70.0
2059.099,71.0
2059.9229,68.0
2060.7468,61.0
2061.571,70.0
2062.3958,71.0
2063.2207,67.0
2064.046,62.0
2064.8716,81.0
2065.6975,76.0
2066.5237,74.0
2067.3503,95.0
2068.1772,72.0
2069.0046,65.0
2069.8323,86.0
2070.6602,75.0
2071.4885,56.0
2072.3171,65.0
2073.146,61.0
2073.9753,68.0
2074.805,62.0
2075.6348,71.0
2076.465,68.0
2077.2957,72.0
2078.1265,54.0
2078.9578,89.0
2079.7893,69.0
2080.6213,80.0
2081.4536,69.0
2082.2861,68.0
2083.1191,101.0
2083.9524,107.0
2084.786,87.0
2085.6199,82.0
2086.454,66.0
2087.2886,62.0
2088.1235,53.0
2088.9587,62.0
2089.7944,62.0
2090.6304,73.0
2091.4666,73.0
2092.3032,60.0
2093.1401,63.0
2093.9773,66.0
2094.815,62.0
2095.6528,72.0
2096.4912,87.0
2097.3298,72.0
2098.1687,69.0
2099.008,68.0
2099.8477,72.0
2100.6875,73.0
2101.5278,69.0
2102.3684,66.0
2103.2095,73.0
2104.0508,57.0
2104.8923,68.0
2105.7344,79.0
2106.5767,69.0
2107.4192,60.0
2108.2622,55.0
2109.1055,72.0
2109.9492,70.0
2110.7932,64.0
2111.6375,80.0
2112.4822,85.0
2113.3271,61.0
2114.1724,76.0
2115.018,75.0
2115.864,87.0
2116.7104,77.0
2117.5571,58.0
2118.404,52.0
2119.2515,58.0
2120.099,56.0
2120.9473,56.0
2121.7957,72.0
2122.6443,70.0
2123.4934,81.0
2124.3428,57.0
2125.1926,70.0
2126.0427,62.0
2126.893,83.0
2127.744,60.0
2128.595,73.0
2129.4463,64.0
2130.298,71.0
2131.1501,63.0
2132.0027,64.0
2132.8555,75.0
2133.7085,74.0
2134.562,60.0
2135.4158,76.0
2136.27,73.0
2137.1245,71.0
2137.9792,79.0
2138.8345,74.0
2139.69,63.0
2140.546,78.0
2141.402,82.0
2142.2585,96.0
2143.1155,107.0
2143.9727,99.0
2144.8303,81.0
2145.6882,73.0
2146.5464,85.0
2147.405,71.0
2148.264,51.0
2149.1233,78.0
2149.983,65.0
2150.843,75.0
2151.7034,83.0
2152.564,68.0
2153.425,71.0
2154.2864,67.0
2155.1482,77.0
2156.0103,74.0
2156.8726,69.0
2157.7354,71.0
2158.5984,73.0
2159.462,65.0
2160.3257,69.0
2161.1897,65.0
2162.0542,86.0
2162.919,75.0
2163.7842,73.0
2164.6497,73.0
2165.5156,71.0
2166.3818,56.0
2167.2483,76.0
2168.1152,85.0
2168.9824,93.0
2169.85,85.0
2170.718,91.0
2171.5864,84.0
2172.455,85.0
2173.324,55.0
2174.1934,77.0
2175.063,86.0
2175.933,70.0
2176.8035,72.0
2177.674,76.0
2178.5452,80.0
2179.4165,76.0
2180.2883,69.0
2181.1604,72.0
2182.033,74.0
2182.9058,94.0
2183.7788,72.0
2184.6523,86.0
2185.5261,82.0
2186.4004,72.0
2187.275,72.0
2188.15,71.0
2189.0251,73.0
2189.9006,82.0
2190.7766,74.0
2191.6528,72.0
2192.5295,69.0
2193.4065,80.0
2194.284,81.0
2195.1616,96.0
2196.0398,90.0
2196.9182,82.0
2197.7969,67.0
2198.676,78.0
2199.5554,90.0
2200.4353,77.0
2201.3154,67.0
2202.196,79.0
2203.077,81.0
2203.9583,71.0
2204.8398,79.0
2205.7217,77.0
2206.604,86.0
2207.4866,87.0
2208.3696,75.0
2209.253,68.0
2210.1367,80.0
2211.0208,92.0
2211.9053,95.0
2212.79,69.0
2213.675,78.0
2214.5605,89.0
2215.4463,74.0
2216.3325,77.0
2217.219,92.0
2218.106,80.0
2218.9932,80.0
2219.8809,74.0
2220.7688,84.0
2221.6572,88.0
2222.546,70.0
2223.4348,74.0
2224.3242,88.0
2225.2139,87.0
2226.104,70.0
2226.9944,77.0
2227.8853,56.0
2228.7764,84.0
2229.668,75.0
2230.5598,81.0
2231.4521,81.0
2232.3447,87.0
2233.2375,76.0
2234.1309,76.0
2235.0244,81.0
2235.9185,67.0
2236.8127,88.0
2237.7075,88.0
2238.6025,98.0
2239.498,69.0
2240.3938,76.0
2241.29,86.0
2242.1865,85.0
2243.0835,98.0
2243.9807,75.0
2244.8784,95.0
2245.7764,98.0
2246.6746,88.0
2247.5732,72.0
2248.4722,84.0
2249.3716,70.0
2250.2712,82.0
2251.1714,61.0
2252.0718,88.0
2252.9727,75.0
2253.8738,78.0
2254.7754,78.0
2255.6772,88.0
2256.5796,104.0
2257.4822,98.0
2258.3853,84.0
2259.2886,82.0
2260.1924,84.0
2261.0964,99.0
2262.001,98.0
2262.9058,93.0
2263.811,75.0
2264.7166,72.0
2265.6226,95.0
2266.5288,90.0
2267.4353,96.0
2268.3423,85.0
2269.2495,87.0
2270.1572,92.0
2271.0652,84.0
2271.9736,75.0
2272.8823,83.0
2273.7915,109.0
2274.701,85.0
2275.6108,107.0
2276.521,126.0
2277.4316,97.0
2278.3425,106.0
2279.254,94.0
2280.1655,99.0
2281.0776,80.0
2281.99,83.0
2282.9028,96.0
2283.816,88.0
2284.7295,94.0
2285.6433,105.0
2286.5576,87.0
2287.4722,91.0
2288.3872,94.0
2289.3025,87.0
2290.2183,96.0
2291.1343,95.0
2292.0508,94.0
2292.9675,101.0
2293.8848,99.0
2294.8022,107.0
2295.7202,108.0
2296.6384,81.0
2297.5571,108.0
2298.476,87.0
2299.3955,123.0
2300.3152,104.0
2301.2354,110.0
2302.1558,93.0
2303.0767,123.0
2303.9978,94.0
2304.9194,97.0
2305.8413,98.0
2306.7637,112.0
2307.6863,93.0
2308.6094,93.0
2309.5327,88.0
2310.4565,116.0
2311.3806,106.0
2312.3052,110.0
2313.23,110.0
2314.1553,90.0
2315.081,92.0
2316.007,79.0
2316.9336,112.0
2317.8604,121.0
2318.7876,109.0
2319.715,130.0
2320.643,99.0
2321.5713,122.0
2322.5,107.0
2323.429,105.0
2324.3584,109.0
2325.288,83.0
2326.2183,105.0
2327.1487,93.0
2328.0796,103.0
2329.0107,108.0
2329.9424,127.0
2330.8743,103.0
2331.8066,101.0
2332.7393,76.0
2333.6724,105.0
2334.6057,93.0
2335.5396,93.0
2336.4739,110.0
2337.4084,88.0
2338.3435,90.0
2339.2788,104.0
2340.2146,101.0
2341.1506,94.0
2342.0872,87.0
2343.024,88.0
2343.9612,84.0
2344.8987,94.0
2345.8367,113.0
2346.775,97.0
2347.7136,97.0
2348.6526,93.0
2349.592,110.0
2350.532,84.0
2351.4722,89.0
2352.4128,82.0
2353.3538,93.0
2354.2952,80.0
2355.2368,92.0
2356.179,86.0
2357.1213,90.0
2358.0642,95.0
2359.0073,96.0
2359.951,93.0
2360.895,88.0
2361.8394,94.0
2362.7842,112.0
2363.7292,82.0
2364.6748,97.0
2365.6206,98.0
2366.567,77.0
2367.5134,95.0
2368.4604,78.0
2369.4077,87.0
2370.3555,94.0
2371.3037,112.0
2372.2522,98.0
2373.2012,77.0
2374.1504,102.0
2375.1,73.0
2376.05,86.0
2377.0005,95.0
2377.9512,76.0
2378.9023,81.0
2379.854,92.0
2380.806,86.0
2381.7583,93.0
2382.711,62.0
2383.664,83.0
2384.6174,80.0
2385.5713,72.0
2386.5256,81.0
2387.4802,110.0
2388.4353,136.0
2389.3906,127.0
2390.3464,91.0
2391.3025,85.0
2392.259,86.0
2393.2158,91.0
2394.173,100.0
2395.1309,73.0
2396.0889,89.0
2397.0474,69.0
2398.006,76.0
2398.9653,84.0
2399.9248,76.0
2400.8848,77.0
2401.8452,72.0
2402.806,102.0
2403.767,81.0
2404.7285,91.0
2405.6904,83.0
2406.6526,94.0
2407.6152,79.0
2408.5784,83.0
2409.5417,80.0
2410.5056,78.0
2411.4697,82.0
2412.4343,67.0
2413.3994,85.0
2414.3647,88.0
2415.3306,87.0
2416.2966,92.0
2417.2632,77.0
2418.23,80.0
2419.1973,63.0
2420.165,82.0
2421.133,67.0
2422.1016,92.0
2423.0703,97.0
2424.0396,80.0
2425.0093,75.0
2425.9792,73.0
2426.9497,70.0
2427.9204,71.0
2428.8916,66.0
2429.863,74.0
2430.835,84.0
2431.8074,80.0
2432.78,72.0
2433.7532,82.0
2434.7266,60.0
2435.7004,71.0
2436.6748,71.0
2437.6494,91.0
2438.6245,79.0
2439.5999,69.0
2440.5757,70.0
2441.552,80.0
2442.5286,76.0
2443.5056,75.0
2444.483,83.0
2445.4607,74.0
2446.439,87.0
2447.4175,90.0
2448.3965,94.0
2449.3757,77.0
2450.3555,65.0
2451.3357,91.0
2452.3162,86.0
2453.297,85.0
2454.2783,82.0
2455.26,86.0
2456.2422,67.0
2457.2246,67.0
2458.2075,63.0
2459.191,76.0
2460.1746,69.0
2461.1587,61.0
2462.143,82.0
2463.128,77.0
2464.1133,79.0
2465.0989,81.0
2466.085,91.0
2467.0713,71.0
2468.058,83.0
2469.0454,77.0
2470.033,71.0
2471.021,77.0
2472.0095,61.0
2472.9983,58.0
2473.9875,65.0
2474.977,75.0
2475.967,62.0
2476.9575,77.0
2477.9482,80.0
2478.9395,77.0
2479.931,87.0
2480.9229,79.0
2481.9153,93.0
2482.908,81.0
2483.9011,63.0
2484.8948,91.0
2485.8887,81.0
2486.883,67.0
2487.878,76.0
2488.873,65.0
2489.8687,94.0
2490.8645,76.0
2491.8608,85.0
2492.8577,61.0
2493.8547,74.0
2494.8523,78.0
2495.8503,73.0
2496.8486,77.0
2497.8474,81.0
2498.8464,93.0
2499.846,85.0
2500.846,76.0
2501.8462,75.0
2502.847,71.0
2503.8481,72.0
2504.8496,82.0
2505.8516,58.0
2506.854,86.0
2507.8567,52.0
2508.8599,85.0
2509.8635,58.0
2510.8674,73.0
2511.8718,93.0
2512.8765,74.0
2513.8816,85.0
2514.8872,80.0
2515.893,77.0
2516.8994,57.0
2517.9062,80.0
2518.9133,72.0
2519.921,60.0
2520.929,67.0
2521.9373,84.0
2522.946,85.0
2523.9553,72.0
2524.9648,55.0
2525.9749,70.0
2526.9854,88.0
2527.996,98.0
2529.0073,82.0
2530.019,86.0
2531.031,73.0
2532.0435,91.0
2533.0562,89.0
2534.0693,86.0
2535.083,81.0
2536.097,87.0
2537.1113,81.0
2538.1262,72.0
2539.1414,66.0
2540.157,82.0
2541.173,69.0
2542.1895,78.0
2543.2063,76.0
2544.2236,76.0
2545.2412,75.0
2546.2593,84.0
2547.2778,77.0
2548.2966,82.0
2549.316,63.0
2550.3357,88.0
2551.3557,71.0
2552.3762,82.0
2553.3972,60.0
2554.4185,78.0
2555.4402,73.0
2556.4624,70.0
2557.485,74.0
2558.508,81.0
2559.5315,67.0
2560.5554,76.0
2561.5796,80.0
2562.6042,83.0
2563.6294,75.0
2564.6548,78.0
2565.6807,87.0
2566.707,78.0
2567.7336,106.0
2568.7607,88.0
2569.7883,80.0
2570.8162,74.0
2571.8445,67.0
2572.8733,64.0
2573.9023,76.0
2574.932,73.0
2575.962,77.0
2576.9922,73.0
2578.023,74.0
2579.0542,73.0
2580.086,80.0
2581.118,77.0
2582.1504,85.0
2583.1833,69.0
2584.2166,69.0
2585.2502,79.0
2586.2844,69.0
2587.3188,73.0
2588.3538,84.0
2589.3892,82.0
2590.4248,87.0
2591.461,93.0
2592.4976,99.0
2593.5347,80.0
2594.572,77.0
2595.6099,72.0
2596.6482,91.0
2597.6868,85.0
2598.7258,80.0
2599.7654,74.0
2600.8052,73.0
2601.8455,74.0
2602.8862,87.0
2603.9275,72.0
2604.969,75.0
2606.011,77.0
2607.0535,79.0
2608.0962,71.0
2609.1394,82.0
2610.183,94.0
2611.2273,93.0
2612.2717,76.0
2613.3167,77.0
2614.362,80.0
2615.4077,62.0
2616.4539,64.0
2617.5005,75.0
2618.5476,67.0
2619.595,74.0
2620.6428,89.0
2621.6912,72.0
2622.7397,64.0
2623.7888,70.0
2624.8384,83.0
2625.8884,72.0
2626.9387,80.0
2627.9895,83.0
2629.0408,77.0
2630.0923,78.0
2631.1443,79.0
2632.1968,77.0
2633.2498,62.0
2634.303,90.0
2635.3567,79.0
2636.411,94.0
2637.4653,75.0
2638.5203,75.0
2639.5757,74.0
2640.6316,79.0
2641.6877,90.0
2642.7444,91.0
2643.8015,68.0
2644.8591,73.0
2645.917,85.0
2646.9753,78.0
2648.0342,84.0
2649.0935,90.0
2650.153,80.0
2651.2131,70.0
2652.2737,74.0
2653.3345,78.0
2654.3958,61.0
2655.4575,66.0
2656.5198,85.0
2657.5823,78.0
2658.6453,71.0
2659.7087,86.0
2660.7727,78.0
2661.837,82.0
2662.9016,103.0
2663.9668,93.0
2665.0325,78.0
2666.0984,84.0
2667.1648,98.0
2668.2317,76.0
2669.299,85.0
2670.3667,80.0
2671.4348,68.0
2672.5034,75.0
2673.5725,65.0
2674.6418,79.0
2675.7117,76.0
2676.782,83.0
2677.8528,76.0
2678.9238,84.0
2679.9954,71.0
2681.0674,81.0
2682.14,96.0
2683.2126,85.0
2684.286,85.0
2685.3596,93.0
2686.4338,88.0
2687.5083,65.0
2688.5833,76.0
2689.6587,75.0
2690.7346,58.0
2691.8108,71.0
2692.8875,77.0
2693.9646,78.0
2695.0422,78.0
2696.1204,73.0
2697.1987,65.0
2698.2776,82.0
2699.357,88.0
2700.4368,104.0
2701.5168,99.0
2702.5974,69.0
2703.6785,79.0
2704.76,92.0
2705.8418,95.0
2706.924,87.0
2708.0068,95.0
2709.09,80.0
2710.1738,79.0
2711.2578,86.0
2712.3423,86.0
2713.4272,86.0
2714.5127,77.0
2715.5984,86.0
2716.6846,74.0
2717.7712,67.0
2718.8584,79.0
2719.946,81.0
2721.034,71.0
2722.1223,79.0
2723.2112,101.0
2724.3005,103.0
2725.3901,78.0
2726.4802,73.0
2727.5708,83.0
2728.6619,69.0
2729.7534,80.0
2730.8452,92.0
2731.9375,71.0
2733.0303,82.0
2734.1235,74.0
2735.2173,99.0
2736.3113,136.0
2737.4058,87.0
2738.5007,99.0
2739.5962,88.0
2740.6921,55.0
2741.7883,78.0
2742.885,77.0
2743.9822,88.0
2745.0798,81.0
2746.178,71.0
2747.2764,91.0
2748.3752,81.0
2749.4746,75.0
2750.5745,83.0
2751.6748,65.0
2752.7754,79.0
2753.8765,95.0
2754.978,68.0
2756.08,68.0
2757.1826,76.0
2758.2854,69.0
2759.3887,81.0
2760.4924,65.0
2761.5967,77.0
2762.7014,79.0
2763.8064,79.0
2764.9119,74.0
2766.0178,42.0
2767.1243,71.0
2768.2312,74.0
2769.3384,82.0
2770.446,70.0
2771.5542,60.0
2772.6628,74.0
2773.772,68.0
2774.8816,68.0
2775.9915,62.0
2777.1018,62.0
2778.2126,84.0
2779.324,76.0
2780.4358,78.0
2781.5479,80.0
2782.6604,92.0
2783.7734,80.0
2784.887,59.0
2786.001,63.0
2787.1155,71.0
2788.2302,76.0
2789.3455,59.0
2790.4612,82.0
2791.5774,79.0
2792.694,83.0
2793.8113,104.0
2794.9287,130.0
2796.0466,113.0
2797.165,132.0
2798.284,111.0
2799.4033,112.0
2800.5232,115.0
2801.6433,101.0
2802.764,102.0
2803.885,104.0
2805.0066,99.0
2806.1287,94.0
2807.2512,122.0
2808.374,106.0
2809.4973,107.0
2810.621,92.0
2811.7454,100.0
2812.87,117.0
2813.9954,109.0
2815.1208,114.0
2816.2468,110.0
2817.3733,122.0
2818.5002,113.0
2819.6277,96.0
2820.7556,104.0
2821.884,121.0
2823.0127,96.0
2824.1418,92.0
2825.2715,109.0
2826.4016,92.0
2827.5322,131.0
2828.6633,115.0
2829.7947,103.0
2830.9265,97.0
2832.0588,102.0
2833.1917,101.0
2834.325,99.0
2835.4587,110.0
2836.593,130.0
2837.7275,94.0
2838.8625,104.0
2839.998,111.0
2841.134,103.0
2842.2705,90.0
2843.4075,91.0
2844.545,85.0
2845.6829,114.0
2846.821,121.0
2847.9597,113.0
2849.0989,103.0
2850.2385,108.0
2851.3787,112.0
2852.5193,112.0
2853.6604,112.0
2854.8018,109.0
2855.9436,103.0
2857.086,108.0
2858.2288,109.0
2859.372,116.0
2860.5159,91.0
2861.6602,98.0
2862.805,98.0
2863.95,115.0
2865.0955,134.0
2866.2415,158.0
2867.388,123.0
2868.535,110.0
2869.6824,102.0
2870.8303,93.0
2871.9788,128.0
2873.1274,104.0
2874.2766,110.0
2875.4263,118.0
2876.5764,106.0
2877.727,118.0
2878.8782,93.0
2880.0298,101.0
2881.182,112.0
2882.3345,125.0
2883.4873,131.0
2884.6406,104.0
2885.7944,87.0
2886.9487,90.0
2888.1035,112.0
2889.2588,112.0
2890.4146,117.0
2891.5708,111.0
2892.7275,119.0
2893.8845,102.0
2895.042,118.0
2896.2,103.0
2897.3584,101.0
2898.5173,89.0
2899.6768,98.0
2900.8367,93.0
2901.997,97.0
2903.158,89.0
2904.3193,115.0
2905.481,144.0
2906.643,155.0
2907.8057,155.0
2908.9688,143.0
2910.1323,107.0
2911.2964,139.0
2912.461,105.0
2913.626,117.0
2914.7915,111.0
2915.9575,113.0
2917.124,105.0
2918.2908,110.0
2919.458,123.0
2920.6257,124.0
2921.794,185.0
2922.9626,264.0
2924.1318,243.0
2925.3015,208.0
2926.4717,110.0
2927.6423,115.0
2928.8135,112.0
2929.985,108.0
2931.157,108.0
2932.3293,117.0
2933.5022,112.0
2934.6755,102.0
2935.8494,109.0
2937.0237,101.0
2938.1985,112.0
2939.3738,139.0
2940.5496,127.0
2941.7258,117.0
2942.9026,118.0
2944.0798,127.0
2945.2576,112.0
2946.4358,129.0
2947.6143,128.0
2948.7932,97.0
2949.9727,111.0
2951.1526,127.0
2952.333,133.0
2953.514,110.0
2954.6953,102.0
2955.8772,96.0
2957.0596,100.0
2958.2424,102.0
2959.4258,112.0
2960.6096,119.0
2961.794,79.0
2962.9788,105.0
2964.164,85.0
2965.3496,113.0
2966.5356,105.0
2967.7222,122.0
2968.9092,90.0
2970.0967,108.0
2971.2847,111.0
2972.4731,105.0
2973.662,109.0
2974.8516,118.0
2976.0415,104.0
2977.232,98.0
2978.4229,126.0
2979.6143,100.0
2980.8062,119.0
2981.9985,103.0
2983.1914,99.0
2984.3848,98.0
2985.5786,104.0
2986.773,81.0
2987.9678,97.0
2989.1628,94.0
2990.3584,109.0
2991.5544,102.0
2992.751,96.0
2993.948,110.0
2995.1455,110.0
2996.3435,111.0
2997.542,110.0
2998.741,92.0
2999.9404,91.0
3001.1404,95.0
3002.3408,116.0
3003.5417,132.0
3004.7432,102.0
3005.945,102.0
3007.1475,93.0
3008.3503,114.0
3009.5537,104.0
3010.7576,98.0
3011.962,102.0
3013.1667,90.0
3014.372,113.0
3015.578,104.0
3016.7842,99.0
3017.991,104.0
3019.1982,93.0
3020.406,116.0
3021.6143,129.0
3022.823,107.0
3024.0322,112.0
3025.242,91.0
3026.4521,111.0
3027.6628,105.0
3028.874,96.0
3030.0857,100.0
3031.2976,97.0
3032.51,108.0
3033.723,90.0
3034.9363,96.0
3036.1501,93.0
3037.3645,98.0
3038.5793,104.0
3039.7947,122.0
3041.0105,103.0
3042.2268,100.0
3043.4436,148.0
3044.661,115.0
3045.8787,111.0
3047.097,117.0
3048.3157,116.0
3049.535,104.0
3050.7546,90.0
3051.9749,92.0
3053.1956,112.0
3054.4167,116.0
3055.6384,120.0
3056.8606,103.0
3058.0833,87.0
3059.3064,92.0
3060.53,108.0
3061.7542,102.0
3062.9788,119.0
3064.2039,93.0
3065.4294,94.0
3066.6555,107.0
3067.882,107.0
3069.1091,72.0
3070.3367,123.0
3071.5647,101.0
3072.7932,84.0
3074.0222,142.0
3075.2517,98.0
3076.4817,101.0
3077.7124,124.0
3078.9436,122.0
3080.1753,103.0
3081.4075,137.0
3082.6401,110.0
3083.8733,105.0
3085.107,95.0
3086.341,98.0
3087.5757,111.0
3088.8108,104.0
3090.0464,97.0
3091.2825,100.0
3092.519,97.0
3093.756,100.0
3094.9937,96.0
3096.2317,103.0
3097.4702,107.0
3098.7092,104.0
3099.9487,121.0
3101.1887,97.0
3102.4292,92.0
3103.6702,110.0
3104.9116,99.0
3106.1536,105.0
3107.396,127.0
3108.639,108.0
3109.8823,112.0
3111.1262,118.0
3112.3706,107.0
3113.6155,130.0
3114.8608,108.0
3116.1067,120.0
3117.353,139.0
3118.5999,93.0
3119.8474,104.0
3121.0955,98.0
3122.344,112.0
3123.593,124.0
3124.8425,106.0
3126.0925,105.0
3127.343,117.0
3128.594,99.0
3129.8455,95.0
3131.0974,110.0
3132.3499,99.0
3133.6028,88.0
3134.8562,112.0
3136.11,94.0
3137.3645,106.0
3138.6194,113.0
3139.8748,100.0
3141.1306,99.0
3142.387,109.0
3143.6438,116.0
3144.9014,110.0
3146.1594,107.0
3147.418,98.0
3148.677,99.0
3149.9365,98.0
3151.1965,106.0
3152.457,106.0
3153.718,111.0
3154.9795,98.0
3156.2415,104.0
3157.504,113.0
3158.7668,109.0
3160.0303,113.0
3161.2942,103.0
3162.5586,115.0
3163.8237,105.0
3165.0894,91.0
3166.3555,114.0
3167.622,105.0
3168.8892,106.0
3170.1567,116.0
3171.4248,122.0
3172.6934,105.0
3173.9624,114.0
3175.232,101.0
3176.502,129.0
3177.7725,110.0
3179.0435,99.0
3180.3152,117.0
3181.5874,103.0
3182.86,97.0
3184.1333,99.0
3185.407,118.0
3186.6812,96.0
3187.9558,109.0
3189.231,107.0
3190.5066,114.0
3191.7827,83.0
3193.0593,96.0
3194.3367,101.0
3195.6145,114.0
3196.8928,99.0
3198.1716,113.0
3199.451,137.0
3200.7307,140.0
3202.011,113.0
3203.2917,107.0
3204.573,106.0
3205.8547,118.0
3207.137,116.0
3208.42,130.0
3209.7034,114.0
3210.9873,88.0
3212.2717,112.0
3213.5566,136.0
3214.842,108.0
3216.128,141.0
3217.4143,95.0
3218.7012,109.0
3219.9888,97.0
3221.2769,116.0
3222.5654,130.0
3223.8545,102.0
3225.144,100.0
3226.434,127.0
3227.7246,119.0
3229.0156,104.0
3230.3071,130.0
3231.5994,112.0
3232.892,93.0
3234.1853,111.0
3235.479,120.0
3236.7732,128.0
3238.0679,114.0
3239.363,112.0
3240.6587,98.0
3241.9548,102.0
3243.2517,122.0
3244.549,113.0
3245.847,107.0
3247.1453,101.0
3248.444,116.0
3249.7434,105.0
3251.0432,93.0
3252.3438,108.0
3253.6448,130.0
3254.9463,107.0
3256.2483,114.0
3257.5508,110.0
3258.8538,115.0
3260.1572,114.0
3261.4612,96.0
3262.7659,102.0
3264.071,141.0
3265.3767,112.0
3266.6829,103.0
3267.9895,107.0
3269.2966,130.0
3270.6042,139.0
3271.9126,134.0
3273.2214,96.0
3274.5308,121.0
3275.8406,102.0
3277.151,108.0
3278.4617,117.0
3279.773,120.0
3281.085,111.0
3282.3975,125.0
3283.7104,99.0
3285.024,107.0
3286.338,118.0
3287.6523,123.0
3288.9673,125.0
3290.283,119.0
3291.599,107.0
3292.9158,129.0
3294.233,110.0
3295.5505,128.0
3296.8687,121.0
3298.1875,111.0
3299.5068,102.0
3300.8267,103.0
3302.147,99.0
3303.4678,122.0
3304.789,97.0
3306.111,95.0
3307.4336,129.0
3308.7566,107.0
3310.08,111.0
3311.404,101.0
3312.7285,135.0
3314.0537,142.0
3315.3794,113.0
3316.7056,108.0
3318.0322,94.0
3319.3594,131.0
3320.687,126.0
3322.0154,98.0
3323.3442,127.0
3324.6736,120.0
3326.0034,109.0
3327.3337,112.0
3328.6648,110.0
3329.9963,118.0
3331.3284,116.0
3332.661,125.0
3333.994,94.0
3335.3274,123.0
3336.6616,123.0
3337.9963,121.0
3339.3315,94.0
3340.6672,130.0
3342.0034,115.0
3343.3403,122.0
3344.6777,109.0
3346.0156,109.0
3347.354,107.0
3348.6929,106.0
3350.0322,98.0
3351.3723,114.0
3352.713,124.0
3354.054,128.0
3355.3955,118.0
3356.7375,119.0
3358.0803,103.0
3359.4236,127.0
3360.7673,132.0
3362.1116,128.0
3363.4563,133.0
3364.8018,111.0
3366.1477,109.0
3367.4941,107.0
3368.841,130.0
3370.1887,108.0
3371.5369,128.0
3372.8855,124.0
3374.2346,123.0
3375.5842,122.0
3376.9346,129.0
3378.2854,121.0
3379.6367,113.0
3380.9885,110.0
3382.3408,127.0
3383.6938,107.0
3385.0474,122.0
3386.4014,125.0
3387.7559,118.0
3389.1108,126.0
3390.4666,120.0
3391.8228,124.0
3393.1794,111.0
3394.5366,122.0
3395.8945,115.0
3397.253,119.0
3398.6118,108.0
3399.9712,104.0
3401.3313,147.0
3402.692,158.0
3404.053,135.0
3405.4146,125.0
3406.7766,126.0
3408.1394,120.0
3409.5027,131.0
3410.8665,134.0
3412.2307,222.0
3413.5957,198.0
3414.9612,140.0
3416.3271,134.0
3417.6936,129.0
3419.0608,163.0
3420.4285,136.0
3421.7966,137.0
3423.1653,166.0
3424.5347,112.0
3425.9045,92.0
3427.275,136.0
3428.6458,112.0
3430.017,123.0
3431.3892,114.0
3432.7617,130.0
3434.1348,107.0
3435.5083,125.0
3436.8826,128.0
3438.2573,101.0
3439.6326,131.0
3441.0083,125.0
3442.3848,138.0
3443.7617,123.0
3445.1392,118.0
3446.5173,128.0
3447.896,108.0
3449.2751,117.0
3450.6548,140.0
3452.0352,118.0
3453.416,114.0
3454.7974,134.0
3456.1792,107.0
3457.5618,135.0
3458.9448,115.0
3460.3284,100.0
3461.7124,123.0
3463.0972,104.0
3464.4824,120.0
3465.8682,140.0
3467.2544,120.0
3468.6414,118.0
3470.0288,115.0
3471.4167,101.0
3472.8054,132.0
3474.1946,142.0
3475.5842,145.0
3476.9744,136.0
3478.3652,116.0
3479.7566,128.0
3481.1484,140.0
3482.541,128.0
3483.934,119.0
3485.3276,137.0
3486.7217,124.0
3488.1165,120.0
3489.5117,115.0
3490.9075,118.0
3492.304,125.0
3493.701,125.0
3495.0984,123.0
3496.4963,141.0
3497.895,142.0
3499.2942,116.0
3500.6938,151.0
3502.0942,136.0
3503.495,125.0
3504.8965,130.0
3506.2983,126.0
3507.701,166.0
3509.104,124.0
3510.5076,124.0
3511.9119,143.0
3513.3167,121.0
3514.722,137.0
3516.128,116.0
3517.5344,150.0
3518.9414,119.0
3520.3489,135.0
3521.757,170.0
3523.1658,142.0
3524.575,133.0
3525.9849,116.0
3527.3953,139.0
3528.8062,150.0
3530.2178,189.0
3531.63,187.0
3533.0425,153.0
3534.4558,108.0
3535.8696,147.0
3537.284,126.0
3538.6987,140.0
3540.1143,127.0
3541.5303,132.0
3542.9468,130.0
3544.364,107.0
3545.7817,113.0
3547.2,140.0
3548.619,142.0
3550.0383,108.0
3551.4583,113.0
3552.879,112.0
3554.3,124.0
3555.7217,139.0
3557.144,135.0
3558.567,144.0
3559.9902,154.0
3561.4143,140.0
3562.8389,141.0
3564.264,144.0
3565.6897,163.0
3567.116,121.0
3568.5427,161.0
3569.9702,135.0
3571.3982,158.0
3572.8267,156.0
3574.2559,121.0
3575.6855,148.0
3577.1157,119.0
3578.5466,169.0
3579.978,150.0
3581.41,149.0
3582.8425,145.0
3584.2756,124.0
3585.7092,157.0
3587.1436,156.0
3588.5784,160.0
3590.014,157.0
3591.45,160.0
3592.8865,142.0
3594.3237,143.0
3595.7615,165.0
3597.1997,161.0
3598.6387,168.0
3600.0781,171.0
3601.518,168.0
3602.9587,156.0
3604.4,152.0
3605.8416,144.0
3607.284,179.0
3608.7268,201.0
3610.1704,140.0
3611.6145,146.0
3613.059,128.0
3614.5044,135.0
3615.9502,217.0
3617.3965,262.0
3618.8435,211.0
3620.291,146.0
3621.739,172.0
3623.1877,164.0
3624.637,146.0
3626.087,151.0
3627.5374,153.0
3628.9883,155.0
3630.44,157.0
3631.892,149.0
3633.3447,157.0
3634.798,154.0
3636.252,158.0
3637.7065,176.0
3639.1616,141.0
3640.6172,152.0
3642.0735,133.0
3643.5303,145.0
3644.9878,195.0
3646.4458,158.0
3647.9043,144.0
3649.3635,145.0
3650.8232,167.0
3652.2837,149.0
3653.7446,153.0
3655.206,152.0
3656.6682,143.0
3658.1309,156.0
3659.594,184.0
3661.0579,159.0
3662.5222,165.0
3663.9873,168.0
3665.453,181.0
3666.919,208.0
3668.3857,156.0
3669.853,125.0
3671.321,117.0
3672.7896,146.0
3674.2585,157.0
3675.7283,165.0
3677.1985,177.0
3678.6694,190.0
3680.1409,174.0
3681.613,171.0
3683.0857,142.0
3684.5588,158.0
3686.0327,144.0
3687.507,119.0
3688.9822,146.0
3690.4578,181.0
3691.9338,165.0
3693.4106,169.0
3694.888,158.0
3696.366,152.0
3697.8445,147.0
3699.3237,137.0
3700.8035,137.0
3702.2837,145.0
3703.7646,145.0
3705.246,153.0
3706.7283,195.0
3708.211,225.0
3709.6943,268.0
3711.1782,220.0
3712.6626,216.0
3714.1477,160.0
3715.6333,166.0
3717.1196,182.0
3718.6064,186.0
3720.094,161.0
3721.582,141.0
3723.0706,163.0
3724.5598,170.0
3726.0496,189.0
3727.54,163.0
3729.031,183.0
3730.5227,187.0
3732.015,160.0
3733.5078,288.0
3735.0012,383.0
3736.495,314.0
3737.9897,207.0
3739.4849,201.0
3740.9807,175.0
3742.477,191.0
3743.974,238.0
3745.4717,186.0
3746.97,200.0
3748.4688,190.0
3749.968,629.0
3751.468,1284.0
3752.9685,1384.0
3754.4697,720.0
3755.9714,445.0
3757.4739,264.0
3758.9768,211.0
3760.4805,177.0
3761.9846,179.0
3763.4895,162.0
3764.9949,184.0
3766.501,232.0
3768.0076,236.0
3769.515,216.0
3771.0227,198.0
3772.531,203.0
3774.04,225.0
3775.5496,225.0
3777.0598,209.0
3778.5706,189.0
3780.082,168.0
3781.594,196.0
3783.1067,200.0
3784.6199,215.0
3786.1338,179.0
3787.6482,211.0
3789.1633,152.0
3790.679,192.0
3792.1953,161.0
3793.7122,182.0
3795.2297,161.0
3796.7478,178.0
3798.2666,187.0
3799.786,199.0
3801.306,181.0
3802.8264,165.0
3804.3477,168.0
3805.8694,176.0
3807.3918,163.0
3808.9148,196.0
3810.4385,170.0
3811.9626,189.0
3813.4875,201.0
3815.013,209.0
3816.539,199.0
3818.0657,187.0
3819.593,192.0
3821.1208,178.0
3822.6494,173.0
3824.1785,154.0
3825.7083,171.0
3827.2385,160.0
3828.7695,188.0
3830.301,193.0
3831.8333,183.0
3833.366,164.0
3834.8994,178.0
3836.4333,160.0
3837.968,173.0
3839.5032,152.0
3841.039,190.0
3842.5754,206.0
3844.1125,169.0
3845.6501,186.0
3847.1885,205.0
3848.7273,249.0
3850.2668,259.0
3851.807,223.0
3853.3477,198.0
3854.889,185.0
3856.431,163.0
3857.9734,179.0
3859.5166,180.0
3861.0603,163.0
3862.6047,182.0
3864.1497,217.0
3865.6953,199.0
3867.2417,185.0
3868.7886,185.0
3870.3362,185.0
3871.8843,195.0
3873.433,208.0
3874.9824,200.0
3876.5325,198.0
3878.083,210.0
3879.6343,205.0
3881.186,214.0
3882.7385,214.0
3884.2915,218.0
3885.8452,197.0
3887.3997,232.0
3888.9546,202.0
3890.5103,187.0
3892.0664,158.0
3893.6233,217.0
3895.1807,228.0
3896.7388,195.0
3898.2974,220.0
3899.8567,227.0
3901.4167,252.0
3902.9773,229.0
3904.5386,207.0
3906.1003,224.0
3907.6628,184.0
3909.2258,172.0
3910.7896,176.0
3912.3538,161.0
3913.9187,193.0
3915.4844,194.0
3917.0505,216.0
3918.6174,190.0
3920.1848,179.0
3921.753,189.0
3923.3215,190.0
3924.8909,211.0
3926.461,181.0
3928.0315,187.0
3929.6028,175.0
3931.1746,168.0
3932.747,172.0
3934.32,163.0
3935.8938,198.0
3937.4683,172.0
3939.0432,195.0
3940.619,233.0
3942.195,185.0
3943.772,194.0
3945.3494,179.0
3946.9275,169.0
3948.5063,160.0
3950.0857,199.0
3951.6658,187.0
3953.2463,185.0
3954.8276,176.0
3956.4097,154.0
3957.9922,163.0
3959.5754,156.0
3961.1592,175.0
3962.7437,167.0
3964.3289,159.0
3965.9146,167.0
3967.501,166.0
3969.088,157.0
3970.6755,161.0
3972.264,166.0
3973.8528,145.0
3975.4424,146.0
3977.0325,190.0
3978.6233,190.0
3980.2148,187.0
3981.807,194.0
3983.3997,163.0
3984.993,179.0
3986.587,169.0
3988.1816,169.0
3989.7769,182.0
3991.3728,207.0
3992.9692,190.0
3994.5664,187.0
3996.1643,192.0
3997.7627,177.0
3999.3618,159.0
4000.9617,173.0
4002.562,165.0
4004.163,215.0
4005.7646,202.0
4007.367,159.0
4008.97,173.0
4010.5735,203.0
4012.1777,180.0
4013.7827,207.0
4015.3882,167.0
4016.9944,186.0
4018.601,171.0
4020.2085,193.0
4021.8167,199.0
4023.4253,203.0
4025.0347,210.0
4026.6448,212.0
4028.2554,238.0
4029.8667,279.0
4031.4788,203.0
4033.0913,210.0
4034.7046,239.0
4036.3184,280.0
4037.9329,270.0
4039.548,289.0
4041.1638,283.0
4042.7803,302.0
4044.3975,294.0
4046.0151,262.0
4047.6335,238.0
4049.2527,216.0
4050.8723,378.0
4052.4927,381.0
4054.1138,291.0
4055.7354,248.0
4057.3577,256.0
4058.9807,490.0
4060.6042,678.0
4062.2285,457.0
4063.8535,342.0
4065.479,303.0
4067.1052,299.0
4068.7322,301.0
4070.3596,320.0
4071.9878,416.0
4073.6167,373.0
4075.246,271.0
4076.8762,321.0
4078.507,289.0
4080.1384,360.0
4081.7705,445.0
4083.4033,389.0
4085.0366,515.0
4086.6707,542.0
4088.3054,420.0
4089.9407,299.0
4091.5767,302.0
4093.2134,706.0
4094.8506,1104.0
4096.489,618.0
4098.1274,303.0
4099.7666,277.0
4101.4067,851.0
4103.0474,2274.0
4104.6885,1753.0
4106.3306,646.0
4107.973,326.0
4109.616,251.0
4111.2603,218.0
4112.905,269.0
4114.55,319.0
4116.196,275.0
4117.8423,224.0
4119.4893,211.0
4121.137,198.0
4122.7856,219.0
4124.4346,176.0
4126.0845,185.0
4127.735,169.0
4129.3857,199.0
4131.0376,241.0
4132.69,242.0
4134.343,213.0
4135.9966,195.0
4137.651,188.0
4139.306,186.0
4140.962,194.0
4142.618,190.0
4144.2754,206.0
4145.933,215.0
4147.5913,150.0
4149.2505,187.0
4150.91,197.0
4152.5703,194.0
4154.2314,207.0
4155.893,224.0
4157.5557,192.0
4159.2188,181.0
4160.8823,206.0
4162.547,170.0
4164.212,203.0
4165.8774,223.0
4167.544,216.0
4169.211,161.0
4170.8784,188.0
4172.547,205.0
4174.216,215.0
4175.8857,238.0
4177.556,215.0
4179.227,202.0
4180.899,222.0
4182.5713,195.0
4184.244,188.0
4185.918,186.0
4187.5923,234.0
4189.267,265.0
4190.943,249.0
4192.619,203.0
4194.2964,177.0
4195.974,217.0
4197.6523,287.0
4199.3315,234.0
4201.011,190.0
4202.6914,195.0
4204.3726,205.0
4206.054,191.0
4207.737,209.0
4209.42,167.0
4211.1035,192.0
4212.788,203.0
4214.473,181.0
4216.1587,189.0
4217.845,227.0
4219.532,175.0
4221.22,195.0
4222.9087,184.0
4224.5977,199.0
4226.2876,183.0
4227.978,192.0
4229.6694,174.0
4231.3613,185.0
4233.0537,204.0
4234.747,214.0
4236.441,196.0
4238.1353,197.0
4239.8306,210.0
4241.5264,206.0
4243.223,192.0
4244.9204,179.0
4246.618,195.0
4248.317,222.0
4250.016,217.0
4251.7163,224.0
4253.417,192.0
4255.118,214.0
4256.8203,228.0
4258.523,199.0
4260.2266,206.0
4261.9307,213.0
4263.6353,221.0
4265.341,235.0
4267.047,259.0
4268.754,253.0
4270.4614,235.0
4272.1694,235.0
4273.8784,207.0
4275.588,285.0
4277.2983,338.0
4279.0093,284.0
4280.7207,202.0
4282.433,195.0
4284.146,372.0
4285.86,624.0
4287.574,417.0
4289.289,268.0
4291.005,249.0
4292.721,190.0
4294.4385,182.0
4296.1562,182.0
4297.8745,251.0
4299.5938,268.0
4301.3135,239.0
4303.034,194.0
4304.7554,194.0
4306.477,204.0
4308.1997,185.0
4309.923,195.0
4311.647,193.0
4313.3716,169.0
4315.097,156.0
4316.823,186.0
4318.55,201.0
4320.2773,178.0
4322.0054,200.0
4323.7344,164.0
4325.464,176.0
4327.194,167.0
4328.925,172.0
4330.6562,197.0
4332.3887,163.0
4334.1216,184.0
4335.8555,204.0
4337.59,163.0
4339.3247,197.0
4341.0605,185.0
4342.797,176.0
4344.534,187.0
4346.272,171.0
4348.0103,177.0
4349.7495,203.0
4351.4893,186.0
4353.23,178.0
4354.971,188.0
4356.7134,251.0
4358.456,259.0
4360.199,237.0
4361.9434,200.0
4363.688,196.0
4365.4336,185.0
4367.1797,198.0
4368.927,169.0
4370.6743,195.0
4372.4224,196.0
4374.1714,182.0
4375.921,203.0
4377.6714,195.0
4379.4224,196.0
4381.1743,183.0
4382.927,198.0
4384.6797,177.0
4386.4336,177.0
4388.188,191.0
4389.9434,228.0
4391.699,217.0
4393.456,192.0
4395.2134,203.0
4396.9717,204.0
4398.7305,218.0
4400.4897,236.0
4402.25,212.0
4404.0107,201.0
4405.7725,240.0
4407.5347,268.0
4409.298,240.0
4411.0615,218.0
4412.826,217.0
4414.5913,219.0
4416.357,281.0
4418.1235,339.0
4419.8906,260.0
4421.6587,267.0
4423.4272,217.0
4425.197,210.0
4426.967,194.0
4428.738,242.0
4430.5093,269.0
4432.2812,245.0
4434.054,195.0
4435.8276,198.0
4437.602,248.0
4439.377,292.0
4441.153,303.0
4442.929,223.0
4444.7065,216.0
4446.4844,221.0
4448.263,246.0
4450.0425,229.0
4451.8223,253.0
4453.603,212.0
4455.3843,219.0
4457.1665,248.0
4458.949,242.0
4460.733,257.0
4462.517,230.0
4464.3022,226.0
4466.088,226.0
4467.8745,316.0
4469.6616,311.0
4471.4497,272.0
4473.2383,249.0
4475.0273,219.0
4476.8174,192.0
4478.608,233.0
4480.3994,258.0
4482.1914,251.0
4483.9844,220.0
4485.778,233.0
4487.5723,224.0
4489.367,241.0
4491.163,245.0
4492.9595,246.0
4494.757,225.0
4496.5547,234.0
4498.3535,276.0
4500.153,247.0
4501.953,252.0
4503.754,270.0
4505.555,273.0
4507.3574,238.0
4509.16,234.0
4510.964,240.0
4512.768,255.0
4514.573,270.0
4516.379,231.0
4518.1855,203.0
4519.9927,238.0
4521.801,316.0
4523.6094,299.0
4525.419,247.0
4527.229,206.0
4529.04,244.0
4530.8516,346.0
4532.664,348.0
4534.477,219.0
4536.291,200.0
4538.1055,203.0
4539.921,218.0
4541.737,203.0
4543.5537,225.0
4545.371,182.0
4547.1895,220.0
4549.0083,216.0
4550.828,202.0
4552.6484,188.0
4554.4697,183.0
4556.2915,187.0
4558.1143,205.0
4559.9375,200.0
4561.7617,198.0
4563.5864,193.0
4565.4116,209.0
4567.238,200.0
4569.0645,180.0
4570.892,191.0
4572.72,202.0
4574.5493,186.0
4576.379,178.0
4578.2095,193.0
4580.0405,190.0
4581.8726,191.0
4583.705,202.0
4585.5386,175.0
4587.3726,181.0
4589.2075,222.0
4591.043,228.0
4592.8794,231.0
4594.7163,218.0
4596.554,200.0
4598.3926,197.0
4600.232,222.0
4602.0723,228.0
4603.913,207.0
4605.755,196.0
4607.597,168.0
4609.4404,183.0
4611.284,224.0
4613.129,180.0
4614.974,216.0
4616.8203,198.0
4618.667,197.0
4620.5146,202.0
4622.363,228.0
4624.212,214.0
4626.0615,204.0
4627.912,190.0
4629.763,179.0
4631.615,179.0
4633.468,205.0
4635.3213,181.0
4637.1753,196.0
4639.0303,208.0
4640.8857,200.0
4642.742,197.0
4644.599,200.0
4646.457,212.0
4648.3154,208.0
4650.175,222.0
4652.0347,209.0
4653.8955,225.0
4655.757,215.0
4657.619,168.0
4659.4824,199.0
4661.346,195.0
4663.211,214.0
4665.076,207.0
4666.9424,178.0
4668.809,187.0
4670.677,197.0
4672.545,212.0
4674.414,181.0
4676.2837,196.0
4678.1543,233.0
4680.0254,245.0
4681.8975,205.0
4683.77,203.0
4685.6436,222.0
4687.5176,184.0
4689.3926,200.0
4691.2686,206.0
4693.145,231.0
4695.0225,224.0
4696.9004,209.0
4698.7793,175.0
4700.6587,180.0
4702.539,208.0
4704.42,207.0
4706.302,186.0
4708.184,202.0
4710.0674,221.0
4711.951,248.0
4713.836,201.0
4715.7217,194.0
4717.608,178.0
4719.495,198.0
4721.383,205.0
4723.2715,202.0
4725.1606,220.0
4727.051,219.0
4728.9414,221.0
4730.833,213.0
4732.725,205.0
4734.618,183.0
4736.512,209.0
4738.4067,184.0
4740.3022,146.0
4742.198,187.0
4744.095,190.0
4745.9927,206.0
4747.891,161.0
4749.79,170.0
4751.69,183.0
4753.591,181.0
4755.492,179.0
4757.3945,216.0
4759.2974,190.0
4761.201,189.0
4763.1055,197.0
4765.0107,183.0
4766.9165,200.0
4768.823,173.0
4770.731,186.0
4772.639,169.0
4774.5483,170.0
4776.458,193.0
4778.3687,192.0
4780.28,167.0
4782.192,168.0
4784.105,142.0
4786.0186,184.0
4787.933,181.0
4789.848,176.0
4791.764,169.0
4793.6807,176.0
4795.598,170.0
4797.5166,168.0
4799.4355,163.0
4801.3555,144.0
4803.276,174.0
4805.1973,176.0
4807.119,174.0
4809.042,158.0
4810.966,183.0
4812.89,168.0
4814.8154,158.0
4816.741,185.0
4818.668,172.0
4820.595,148.0
4822.5234,164.0
4824.4526,190.0
4826.3823,154.0
4828.313,175.0
4830.244,190.0
4832.1763,193.0
4834.1094,168.0
4836.043,157.0
4837.9775,187.0
4839.9126,177.0
4841.8486,156.0
4843.785,136.0
4845.7227,156.0
4847.661,171.0
4849.6,168.0
4851.54,171.0
4853.4805,192.0
4855.422,161.0
4857.3643,161.0
4859.307,160.0
4861.251,178.0
4863.1953,146.0
4865.1406,181.0
4867.087,159.0
4869.0337,167.0
4870.9814,184.0
4872.9297,151.0
4874.879,161.0
4876.829,189.0
4878.78,182.0
4880.7314,164.0
4882.6836,155.0
4884.6367,165.0
4886.5903,185.0
4888.545,177.0
4890.5005,150.0
4892.4565,158.0
4894.4136,168.0
4896.3716,170.0
4898.33,166.0
4900.2896,167.0
4902.2495,160.0
4904.2104,152.0
4906.1724,169.0
4908.135,156.0
4910.098,135.0
4912.062,154.0
4914.027,180.0
4915.9927,187.0
4917.959,166.0
4919.9263,181.0
4921.894,199.0
4923.863,224.0
4925.8325,170.0
4927.8027,180.0
4929.774,170.0
4931.7456,189.0
4933.7183,179.0
4935.692,160.0
4937.666,156.0
4939.641,173.0
4941.617,206.0
4943.5938,157.0
4945.5713,161.0
4947.5493,199.0
4949.5283,181.0
4951.5083,185.0
4953.489,173.0
4955.47,199.0
4957.4526,158.0
4959.4355,170.0
4961.4194,199.0
4963.404,167.0
4965.389,188.0
4967.3755,177.0
4969.3623,178.0
4971.35,182.0
4973.339,202.0
4975.328,172.0
4977.3184,199.0
4979.309,196.0
4981.301,199.0
4983.2935,197.0
4985.2866,199.0
4987.281,201.0
4989.276,191.0
4991.2715,188.0
4993.268,193.0
4995.265,200.0
4997.263,192.0
4999.262,199.0
5001.2617,181.0
5003.262,184.0
5005.2637,180.0
5007.2656,172.0
5009.2686,185.0
5011.2725,158.0
5013.277,186.0
5015.282,186.0
5017.2886,195.0
5019.2954,174.0
5021.303,196.0
5023.3115,215.0
5025.321,181.0
5027.331,173.0
5029.342,201.0
5031.3535,204.0
5033.366,193.0
5035.3794,192.0
5037.3936,187.0
5039.4087,168.0
5041.4243,189.0
5043.441,185.0
5045.4585,186.0
5047.4766,202.0
5049.4956,201.0
5051.5156,207.0
5053.536,196.0
5055.5576,171.0
5057.58,191.0
5059.603,168.0
5061.627,175.0
5063.6514,183.0
5065.677,196.0
5067.703,173.0
5069.73,190.0
5071.758,161.0
5073.7866,166.0
5075.816,167.0
5077.846,180.0
5079.8774,192.0
5081.909,175.0
5083.942,181.0
5085.9756,186.0
5088.01,180.0
5090.045,203.0
5092.081,207.0
5094.1177,199.0
5096.1553,159.0
5098.194,202.0
5100.233,188.0
5102.273,167.0
5104.314,173.0
5106.3555,184.0
5108.398,198.0
5110.4414,174.0
5112.4854,182.0
5114.5303,238.0
5116.576,221.0
5118.6226,176.0
5120.67,182.0
5122.7183,172.0
5124.7676,202.0
5126.8174,215.0
5128.868,206.0
5130.92,235.0
5132.972,191.0
5135.0254,158.0
5137.0796,166.0
5139.1343,166.0
5141.19,197.0
5143.2466,196.0
5145.3037,211.0
5147.362,247.0
5149.421,206.0
5151.4805,174.0
5153.541,159.0
5155.6025,223.0
5157.6646,200.0
5159.7275,190.0
5161.7915,207.0
5163.8564,161.0
5165.922,183.0
5167.9883,163.0
5170.0557,172.0
5172.1235,183.0
5174.1924,186.0
5176.262,205.0
5178.3325,185.0
5180.404,183.0
5182.476,179.0
5184.549,196.0
5186.6226,188.0
5188.6973,200.0
5190.773,205.0
5192.849,199.0
5194.9263,201.0
5197.0044,185.0
5199.083,176.0
5201.1626,205.0
5203.243,184.0
5205.324,203.0
5207.4062,196.0
5209.4893,195.0
5211.573,173.0
5213.6577,195.0
5215.743,203.0
5217.8296,210.0
5219.9165,196.0
5222.0044,239.0
5224.0933,204.0
5226.183,211.0
5228.2734,175.0
5230.3647,171.0
5232.457,191.0
5234.55,215.0
5236.6436,218.0
5238.7383,215.0
5240.834,205.0
5242.93,188.0
5245.0273,228.0
5247.1255,215.0
5249.224,227.0
5251.3237,199.0
5253.4243,204.0
5255.526,195.0
5257.628,187.0
5259.731,229.0
5261.835,240.0
5263.9395,200.0
5266.045,201.0
5268.1514,174.0
5270.259,202.0
5272.3667,202.0
5274.4756,241.0
5276.5854,204.0
5278.6963,197.0
5280.8076,182.0
5282.92,216.0
5285.033,206.0
5287.147,196.0
5289.2617,209.0
5291.3774,179.0
5293.494,185.0
5295.6113,188.0
5297.7295,175.0
5299.8486,238.0
5301.9688,232.0
5304.0894,219.0
5306.211,196.0
5308.3335,188.0
5310.457,217.0
5312.581,197.0
5314.706,198.0
5316.832,251.0
5318.959,257.0
5321.0864,245.0
5323.215,221.0
5325.344,212.0
5327.4746,210.0
5329.6055,236.0
5331.7373,200.0
5333.87,200.0
5336.004,209.0
5338.138,219.0
5340.2734,191.0
5342.4097,211.0
5344.547,203.0
5346.6846,223.0
5348.823,204.0
5350.963,212.0
5353.1035,209.0
5355.2446,202.0
5357.3867,200.0
5359.53,221.0
5361.674,249.0
5363.8184,200.0
5365.964,207.0
5368.1104,219.0
5370.258,244.0
5372.406,212.0
5374.5547,245.0
5376.7046,217.0
5378.8555,260.0
5381.007,229.0
5383.159,202.0
5385.3125,192.0
5387.467,226.0
5389.6216,236.0
5391.7773,252.0
5393.934,272.0
5396.092,209.0
5398.25,213.0
5400.409,213.0
5402.5693,221.0
5404.7305,234.0
5406.8926,211.0
5409.055,247.0
5411.2188,275.0
5413.3833,243.0
5415.549,225.0
5417.715,227.0
5419.882,203.0
5422.05,249.0
5424.2188,216.0
5426.3887,222.0
5428.559,245.0
5430.7305,258.0
5432.903,223.0
5435.076,237.0
5437.25,213.0
5439.425,225.0
5441.6006,249.0
5443.7773,239.0
5445.955,283.0
5448.1333,233.0
5450.3125,245.0
5452.4927,197.0
5454.674,215.0
5456.8555,248.0
5459.038,262.0
5461.2217,233.0
5463.4062,221.0
5465.592,208.0
5467.778,257.0
5469.965,240.0
5472.153,242.0
5474.342,269.0
5476.5317,241.0
5478.722,238.0
5480.9136,220.0
5483.106,229.0
5485.2993,247.0
5487.4937,242.0
5489.6885,255.0
5491.8843,221.0
5494.081,237.0
5496.279,219.0
5498.4775,211.0
5500.677,198.0
5502.877,283.0
5505.078,266.0
5507.2803,257.0
5509.4834,251.0
5511.687,233.0
5513.8916,256.0
5516.097,209.0
5518.3037,220.0
5520.511,216.0
5522.719,271.0
5524.928,279.0
5527.138,226.0
5529.349,206.0
5531.561,250.0
5533.7734,218.0
5535.987,240.0
5538.201,256.0
5540.4165,254.0
5542.633,253.0
5544.85,223.0
5547.068,221.0
5549.2866,242.0
5551.5063,223.0
5553.727,237.0
5555.9487,255.0
5558.171,270.0
5560.394,251.0
5562.618,218.0
5564.8433,273.0
5567.0693,268.0
5569.2964,235.0
5571.524,234.0
5573.7524,228.0
5575.982,236.0
5578.2124,199.0
5580.444,259.0
5582.676,257.0
5584.9087,247.0
5587.1426,233.0
5589.3774,201.0
5591.6133,236.0
5593.85,226.0
5596.0874,247.0
5598.3257,224.0
5600.565,278.0
5602.805,240.0
5605.0464,239.0
5607.2886,233.0
5609.5312,216.0
5611.775,228.0
5614.0195,251.0
5616.265,217.0
5618.5117,217.0
5620.7593,221.0
5623.008,200.0
5625.257,252.0
5627.507,217.0
5629.758,242.0
5632.01,251.0
5634.2627,242.0
5636.5166,216.0
5638.771,209.0
5641.0264,232.0
5643.2827,229.0
5645.54,202.0
5647.7983,200.0
5650.0576,232.0
5652.318,237.0
5654.5786,204.0
5656.8403,218.0
5659.103,219.0
5661.3667,231.0
5663.6313,212.0
5665.897,207.0
5668.1636,240.0
5670.4307,228.0
5672.6987,223.0
5674.968,217.0
5677.238,260.0
5679.509,246.0
5681.781,244.0
5684.0537,237.0
5686.327,222.0
5688.6016,223.0
5690.877,234.0
5693.1533,242.0
5695.4307,261.0
5697.709,245.0
5699.9883,241.0
5702.268,216.0
5704.549,276.0
5706.8306,249.0
5709.1133,229.0
5711.397,243.0
5713.6816,244.0
5715.9673,229.0
5718.254,249.0
5720.541,249.0
5722.829,267.0
5725.118,259.0
5727.408,232.0
5729.699,237.0
5731.991,268.0
5734.284,248.0
5736.578,268.0
5738.8726,246.0
5741.168,245.0
5743.4644,251.0
5745.7617,199.0
5748.06,230.0
5750.3594,285.0
5752.6597,258.0
5754.961,280.0
5757.2627,272.0
5759.5654,256.0
5761.869,250.0
5764.174,283.0
5766.4795,275.0
5768.786,266.0
5771.0938,290.0
5773.4023,274.0
5775.712,241.0
5778.022,278.0
5780.333,284.0
5782.645,277.0
5784.958,277.0
5787.272,253.0
5789.587,308.0
5791.903,311.0
5794.2197,277.0
5796.5376,295.0
5798.8564,285.0
5801.176,285.0
5803.496,304.0
5805.8174,330.0
5808.1396,347.0
5810.463,329.0
5812.787,315.0
5815.1123,336.0
5817.4385,298.0
5819.7656,339.0
5822.0938,360.0
5824.4224,327.0
5826.752,303.0
5829.0825,336.0
5831.414,364.0
5833.7466,310.0
5836.08,318.0
5838.4146,422.0
5840.75,441.0
5843.0864,350.0
5845.424,317.0
5847.762,338.0
5850.101,329.0
5852.441,362.0
5854.7817,304.0
5857.1235,321.0
5859.4663,309.0
5861.81,295.0
5864.155,277.0
5866.5005,276.0
5868.847,292.0
5871.195,287.0
5873.5435,320.0
5875.893,321.0
5878.2437,254.0
5880.5947,260.0
5882.947,313.0
5885.3,309.0
5887.654,333.0
5890.009,326.0
5892.3647,315.0
5894.7217,321.0
5897.0796,293.0
5899.4385,302.0
5901.7983,347.0
5904.159,360.0
5906.521,332.0
5908.884,346.0
5911.2476,344.0
5913.612,367.0
5915.977,357.0
5918.3433,355.0
5920.7104,332.0
5923.0786,320.0
5925.4478,347.0
5927.818,350.0
5930.189,346.0
5932.561,358.0
5934.934,365.0
5937.308,341.0
5939.683,354.0
5942.059,367.0
5944.436,369.0
5946.814,367.0
5949.193,359.0
5951.5728,349.0
5953.9536,375.0
5956.335,326.0
5958.7173,380.0
5961.1006,383.0
5963.485,383.0
5965.87,319.0
5968.2563,346.0
5970.6436,388.0
5973.0317,329.0
5975.421,368.0
5977.811,375.0
5980.202,376.0
5982.594,334.0
5984.9873,379.0
5987.3813,359.0
5989.7764,345.0
5992.1724,360.0
5994.5693,380.0
5996.9673,352.0
5999.366,342.0
6001.766,463.0
6004.167,411.0
6006.569,393.0
6008.9717,377.0
6011.3755,414.0
6013.7803,380.0
6016.1855,369.0
6018.592,404.0
6020.999,398.0
6023.407,365.0
6025.8164,325.0
6028.2266,328.0
6030.6377,376.0
6033.05,365.0
6035.463,401.0
6037.877,400.0
6040.292,361.0
6042.708,365.0
6045.125,433.0
6047.543,393.0
6049.962,365.0
6052.382,340.0
6054.8027,315.0
6057.2246,363.0
6059.6475,342.0
6062.0713,446.0
6064.496,424.0
6066.922,401.0
6069.3486,358.0
6071.7764,358.0
6074.205,367.0
6076.635,364.0
6079.0654,333.0
6081.497,354.0
6083.9297,363.0
6086.3633,339.0
6088.798,407.0
6091.2334,399.0
6093.67,332.0
6096.1074,358.0
6098.546,354.0
6100.9854,442.0
6103.426,419.0
6105.867,368.0
6108.3096,396.0
6110.753,351.0
6113.1973,386.0
6115.6426,408.0
6118.089,426.0
6120.536,420.0
6122.9844,378.0
6125.4336,381.0
6127.884,415.0
6130.335,478.0
6132.787,492.0
6135.24,537.0
6137.6943,480.0
6140.1494,463.0
6142.6055,429.0
6145.0625,472.0
6147.5205,507.0
6149.9795,500.0
6152.4395,515.0
6154.9004,515.0
6157.3623,526.0
6159.825,516.0
6162.289,488.0
6164.754,425.0
6167.2197,449.0
6169.6865,480.0
6172.1543,570.0
6174.623,730.0
6177.093,764.0
6179.5635,586.0
6182.035,528.0
6184.508,495.0
6186.9814,524.0
6189.456,587.0
6191.9316,811.0
6194.408,868.0
6196.8857,702.0
6199.3643,640.0
6201.844,634.0
6204.325,560.0
6206.807,445.0
6209.29,434.0
6211.774,454.0
6214.259,576.0
6216.7446,749.0
6219.2314,621.0
6221.719,540.0
6224.208,467.0
6226.6978,427.0
6229.1885,548.0
6231.68,710.0
6234.173,931.0
6236.6665,775.0
6239.161,571.0
6241.6567,488.0
6244.1533,517.0
6246.651,563.0
6249.1494,572.0
6251.649,510.0
6254.1494,547.0
6256.651,612.0
6259.1533,577.0
6261.6567,496.0
6264.1616,454.0
6266.6675,405.0
6269.1743,426.0
6271.682,689.0
6274.191,879.0
6276.7007,698.0
6279.2114,523.0
6281.723,443.0
6284.236,416.0
6286.7495,409.0
6289.264,954.0
6291.78,1284.0
6294.2964,935.0
6296.814,577.0
6299.3325,432.0
6301.852,405.0
6304.3726,398.0
6306.8945,389.0
6309.4175,376.0
6311.9414,384.0
6314.4663,410.0
6316.992,393.0
6319.519,399.0
6322.047,389.0
6324.5757,320.0
6327.1055,384.0
6329.636,396.0
6332.168,388.0
6334.7007,375.0
6337.2344,403.0
6339.769,398.0
6342.305,388.0
6344.8423,411.0
6347.3804,393.0
6349.9194,410.0
6352.4595,364.0
6355.0005,358.0
6357.5425,400.0
6360.0854,400.0
6362.6294,409.0
6365.1743,426.0
6367.72,406.0
6370.267,450.0
6372.8154,405.0
6375.3647,404.0
6377.915,409.0
6380.4663,394.0
6383.0186,410.0
6385.572,480.0
6388.126,455.0
6390.681,422.0
6393.2373,398.0
6395.7944,392.0
6398.3525,407.0
6400.912,406.0
6403.4727,433.0
6406.034,467.0
6408.5967,428.0
6411.16,432.0
6413.7246,404.0
6416.29,405.0
6418.8564,434.0
6421.424,460.0
6423.992,406.0
6426.562,408.0
6429.133,423.0
6431.7046,423.0
6434.2773,446.0
6436.851,456.0
6439.426,393.0
6442.0015,408.0
6444.578,447.0
6447.156,475.0
6449.735,458.0
6452.315,397.0
6454.896,436.0
6457.478,406.0
6460.061,414.0
6462.645,421.0
6465.23,402.0
6467.816,370.0
6470.403,398.0
6472.991,429.0
6475.5806,394.0
6478.171,391.0
6480.762,424.0
6483.3545,386.0
6485.9478,379.0
6488.542,418.0
6491.137,414.0
6493.734,430.0
6496.3315,417.0
6498.93,440.0
6501.53,385.0
6504.1304,423.0
6506.732,401.0
6509.3345,404.0
6511.938,422.0
6514.543,467.0
6517.149,476.0
6519.756,422.0
6522.364,420.0
6524.9727,454.0
6527.5825,419.0
6530.1934,468.0
6532.8057,473.0
6535.419,446.0
6538.033,455.0
6540.6484,487.0
6543.2646,498.0
6545.882,450.0
6548.5,460.0
6551.1196,501.0
6553.74,482.0
6556.362,528.0
6558.9844,559.0
6561.608,538.0
6564.2324,457.0
6566.858,495.0
6569.485,484.0
6572.113,506.0
6574.7417,567.0
6577.3716,518.0
6580.0024,537.0
6582.6343,512.0
6585.267,547.0
6587.9014,477.0
6590.5366,496.0
6593.173,559.0
6595.81,537.0
6598.448,483.0
6601.0874,477.0
6603.728,520.0
6606.3696,477.0
6609.012,467.0
6611.656,505.0
6614.3003,558.0
6616.946,493.0
6619.593,535.0
6622.2407,531.0
6624.8896,502.0
6627.5396,443.0
6630.1904,526.0
6632.8423,513.0
6635.4956,489.0
6638.15,601.0
6640.805,618.0
6643.4614,536.0
6646.1187,527.0
6648.7773,495.0
6651.437,464.0
6654.0977,526.0
6656.7593,632.0
6659.422,535.0
6662.0854,497.0
6664.7505,480.0
6667.4165,451.0
6670.0835,406.0
6672.7515,427.0
6675.4204,451.0
6678.091,506.0
6680.762,505.0
6683.4346,451.0
6686.108,377.0
6688.782,422.0
6691.4575,454.0
6694.1343,458.0
6696.812,551.0
6699.4907,507.0
6702.1704,432.0
6704.851,454.0
6707.533,485.0
6710.2163,469.0
6712.9004,484.0
6715.5854,498.0
6718.2715,490.0
6720.959,455.0
6723.6475,497.0
6726.337,516.0
6729.0273,470.0
6731.7188,433.0
6734.4116,451.0
6737.1055,505.0
6739.8003,559.0
6742.496,601.0
6745.193,546.0
6747.891,462.0
6750.5903,444.0
6753.2905,446.0
6755.9917,494.0
6758.6943,636.0
6761.398,708.0
6764.1025,581.0
6766.808,595.0
6769.5146,499.0
6772.2227,500.0
6774.9316,533.0
6777.6416,637.0
6780.3525,773.0
6783.0645,720.0
6785.778,642.0
6788.492,654.0
6791.2075,609.0
6793.924,557.0
6796.6416,504.0
6799.3604,557.0
6802.08,626.0
6804.801,823.0
6807.5225,979.0
6810.2456,795.0
6812.9697,589.0
6815.695,528.0
6818.421,529.0
6821.1484,1143.0
6823.877,1908.0
6826.6064,1395.0
6829.337,780.0
6832.069,505.0
6834.802,475.0
6837.5356,536.0
6840.2705,710.0
6843.007,850.0
6845.744,692.0
6848.4824,521.0
6851.2217,440.0
6853.9624,490.0
6856.704,487.0
6859.447,562.0
6862.1904,548.0
6864.9355,463.0
6867.6816,412.0
6870.4287,459.0
6873.177,358.0
6875.9263,456.0
6878.677,426.0
6881.428,429.0
6884.1807,411.0
6886.9346,408.0
6889.6895,428.0
6892.4453,426.0
6895.202,438.0
6897.9604,450.0
6900.7197,437.0
6903.48,467.0
6906.241,478.0
6909.004,426.0
6911.7676,508.0
6914.532,493.0
6917.298,449.0
6920.065,514.0
6922.833,495.0
6925.602,465.0
6928.372,468.0
6931.1436,479.0
6933.916,472.0
6936.6895,434.0
6939.4644,423.0
6942.24,460.0
6945.017,474.0
6947.795,536.0
6950.574,570.0
6953.3545,500.0
6956.1357,542.0
6958.918,432.0
6961.7017,499.0
6964.4863,500.0
6967.272,502.0
6970.059,470.0
6972.847,613.0
6975.636,611.0
6978.4263,536.0
6981.218,590.0
6984.0103,516.0
6986.8037,543.0
6989.5986,627.0
6992.3945,837.0
6995.1914,688.0
6997.9893,640.0
7000.7886,643.0
7003.589,515.0
7006.39,557.0
7009.193,603.0
7011.9966,541.0
7014.8013,593.0
7017.6074,635.0
7020.4146,661.0
7023.2227,659.0
7026.0317,729.0
7028.8423,649.0
7031.654,513.0
7034.4663,472.0
7037.2803,455.0
7040.095,654.0
7042.911,797.0
7045.7285,741.0
7048.547,574.0
7051.366,473.0
7054.1865,480.0
7057.0083,688.0
7059.831,1129.0
7062.655,1084.0
7065.48,667.0
7068.306,574.0
7071.1333,484.0
7073.962,488.0
7076.7915,480.0
7079.622,497.0
7082.454,497.0
7085.287,518.0
7088.121,471.0
7090.9565,499.0
7093.793,503.0
7096.6304,551.0
7099.469,518.0
7102.309,489.0
7105.15,476.0
7107.992,551.0
7110.8354,568.0
7113.6797,617.0
7116.5254,572.0
7119.372,582.0
7122.2197,566.0
7125.069,733.0
7127.919,692.0
7130.77,598.0
7133.6226,572.0
7136.476,598.0
7139.3306,772.0
7142.1865,778.0
7145.0435,697.0
7147.9014,561.0
7150.7607,583.0
7153.621,715.0
7156.4824,944.0
7159.345,1057.0
7162.209,758.0
7165.0737,672.0
7167.94,684.0
7170.807,794.0
7173.6753,847.0
7176.545,726.0
7179.4155,730.0
7182.287,735.0
7185.16,682.0
7188.034,765.0
7190.909,803.0
7193.7856,712.0
7196.663,968.0
7199.542,979.0
7202.422,756.0
7205.3027,596.0
7208.185,462.0
7211.0684,650.0
7213.9526,1183.0
7216.8384,1166.0
7219.725,741.0
7222.613,553.0
7225.502,538.0
7228.392,731.0
7231.283,1834.0
7234.176,1860.0
7237.0693,1006.0
7239.9644,599.0
7242.8604,496.0
7245.7573,481.0
7248.656,500.0
7251.555,494.0
7254.4556,491.0
7257.3574,480.0
7260.2603,462.0
7263.1646,433.0
7266.07,503.0
7268.976,501.0
7271.884,492.0
7274.7925,435.0
7277.7026,485.0
7280.614,456.0
7283.526,487.0
7286.4395,525.0
7289.354,481.0
7292.2695,430.0
7295.1865,543.0
7298.1045,510.0
7301.024,441.0
7303.9443,460.0
7306.8657,441.0
7309.7886,512.0
7312.7124,692.0
7315.6377,666.0
7318.564,485.0
7321.491,447.0
7324.42,418.0
7327.3496,614.0
7330.281,819.0
7333.213,742.0
7336.146,510.0
7339.0806,456.0
7342.016,495.0
7344.953,542.0
7347.891,595.0
7350.83,518.0
7353.7705,503.0
7356.712,506.0
7359.655,511.0
7362.5986,443.0
7365.5435,465.0
7368.4897,445.0
7371.437,466.0
7374.3857,544.0
7377.3354,507.0
7380.2866,529.0
7383.239,536.0
7386.192,560.0
7389.1465,550.0
7392.102,501.0
7395.059,526.0
7398.017,542.0
7400.976,654.0
7403.9365,637.0
7406.898,626.0
7409.861,663.0
7412.8247,646.0
7415.79,636.0
7418.7563,662.0
7421.7236,669.0
7424.6924,509.0
7427.662,498.0
7430.6333,434.0
7433.6055,604.0
7436.579,630.0
7439.5537,572.0
7442.5293,575.0
7445.5063,490.0
7448.4844,456.0
7451.464,517.0
7454.4443,496.0
7457.4263,419.0
7460.409,461.0
7463.3936,394.0
7466.379,501.0
7469.365,576.0
7472.353,434.0
7475.342,446.0
7478.332,395.0
7481.323,492.0
7484.316,741.0
7487.3096,800.0
7490.3047,632.0
7493.301,417.0
7496.2983,438.0
7499.297,431.0
7502.2964,415.0
7505.2974,429.0
7508.2993,371.0
7511.3027,376.0
7514.307,352.0
7517.313,371.0
7520.32,389.0
7523.328,362.0
7526.3374,400.0
7529.348,438.0
7532.36,396.0
7535.373,369.0
7538.387,384.0
7541.4023,384.0
7544.419,411.0
7547.4365,449.0
7550.4556,415.0
7553.4756,387.0
7556.497,384.0
7559.5195,379.0
7562.5435,472.0
7565.5684,523.0
7568.5947,419.0
7571.622,422.0
7574.651,385.0
7577.6807,334.0
7580.712,359.0
7583.744,460.0
7586.778,369.0
7589.8125,357.0
7592.8486,316.0
7595.8857,408.0
7598.9243,427.0
7601.964,399.0
7605.005,353.0
7608.047,340.0
7611.0903,351.0
7614.135,377.0
7617.18,462.0
7620.227,422.0
7623.275,368.0
7626.324,346.0
7629.3745,330.0
7632.4263,381.0
7635.479,383.0
7638.533,366.0
7641.5884,345.0
7644.645,332.0
7647.7026,356.0
7650.7617,369.0
7653.8223,322.0
7656.884,371.0
7659.947,356.0
7663.0107,357.0
7666.076,352.0
7669.1426,334.0
7672.2104,388.0
7675.2793,388.0
7678.3496,384.0
7681.421,390.0
7684.4937,390.0
7687.5674,391.0
7690.6426,391.0
7693.7188,412.0
7696.7964,384.0
7699.875,368.0
7702.955,398.0
7706.036,377.0
7709.1187,378.0
7712.202,396.0
7715.287,423.0
7718.373,401.0
7721.4604,424.0
7724.549,476.0
7727.6387,500.0
7730.7295,435.0
7733.822,479.0
7736.9155,462.0
7740.0103,489.0
7743.1064,523.0
7746.2036,541.0
7749.3022,458.0
7752.402,510.0
7755.503,584.0
7758.605,433.0
7761.7085,462.0
7764.813,452.0
7767.919,449.0
7771.026,605.0
7774.1343,568.0
7777.244,477.0
7780.355,458.0
7783.4673,454.0
7786.5806,707.0
7789.6953,795.0
7792.811,672.0
7795.928,525.0
7799.0464,496.0
7802.166,499.0
7805.287,506.0
7808.409,532.0
7811.5327,584.0
7814.657,586.0
7817.783,549.0
7820.91,458.0
7824.0386,496.0
7827.168,623.0
7830.299,686.0
7833.431,607.0
7836.5645,490.0
7839.699,510.0
7842.835,586.0
7845.972,684.0
7849.1104,714.0
7852.25,622.0
7855.391,543.0
7858.533,551.0
7861.677,581.0
7864.8213,552.0
7867.9673,574.0
7871.1143,580.0
7874.2627,606.0
7877.4126,603.0
7880.5635,595.0
7883.716,653.0
7886.869,726.0
7890.024,671.0
7893.18,551.0
7896.3374,627.0
7899.496,779.0
7902.656,840.0
7905.817,718.0
7908.979,664.0
7912.1426,628.0
7915.3076,758.0
7918.4736,885.0
7921.641,862.0
7924.8096,756.0
7927.9795,614.0
7931.151,659.0
7934.323,704.0
7937.497,771.0
7940.672,823.0
7943.848,739.0
7947.026,751.0
7950.2046,750.0
7953.385,852.0
7956.566,860.0
7959.7485,821.0
7962.9326,901.0
7966.1177,904.0
7969.304,954.0
7972.4917,1045.0
7975.6807,1017.0
7978.871,1032.0
7982.0625,1062.0
7985.2554,1186.0
7988.4497,1261.0
7991.645,1266.0
7994.842,1119.0
7998.0396,1159.0
8001.239,1250.0
8004.4395,1447.0
8007.641,1537.0
8010.844,1522.0
8014.0483,1388.0
8017.254,1479.0
8020.461,1523.0
8023.669,1600.0
8026.8784,1438.0
8030.0894,1491.0
8033.3013,1734.0
8036.5146,1917.0
8039.7295,2210.0
8042.9453,2056.0
8046.1626,1751.0
8049.381,1783.0
8052.6006,2303.0
8055.822,2779.0
8059.044,2812.0
8062.2676,2272.0
8065.4927,2423.0
8068.7188,2690.0
8071.9463,2904.0
8075.1753,3405.0
8078.4053,3299.0
8081.6367,3513.0
8084.869,4254.0
8088.103,3528.0
8091.3384,2639.0
8094.5747,2348.0
8097.8125,3656.0
8101.052,5977.0
8104.292,5066.0
8107.5337,3843.0
8110.777,3017.0
8114.021,3285.0
8117.2666,8037.0
8120.5137,10046.0
8123.7617,6733.0
8127.011,5068.0
8130.262,3876.0
8133.514,3746.0
8136.7676,4353.0
8140.0225,5176.0
8143.2783,6581.0
8146.5356,5957.0
8149.7944,4674.0
8153.054,5655.0
8156.3154,5269.0
8159.578,5901.0
8162.842,7008.0
8166.107,6651.0
8169.3735,10419.0
8172.641,9791.0
8175.91,5658.0
8179.1807,3111.0
8182.452,3995.0
8185.725,16424.0
8188.9995,20373.0
8192.275,8981.0
8195.553,3734.0
8198.831,3217.0
8202.11,17089.0
8205.392,40752.0
8208.674,23205.0
8211.957,7402.0
8215.242,3262.0
8218.528,2389.0
8221.815,2043.0
8225.1045,2394.0
8228.395,3008.0
8231.686,2304.0
8234.979,1438.0
8238.272,1154.0
8241.567,1312.0
8244.864,1508.0
8248.162,1487.0
8251.461,1224.0
8254.762,1083.0
8258.063,1235.0
8261.367,1500.0
8264.672,1586.0
8267.978,1295.0
8271.285,1239.0
8274.594,1096.0
8277.903,986.0
8281.215,969.0
8284.527,1035.0
8287.841,1297.0
8291.156,1294.0
8294.473,1069.0
8297.79,1103.0
8301.109,1068.0
8304.43,1281.0
8307.751,1390.0
8311.074,1219.0
8314.398,1319.0
8317.725,1245.0
8321.052,1164.0
8324.38,1006.0
8327.71,1253.0
8331.041,1641.0
8334.373,1509.0
8337.707,1065.0
8341.042,1071.0
8344.378,1195.0
8347.716,1817.0
8351.055,1754.0
8354.3955,1343.0
8357.737,1472.0
8361.08,1309.0
8364.425,960.0
8367.7705,891.0
8371.117,946.0
8374.466,1388.0
8377.815,1472.0
8381.167,1098.0
8384.52,774.0
8387.873,844.0
8391.229,1226.0
8394.585,1558.0
8397.942,1120.0
8401.302,851.0
8404.662,875.0
8408.024,879.0
8411.388,837.0
8414.752,741.0
8418.118,788.0
8421.485,736.0
8424.854,656.0
8428.224,598.0
8431.595,758.0
8434.968,787.0
8438.342,713.0
8441.717,599.0
8445.094,736.0
8448.472,778.0
8451.851,724.0
8455.231,754.0
8458.613,746.0
8461.997,754.0
8465.382,921.0
8468.768,833.0
8472.155,852.0
8475.544,886.0
8478.935,865.0
8482.326,832.0
8485.719,920.0
8489.113,1043.0
8492.509,1186.0
8495.906,1079.0
8499.305,1008.0
8502.704,1099.0
8506.105,1188.0
8509.508,1419.0
8512.911,1170.0
8516.316,1332.0
8519.723,1490.0
8523.131,1375.0
8526.54,1467.0
8529.95,1412.0
8533.362,2022.0
8536.775,2328.0
8540.19,1674.0
8543.606,1050.0
8547.023,1014.0
8550.442,2561.0
8553.862,3625.0
8557.284,2055.0
8560.707,1185.0
8564.131,1053.0
8567.557,3307.0
8570.983,5831.0
8574.412,3409.0
8577.842,1715.0
8581.272,1176.0
8584.705,880.0
8588.139,787.0
8591.574,954.0
8595.011,1280.0
8598.449,1260.0
8601.889,845.0
8605.329,705.0
8608.771,696.0
8612.215,568.0
8615.66,638.0
8619.106,612.0
8622.554,619.0
8626.003,641.0
8629.453,565.0
8632.905,554.0
8636.358,638.0
8639.8125,650.0
8643.269,655.0
8646.726,593.0
8650.185,574.0
8653.645,606.0
8657.106,674.0
8660.569,660.0
8664.033,678.0
8667.499,691.0
8670.966,715.0
8674.435,734.0
8677.904,762.0
8681.375,711.0
8684.848,703.0
8688.321,741.0
8691.797,747.0
8695.273,881.0
8698.752,905.0
8702.231,894.0
8705.712,1065.0
8709.194,1013.0
8712.678,1164.0
8716.163,1773.0
8719.649,1490.0
8723.138,1160.0
8726.627,1048.0
8730.117,1019.0
8733.609,1098.0
8737.103,1061.0
8740.598,1075.0
8744.094,996.0
8747.592,970.0
8751.091,1033.0
8754.591,1113.0
8758.093,1142.0
8761.596,1037.0
8765.101,1077.0
8768.606,1172.0
8772.114,1381.0
8775.623,1291.0
8779.133,1286.0
8782.645,1294.0
8786.157,1229.0
8789.672,1215.0
8793.1875,1374.0
8796.705,1674.0
8800.224,1967.0
8803.744,1385.0
8807.266,1115.0
8810.788,1241.0
8814.3125,2507.0
8817.838,2750.0
8821.365,1685.0
8824.894,1305.0
8828.424,1441.0
8831.955,2925.0
8835.488,3133.0
8839.022,2082.0
8842.558,1699.0
8846.095,1405.0
8849.633,1235.0
8853.173,1287.0
8856.714,1723.0
8860.257,2133.0
8863.801,1663.0
8867.347,1416.0
8870.894,1382.0
8874.442,2140.0
8877.992,3000.0
8881.543,2183.0
8885.096,1677.0
8888.649,1460.0
8892.205,1428.0
8895.762,1430.0
8899.32,1797.0
8902.88,1857.0
8906.441,1532.0
8910.004,1427.0
8913.568,1610.0
8917.134,2092.0
8920.7,1905.0
8924.269,1509.0
8927.838,1484.0
8931.409,1686.0
8934.981,2550.0
8938.556,2280.0
8942.131,1816.0
8945.708,1708.0
8949.286,1434.0
8952.866,1266.0
8956.447,1421.0
8960.03,1691.0
8963.614,1722.0
8967.199,1381.0
8970.786,1165.0
8974.374,1360.0
8977.964,1693.0
8981.555,1467.0
8985.147,1266.0
8988.741,1275.0
8992.337,1357.0
8995.934,1577.0
8999.532,1388.0
9003.132,1292.0
9006.733,1415.0
9010.336,1452.0
9013.94,1343.0
9017.546,1230.0
9021.153,1324.0
9024.762,1606.0
9028.372,1598.0
9031.983,1234.0
9035.597,974.0
9039.211,1108.0
9042.826,1588.0
9046.443,1452.0
9050.062,1050.0
9053.682,858.0
9057.303,1326.0
9060.926,2112.0
9064.55,1717.0
9068.176,1076.0
9071.803,833.0
9075.432,1057.0
9079.062,1228.0
9082.693,1030.0
9086.326,847.0
9089.961,842.0
9093.597,893.0
9097.234,984.0
9100.873,860.0
9104.514,803.0
9108.155,820.0
9111.799,694.0
9115.443,719.0
9119.09,783.0
9122.737,908.0
9126.387,860.0
9130.037,744.0
9133.689,757.0
9137.343,870.0
9140.998,981.0
9144.654,926.0
9148.3125,737.0
9151.972,718.0
9155.633,638.0
9159.295,735.0
9162.959,894.0
9166.624,965.0
9170.291,776.0
9173.959,653.0
9177.629,764.0
9181.3,1167.0
9184.973,1111.0
9188.646,846.0
9192.322,666.0
9195.999,866.0
9199.678,1147.0
9203.357,946.0
9207.039,835.0
9210.722,681.0
9214.406,599.0
9218.092,511.0
9221.779,656.0
9225.468,731.0
9229.158,703.0
9232.85,530.0
9236.543,545.0
9240.237,716.0
9243.934,932.0
9247.631,769.0
9251.33,571.0
9255.03,436.0
9258.732,391.0
9262.436,409.0
9266.141,466.0
9269.847,514.0
9273.555,389.0
9277.264,352.0
9280.975,385.0
9284.687,415.0
9288.4,368.0
9292.116,397.0
9295.833,338.0
9299.552,386.0
9303.271,398.0
9306.993,387.0
9310.716,346.0
9314.44,363.0
9318.166,350.0
9321.894,352.0
9325.622,387.0
9329.353,369.0
9333.084,326.0
9336.817,345.0
9340.552,358.0
9344.288,363.0
9348.025,373.0
9351.765,350.0
9355.505,337.0
9359.247,335.0
9362.991,316.0
9366.736,326.0
9370.483,345.0
9374.231,328.0
9377.981,309.0
9381.732,283.0
9385.485,342.0
9389.239,323.0
9392.995,283.0
9396.752,287.0
9400.511,301.0
9404.2705,313.0
9408.032,260.0
9411.796,322.0
9415.561,272.0
9419.327,260.0
9423.095,278.0
9426.864,299.0
9430.635,279.0
9434.407,284.0
9438.181,262.0
9441.956,326.0
9445.732,344.0
9449.511,287.0
9453.291,284.0
9457.072,286.0
9460.855,320.0
9464.64,283.0
9468.426,331.0
9472.213,287.0
9476.002,276.0
9479.792,259.0
9483.584,263.0
9487.377,292.0
9491.172,297.0
9494.969,254.0
9498.767,262.0
9502.566,290.0
9506.367,334.0
9510.17,294.0
9513.974,238.0
9517.779,254.0
9521.586,256.0
9525.395,238.0
9529.205,248.0
9533.017,280.0
9536.83,244.0
9540.645,244.0
9544.461,241.0
9548.278,292.0
9552.098,284.0
9555.919,229.0
9559.741,226.0
9563.565,226.0
9567.391,213.0
9571.218,218.0
9575.046,211.0
9578.876,196.0
9582.708,186.0
9586.541,220.0
9590.376,260.0
9594.212,216.0
9598.05,215.0
9601.889,183.0
9605.7295,223.0
9609.572,205.0
9613.416,200.0
9617.262,198.0
9621.108,203.0
9624.957,201.0
9628.807,204.0
9632.658,218.0
9636.512,227.0
9640.366,227.0
9644.223,197.0
9648.08,207.0
9651.939,210.0
9655.8,197.0
9659.662,207.0
9663.526,230.0
9667.392,226.0
9671.259,185.0
9675.127,241.0
9678.997,292.0
9682.869,231.0
9686.742,194.0
9690.617,212.0
9694.493,203.0
9698.371,179.0
9702.25,187.0
9706.131,218.0
9710.014,215.0
9713.897,201.0
9717.783,177.0
9721.67,194.0
9725.559,183.0
9729.449,198.0
9733.341,205.0
9737.234,170.0
9741.129,194.0
9745.025,185.0
9748.924,208.0
9752.823,189.0
9756.725,170.0
9760.627,191.0
9764.531,206.0
9768.4375,170.0
9772.345,182.0
9776.254,187.0
9780.164,192.0
9784.076,210.0
9787.99,232.0
9791.905,189.0
9795.822,186.0
9799.74,191.0
9803.66,231.0
9807.582,231.0
9811.505,210.0
9815.43,197.0
9819.355,184.0
9823.283,221.0
9827.213,286.0
9831.144,253.0
9835.076,213.0
9839.01,215.0
9842.945,278.0
9846.883,304.0
9850.821,242.0
9854.762,199.0
9858.704,191.0
9862.647,208.0
9866.593,221.0
9870.539,199.0
9874.487,192.0
9878.4375,183.0
9882.389,170.0
9886.342,184.0
9890.296,191.0
9894.252,184.0
9898.21,183.0
9902.169,165.0
9906.13,154.0
9910.093,176.0
9914.057,194.0
9918.022,199.0
9921.989,207.0
9925.958,211.0
9929.929,185.0
9933.9,189.0
9937.874,190.0
9941.85,178.0
9945.826,162.0
9949.805,176.0
9953.784,192.0
9957.766,176.0
9961.749,166.0
9965.733,214.0
9969.72,204.0
9973.708,186.0
9977.697,180.0
9981.688,164.0
9985.681,201.0
9989.675,180.0
9993.671,173.0
9997.668,174.0
10001.667,184.0
10005.668,171.0
10009.67,189.0
10013.674,181.0
10017.68,170.0
10021.687,175.0
10025.695,176.0
10029.706,202.0
10033.718,148.0
10037.731,164.0
10041.746,179.0
10045.763,187.0
10049.781,170.0
10053.801,187.0
10057.822,173.0
10061.846,179.0
10065.87,193.0
10069.896,187.0
10073.925,180.0
10077.954,189.0
10081.985,185.0
10086.019,201.0
10090.053,188.0
10094.089,172.0
10098.127,196.0
10102.166,188.0
10106.207,165.0
10110.25,185.0
10114.294,177.0
10118.34,196.0
10122.387,185.0
10126.436,194.0
10130.486,177.0
10134.538,197.0
10138.592,201.0
10142.647,182.0
10146.704,236.0
10150.763,202.0
10154.823,202.0
10158.885,199.0
10162.948,204.0
10167.014,177.0
10171.08,168.0
10175.148,182.0
10179.219,180.0
10183.29,172.0
10187.363,192.0
10191.438,159.0
10195.515,192.0
10199.593,174.0
10203.673,204.0
10207.754,196.0
10211.837,183.0
10215.922,213.0
10220.008,173.0
10224.096,209.0
10228.186,188.0
10232.276,177.0
10236.369,179.0
10240.464,182.0
10244.56,196.0
10248.657,179.0
10252.757,171.0
10256.858,198.0
10260.961,178.0
10265.065,179.0
10269.172,161.0
10273.279,187.0
10277.389,172.0
10281.5,174.0
10285.612,189.0
10289.727,202.0
10293.843,180.0
10297.96,191.0
10302.079,167.0
10306.2,190.0
10310.322,212.0
10314.446,179.0
10318.572,189.0
10322.699,201.0
10326.828,178.0
10330.959,173.0
10335.092,182.0
10339.226,200.0
10343.361,186.0
10347.499,206.0
10351.638,215.0
10355.778,217.0
10359.921,201.0
10364.064,227.0
10368.21,181.0
10372.357,192.0
10376.507,189.0
10380.657,185.0
10384.81,180.0
10388.964,195.0
10393.119,199.0
10397.276,187.0
10401.436,223.0
10405.596,189.0
10409.758,221.0
10413.922,199.0
10418.088,208.0
10422.255,204.0
10426.424,176.0
10430.595,204.0
10434.767,186.0
10438.94,172.0
10443.116,205.0
10447.294,204.0
10451.473,185.0
10455.653,187.0
10459.836,190.0
10464.02,181.0
10468.205,189.0
10472.393,214.0
10476.581,202.0
10480.771,198.0
10484.964,198.0
10489.158,205.0
10493.354,219.0
10497.551,210.0
10501.75,191.0
10505.951,183.0
10510.153,188.0
10514.357,189.0
10518.563,203.0
10522.7705,192.0
10526.9795,207.0
10531.19,210.0
10535.403,196.0
10539.617,217.0
10543.833,191.0
10548.051,197.0
10552.27,216.0
10556.49,192.0
10560.713,198.0
10564.9375,224.0
10569.163,196.0
10573.391,193.0
10577.62,192.0
10581.852,197.0
10586.084,209.0
10590.318,250.0
10594.555,199.0
10598.793,199.0
10603.032,178.0
10607.273,168.0
10611.517,205.0
10615.761,199.0
10620.007,216.0
10624.255,270.0
10628.505,208.0
10632.756,206.0
10637.009,208.0
10641.264,196.0
10645.5205,207.0
10649.778,177.0
10654.038,211.0
10658.3,239.0
10662.563,206.0
10666.828,221.0
10671.095,216.0
10675.363,215.0
10679.634,230.0
10683.905,212.0
10688.179,209.0
10692.454,191.0
10696.731,260.0
10701.01,258.0
10705.29,209.0
10709.572,230.0
10713.856,207.0
10718.142,228.0
10722.429,240.0
10726.718,201.0
10731.009,225.0
10735.301,244.0
10739.595,276.0
10743.891,221.0
10748.188,228.0
10752.487,249.0
10756.788,268.0
10761.091,256.0
10765.3955,248.0
10769.702,213.0
10774.01,225.0
10778.319,226.0
10782.631,181.0
10786.944,198.0
10791.259,218.0
10795.575,239.0
10799.894,184.0
10804.214,200.0
10808.535,215.0
10812.858,194.0
10817.184,223.0
10821.511,213.0
10825.839,212.0
10830.169,220.0
10834.501,231.0
10838.835,238.0
10843.171,219.0
10847.508,212.0
10851.847,192.0
10856.1875,212.0
10860.53,237.0
10864.874,239.0
10869.22,222.0
10873.567,212.0
10877.917,229.0
10882.269,214.0
10886.621,200.0
10890.976,201.0
10895.332,222.0
10899.69,184.0
10904.051,216.0
10908.412,202.0
10912.775,219.0
10917.141,220.0
10921.508,224.0
10925.876,238.0
10930.246,212.0
10934.618,228.0
10938.992,220.0
10943.368,231.0
10947.745,244.0
10952.124,211.0
10956.505,239.0
10960.888,249.0
10965.272,264.0
10969.658,227.0
10974.046,218.0
10978.436,252.0
10982.827,233.0
10987.221,222.0
10991.615,210.0
10996.012,233.0
11000.41,227.0
11004.811,213.0
11009.213,222.0
11013.616,225.0
11018.021,209.0
11022.429,244.0
11026.838,225.0
11031.249,233.0
11035.661,203.0
11040.075,239.0
11044.491,263.0
11048.909,247.0
11053.329,202.0
11057.75,224.0
11062.173,231.0
11066.598,217.0
11071.024,238.0
11075.453,245.0
11079.884,233.0
11084.315,188.0
11088.749,240.0
11093.185,232.0
11097.622,256.0
11102.062,256.0
11106.502,233.0
11110.944,242.0
11115.389,237.0
11119.835,237.0
11124.283,230.0
11128.733,255.0
11133.185,209.0
11137.638,235.0
11142.093,213.0
11146.55,231.0
11151.009,281.0
11155.469,258.0
11159.931,232.0
11164.395,254.0
11168.86,249.0
11173.328,228.0
11177.798,265.0
11182.269,238.0
11186.741,247.0
11191.216,262.0
11195.692,285.0
11200.171,231.0
11204.651,268.0
11209.133,308.0
11213.616,252.0
11218.102,228.0
11222.589,238.0
11227.078,238.0
11231.569,291.0
11236.062,273.0
11240.556,254.0
11245.052,234.0
11249.55,293.0
11254.05,264.0
11258.552,270.0
11263.056,285.0
11267.561,265.0
11272.067,319.0
11276.576,273.0
11281.087,284.0
11285.6,299.0
11290.114,315.0
11294.63,273.0
11299.147,308.0
11303.667,288.0
11308.188,321.0
11312.712,306.0
11317.237,319.0
11321.765,310.0
11326.293,325.0
11330.823,334.0
11335.355,331.0
11339.89,375.0
11344.426,356.0
11348.964,362.0
11353.504,376.0
11358.045,338.0
11362.588,364.0
11367.133,378.0
11371.68,392.0
11376.229,380.0
11380.779,423.0
11385.332,421.0
11389.886,417.0
11394.441,393.0
11398.999,440.0
11403.559,465.0
11408.12,479.0
11412.684,496.0
11417.249,500.0
11421.816,454.0
11426.385,522.0
11430.955,486.0
11435.527,493.0
11440.102,518.0
11444.678,541.0
11449.256,605.0
11453.836,582.0
11458.417,556.0
11463.0,597.0
11467.585,636.0
11472.172,615.0
11476.761,635.0
11481.352,645.0
11485.944,698.0
11490.539,663.0
11495.136,756.0
11499.733,745.0
11504.333,667.0
11508.935,773.0
11513.538,774.0
11518.144,776.0
11522.751,782.0
11527.36,843.0
11531.972,783.0
11536.584,771.0
11541.198,793.0
11545.814,954.0
11550.433,860.0
11555.053,866.0
11559.675,924.0
11564.299,894.0
11568.925,816.0
11573.553,857.0
11578.183,1088.0
11582.813,921.0
11587.446,845.0
11592.081,990.0
11596.718,1009.0
11601.356,886.0
11605.997,833.0
11610.64,1134.0
11615.284,1035.0
11619.931,927.0
11624.579,966.0
11629.229,1004.0
11633.88,888.0
11638.533,1032.0
11643.188,1229.0
11647.846,955.0
11652.505,715.0
11657.166,1082.0
11661.829,1248.0
11666.494,752.0
11671.161,834.0
11675.83,1379.0
11680.5,1403.0
11685.172,746.0
11689.846,706.0
11694.521,700.0
11699.199,624.0
11703.879,556.0
11708.561,480.0
11713.244,465.0
11717.93,425.0
11722.617,464.0
11727.307,429.0
11731.998,427.0
11736.69,440.0
11741.385,444.0
11746.081,435.0
11750.779,451.0
11755.4795,421.0
11760.182,408.0
11764.886,435.0
11769.592,459.0
11774.3,410.0
11779.01,398.0
11783.722,403.0
11788.436,448.0
11793.151,396.0
11797.868,417.0
11802.587,439.0
11807.308,376.0
11812.03,408.0
11816.755,407.0
11821.481,418.0
11826.21,444.0
11830.94,379.0
11835.673,368.0
11840.407,335.0
11845.144,357.0
11849.882,365.0
11854.622,340.0
11859.364,272.0
11864.108,319.0
11868.8545,373.0
11873.602,302.0
11878.351,270.0
11883.102,331.0
11887.8545,287.0
11892.609,285.0
11897.366,257.0
11902.125,295.0
11906.886,271.0
11911.648,296.0
11916.413,263.0
11921.18,273.0
11925.948,281.0
11930.719,235.0
11935.491,259.0
11940.266,262.0
11945.042,280.0
11949.82,236.0
11954.601,296.0
11959.383,276.0
11964.167,264.0
11968.953,248.0
11973.74,240.0
11978.529,270.0
11983.32,232.0
11988.113,277.0
11992.908,244.0
